    Blocking waiting for file lock on package cache
    Blocking waiting for file lock on package cache
    Blocking waiting for file lock on package cache
    Blocking waiting for file lock on package cache
    Blocking waiting for file lock on build directory
    Finished release [optimized] target(s) in 0.08s
     Running `target/release/tester ../a.out 0001`
3 0.505 1564621
3 0.505 1552685
3 0.505 1550547
3 0.505 1541296
3 0.505 1538246
3 0.505 1519644
3 0.505 1514552
3 0.505 1512414
3 0.505 1511524
3 0.505 1498728
3 0.505 1489954
3 0.505 1486103
3 1.424 1484326
3 1.424 1479473
3 1.424 1476742
3 1.424 1462576
3 1.424 1459997
3 1.424 1454422
3 1.424 1440715
3 1.424 1437506
3 1.424 1431735
3 1.424 1428264
3 2.235 1425522
3 2.235 1423912
3 2.235 1422737
3 2.235 1422691
3 2.968 1420911
3 2.968 1420112
3 2.968 1419313
3 3.71 1413887
3 3.71 1413283
3 4.448 1412108
3 4.448 1411945
3 5.123 1409858
3 5.123 1408763
3 5.849 1407471
3 6.671 1406411
3 8.174 1405469
3 8.174 1404879
3 8.174 1402721
3 8.174 1402587
3 10.531 1401199
3 10.531 1400465
3 11.298 1399444
3 12.017 1398609
3 13.15 1398222
3 13.722 1397754
3 13.722 1392379
3 14.271 1508876
3 14.271 1501950
3 14.271 1491377
3 14.271 1475708
3 14.271 1470985
3 14.921 1470373
3 14.921 1469810
3 14.921 1464831
3 14.921 1462574
3 14.921 1462090
3 15.554 1461228
3 15.554 1456541
3 15.554 1456419
3 15.554 1443517
3 15.554 1442342
3 17.063 1438487
3 17.063 1437834
3 17.063 1437568
3 17.063 1434650
3 17.985 1429464
3 17.985 1427283
3 18.911 1419096
3 18.911 1419058
3 20.684 1418772
3 20.684 1418437
3 21.57 1417101
3 22.604 1416536
3 28.458 1491081
3 28.458 1489432
3 28.458 1484129
3 28.458 1477378
3 28.458 1467293
3 28.458 1457789
3 28.458 1447778
3 28.458 1437175
3 29.138 1414198
3 29.138 1410591
3 29.138 1410237
3 30.951 1408118
3 30.951 1405220
3 32.736 1404159
3 34.359 1402021
3 34.359 1399050
3 34.359 1398897
3 35.158 1398033
3 35.158 1396594
3 35.158 1394295
3 35.158 1392311
3 36.971 1392030
3 36.971 1390871
3 36.971 1389648
3 38.114 1389224
3 39.507 1388361
3 42.098 1517901
3 42.098 1514912
3 42.098 1492238
3 42.098 1484700
3 42.098 1466606
3 42.098 1463421
3 42.098 1457123
3 42.76 1457113
3 42.76 1437209
3 42.76 1436730
3 43.394 1436185
3 43.923 1434706
3 43.923 1434352
3 43.923 1430867
3 44.478 1430629
3 44.478 1429159
3 44.478 1427056
3 45.035 1425849
3 45.035 1422493
3 45.035 1422245
3 45.614 1412627
3 45.614 1409155
3 46.937 1408948
3 46.937 1408898
3 46.937 1406936
3 46.937 1403954
3 47.763 1403713
3 47.763 1401401
3 47.763 1401374
3 47.763 1400852
3 49.476 1397530
3 50.593 1396976
3 51.501 1394072
3 52.034 1392531
3 52.034 1391910
3 52.786 1390841
3 56.037 1510007
3 56.037 1495722
3 56.037 1493200
3 56.037 1491805
3 56.037 1478119
3 56.037 1461224
3 56.037 1460895
3 56.037 1444254
3 57.039 1437847
3 57.039 1437568
3 57.966 1436610
3 57.966 1435914
3 57.966 1426850
3 57.966 1424492
3 57.966 1423263
3 57.966 1419525
3 57.966 1417531
3 58.884 1415948
3 58.884 1415669
3 58.884 1414977
3 58.884 1412933
3 59.45 1407194
3 60.529 1406832
3 60.529 1405806
3 70.32 1527397
3 70.32 1518332
3 70.32 1504811
3 70.32 1491303
3 70.32 1471909
3 70.32 1454210
3 70.32 1453665
3 71.311 1452098
3 71.311 1448148
3 71.311 1443617
3 72.128 1439706
3 72.128 1439053
3 72.827 1438707
3 73.554 1438353
3 77.591 1434189
3 77.591 1433723
3 77.591 1429686
3 77.591 1424630
3 78.2 1422677
3 78.744 1421827
3 79.825 1419516
3 79.825 1410290
3 80.384 1408487
3 80.914 1407834
3 80.914 1403710
3 80.914 1402611
3 80.914 1401188
3 81.488 1400726
3 84.318 1549959
3 84.318 1538704
3 84.318 1530199
3 84.318 1527484
3 84.318 1525831
3 84.318 1524299
3 84.318 1523081
3 84.318 1507932
3 84.318 1506644
3 84.318 1501791
3 84.318 1495261
3 85.381 1486619
3 85.381 1486414
3 85.381 1478848
3 85.381 1472097
3 85.381 1466239
3 85.381 1462833
3 85.381 1462479
3 85.381 1455852
3 85.381 1455573
3 85.381 1445574
3 85.381 1444981
3 85.381 1441018
3 87.223 1439193
3 87.223 1437619
3 87.223 1433474
3 87.223 1433036
3 87.223 1423784
3 88.214 1423625
3 88.214 1421008
3 89.124 1420895
3 89.124 1415653
3 89.815 1414182
3 90.336 1411669
3 90.336 1411574
3 91.016 1411214
3 91.016 1410630
3 92.835 1408587
3 93.914 1405966
3 93.914 1405735
3 94.635 1405329
3 94.635 1404005
3 94.635 1401108
3 95.567 1400825
3 95.567 1400059
3 96.42 1396631
3 97.012 1392579
3 98.187 1551298
3 98.187 1547414
3 98.187 1525338
3 98.187 1502796
3 98.187 1491458
3 98.187 1490538
3 98.187 1483919
3 98.974 1477894
3 98.974 1473834
3 98.974 1467541
3 99.952 1463452
3 99.952 1459562
3 99.952 1457363
3 99.952 1447352
3 100.929 1444318
3 100.929 1439063
3 100.929 1438729
3 100.929 1432020
3 100.929 1430739
3 101.901 1428775
3 101.901 1427716
3 101.901 1425727
3 101.901 1415284
3 101.901 1410939
3 101.901 1408078
3 102.873 1407659
3 103.814 1405386
3 104.74 1404893
3 106.477 1404804
3 107.246 1404672
3 108.17 1402829
3 109.01 1401573
3 109.01 1400813
3 109.01 1394453
3 110.432 1394316
3 112.04 1525222
3 112.04 1508327
3 112.04 1487014
3 112.04 1472088
3 112.04 1467429
3 112.04 1464397
3 112.811 1461651
3 112.811 1460040
3 112.811 1448401
3 112.811 1444514
3 112.811 1440251
3 112.811 1436387
3 112.811 1433211
3 113.76 1429503
3 113.76 1427838
3 113.76 1427365
3 114.71 1426737
3 114.71 1425098
3 114.71 1422130
3 114.71 1418790
3 114.71 1416373
3 114.71 1415720
3 115.735 1415127
3 116.6 1413739
3 116.6 1413022
3 116.6 1408439
3 117.144 1405259
3 117.914 1404090
3 121.343 1403906
3 123.145 1399185
3 123.827 1396107
3 124.85 1395922
3 124.85 1395532
3 126.519 1528029
3 126.519 1508186
3 126.519 1498691
3 126.519 1480056
3 126.519 1478651
3 126.519 1478629
3 127.133 1471814
3 127.133 1461181
3 127.133 1460902
3 127.133 1456055
3 127.133 1444833
3 127.133 1443975
3 127.133 1438468
3 127.785 1437991
3 127.785 1435064
3 127.785 1431240
3 127.785 1431034
3 128.55 1428294
3 129.462 1428184
3 129.462 1427638
3 129.462 1425187
3 129.462 1422665
3 129.462 1415990
3 130.453 1413906
3 130.453 1411300
3 130.453 1407258
3 131.376 1405096
3 140.589 1491321
3 140.589 1487611
3 140.589 1469633
3 140.589 1468980
3 141.541 1455133
3 141.541 1449119
3 142.469 1444463
3 142.469 1441296
3 142.469 1437980
3 143.421 1434673
3 143.421 1431662
3 144.353 1426308
3 144.353 1418471
3 145.28 1418088
3 145.28 1404989
3 145.28 1400667
3 146.179 1399400
3 146.179 1398523
3 147.057 1397269
3 147.057 1394904
3 148.348 1393715
3 148.956 1392685
3 149.485 1392392
3 153.013 1391098
3 153.745 1391023
3 154.284 1524596
3 154.284 1520966
3 154.284 1515459
3 154.284 1512799
3 154.869 1503835
3 154.869 1499344
3 155.415 1497959
3 155.415 1494870
3 156.05 1491685
3 156.613 1489163
3 156.613 1485606
3 157.175 1484774
3 157.175 1484310
3 157.175 1475925
3 157.175 1472022
3 157.175 1471189
3 157.768 1470483
3 157.768 1470289
3 157.768 1465648
3 157.768 1461388
3 157.768 1460843
3 159.435 1459535
3 160.522 1459091
3 168.379 1517806
3 168.379 1512596
3 168.379 1506717
3 168.379 1487379
3 168.379 1480457
3 168.379 1474007
3 169.003 1467388
3 169.003 1457303
3 169.003 1449591
3 169.003 1443185
3 169.003 1440000
3 169.651 1436821
3 169.651 1436054
3 169.651 1426003
3 169.651 1423505
3 169.651 1423343
3 170.292 1421707
3 170.292 1420158
3 170.292 1419569
3 170.901 1418983
3 172.594 1418075
3 172.594 1413837
3 173.524 1412906
3 173.524 1410384
3 173.524 1405796
3 174.469 1404697
3 174.469 1403522
3 174.469 1402935
3 175.413 1401346
3 176.274 1400753
3 177.133 1399208
3 180.245 1397747
3 180.245 1397568
3 180.245 1396572
3 180.919 1396218
3 180.919 1394743
3 182.675 1544711
3 182.675 1526174
3 182.675 1505053
3 182.675 1494294
3 182.675 1492702
3 182.675 1486343
3 182.675 1477428
3 183.408 1468699
3 183.408 1465393
3 183.408 1458890
3 183.408 1456982
3 183.408 1455705
3 183.408 1453264
3 184.088 1452985
3 184.088 1451939
3 184.69 1449548
3 184.69 1448411
3 185.264 1435836
3 185.264 1432512
3 185.264 1432233
3 185.914 1430182
3 185.914 1425219
3 186.523 1413641
3 186.523 1412853
3 187.097 1412060
3 187.656 1411551
3 189.655 1409947
3 190.198 1409765
3 191.06 1409668
3 196.634 1526666
3 196.634 1521143
3 196.634 1519142
3 196.634 1513341
3 196.634 1508569
3 196.634 1503682
3 196.634 1487475
3 196.634 1473415
3 196.634 1465807
3 197.65 1463306
3 197.65 1460277
3 197.65 1456303
3 197.65 1453658
3 197.65 1446812
3 197.65 1444179
3 198.599 1438872
3 198.599 1436727
3 198.599 1432099
3 198.599 1430319
3 199.601 1428802
3 199.601 1425702
3 201.391 1425348
3 210.088 1506003
3 210.088 1503959
3 210.088 1493691
3 210.088 1490506
3 210.088 1478955
3 210.088 1471156
3 210.088 1469981
3 210.088 1466510
3 210.088 1465051
3 210.088 1457252
3 210.088 1452824
3 212.964 1451728
3 213.885 1451009
3 213.885 1450090
3 213.885 1448692
3 213.885 1447411
3 213.885 1447363
3 213.885 1446857
3 214.876 1445459
3 214.876 1444178
3 215.828 1439864
3 216.747 1428335
3 216.747 1427381
3 216.747 1426083
3 217.701 1422334
3 217.701 1421491
3 219.462 1421183
3 219.462 1418841
3 219.462 1417212
3 220.368 1414288
3 222.07 1414192
3 222.907 1413647
3 222.907 1413368
3 223.465 1412957
3 223.999 1411523
3 223.999 1408515
3 224.668 1522897
3 224.668 1519404
3 224.668 1515199
3 224.668 1512922
3 224.668 1510157
3 224.668 1500146
3 225.565 1499174
3 225.565 1494891
3 225.565 1490669
3 225.565 1484528
3 226.222 1468529
3 226.222 1466198
3 226.774 1458008
3 226.774 1457326
3 226.774 1452322
3 226.774 1450843
3 227.682 1442161
3 227.682 1442050
3 227.682 1435884
3 227.682 1435702
3 227.682 1434527
3 229.497 1431490
3 230.055 1431445
3 231.24 1430037
3 231.24 1428103
3 231.24 1428014
3 231.24 1425820
3 231.24 1424645
3 232.2 1419055
3 233.116 1418654
3 234.032 1413816
3 234.938 1408307
3 238.203 1580822
3 238.203 1561284
3 238.203 1557685
3 238.203 1532254
3 238.203 1517328
3 238.203 1509807
3 238.203 1504300
3 238.203 1503535
3 238.203 1484933
3 239.038 1476950
3 239.038 1466440
3 239.038 1466238
3 239.746 1459450
3 239.746 1457941
3 240.306 1455753
3 240.306 1450337
3 240.306 1440055
3 240.954 1440033
3 240.954 1434379
3 240.954 1424368
3 240.954 1424033
3 241.532 1418616
3 242.067 1418206
3 242.067 1416577
3 243.291 1413485
3 243.291 1413339
3 243.291 1407163
3 244.208 1406247
3 246.77 1405224
3 247.635 1404174
3 248.16 1403086
3 248.675 1401319
3 249.877 1400879
3 252.353 1548658
3 252.353 1515687
3 252.353 1509587
3 252.353 1497312
3 252.353 1488113
3 252.353 1482675
3 252.353 1476824
3 252.353 1472746
3 252.353 1459285
3 252.353 1458110
3 253.398 1455876
3 253.398 1452879
3 253.398 1443202
3 253.398 1440222
3 254.349 1440100
3 254.349 1433789
3 254.349 1431361
3 255.244 1430682
3 255.244 1430029
3 255.793 1429473
3 255.793 1427604
3 255.793 1427250
3 255.793 1425414
3 255.793 1419972
3 256.37 1412968
3 256.96 1412548
3 256.96 1412518
3 257.522 1409748
3 259.196 1409314
3 260.207 1408547
3 266.341 1496480
3 266.341 1493958
3 266.341 1483921
3 266.341 1477582
3 266.341 1470076
3 266.341 1464868
3 266.984 1455647
3 266.984 1453794
3 266.984 1452235
3 266.984 1451566
3 266.984 1449809
3 266.984 1449405
3 266.984 1445667
3 267.799 1439422
3 267.799 1437748
3 268.71 1434236
3 269.561 1432649
3 269.561 1429388
3 270.118 1425872
3 270.118 1424876
3 270.667 1423303
3 272.357 1422818
3 272.357 1422262
3 274.276 1422094
3 274.276 1421160
3 274.276 1421027
3 274.276 1420546
3 275.531 1420166
3 276.381 1417166
3 276.381 1415991
3 277.34 1415019
3 277.34 1413469
3 280.692 1515942
3 280.692 1510353
3 280.692 1465628
3 280.692 1461632
3 280.692 1442294
3 280.692 1432209
3 280.692 1424145
3 282.049 1418776
3 282.934 1417737
3 282.934 1417417
3 283.861 1415181
3 284.545 1414305
3 284.545 1410989
3 284.545 1409153
3 284.545 1403319
3 285.107 1402454
3 285.107 1399810
3 290.809 1399073
3 290.809 1397225
3 291.523 1396572
3 291.523 1394806
3 291.523 1394478
3 292.091 1394171
3 292.091 1391977
3 294.755 1539990
3 294.755 1529132
3 294.755 1516347
3 294.755 1513429
3 294.755 1510907
3 294.755 1499406
3 294.755 1484963
3 294.755 1482986
3 294.755 1478736
3 295.767 1457257
3 295.767 1456194
3 295.767 1453808
3 296.666 1443497
3 296.666 1443239
3 296.666 1440255
3 297.568 1439559
3 297.568 1438278
3 297.568 1437660
3 298.465 1434891
3 299.36 1431706
3 299.36 1428448
3 301.466 1427915
3 302.346 1426385
3 302.346 1421292
3 302.346 1419741
3 302.346 1415531
3 303.292 1414666
3 304.164 1414647
3 304.164 1414013
3 305.28 1412125
3 305.801 1408276
3 306.319 1407720
3 307.183 1407623
3 308.048 1538431
3 308.048 1527878
3 308.048 1514031
3 308.048 1506479
3 308.048 1505564
3 308.048 1499858
3 308.048 1499575
3 308.048 1496864
3 308.048 1496271
3 308.984 1495780
3 308.984 1493383
3 308.984 1493240
3 308.984 1484452
3 309.679 1483103
3 309.679 1478572
3 309.679 1473218
3 309.679 1456253
3 310.614 1455436
3 310.614 1453234
3 310.614 1451953
3 311.578 1449020
3 312.479 1444698
3 312.479 1443523
3 312.479 1442641
3 315.12 1435152
3 315.12 1433296
3 316.145 1428443
3 321.534 1425046
3 321.534 1424660
3 322.438 1545429
3 322.438 1527360
3 322.438 1520609
3 322.438 1516264
3 322.438 1502947
3 322.438 1501167
3 322.438 1497662
3 322.438 1497009
3 323.143 1490089
3 323.143 1466318
3 323.143 1466313
3 323.143 1465744
3 323.719 1463632
3 324.247 1463596
3 324.247 1463570
3 324.247 1461048
3 325.311 1460003
3 326.173 1459072
3 326.173 1455262
3 326.173 1446757
3 327.079 1444042
3 327.079 1434031
3 329.676 1432889
3 336.271 1530798
3 336.271 1519719
3 336.271 1508124
3 336.271 1506843
3 336.271 1501544
3 336.271 1489589
3 336.271 1477736
3 336.271 1472883
3 337.267 1467464
3 337.267 1462818
3 338.415 1461510
3 338.415 1460952
3 338.415 1454768
3 339.584 1454268
3 340.27 1453591
3 340.872 1448738
3 342.008 1444373
3 342.582 1441188
3 342.582 1440780
3 345.611 1437960
3 347.813 1434121
1 348.355 1427194
3 348.355 1426019
3 348.91 1422066
3 349.649 1421129
3 350.562 1470251
3 350.562 1461579
3 350.562 1460959
3 350.562 1456880
3 350.562 1449084
3 350.562 1445080
3 351.542 1444884
3 351.542 1443874
3 351.542 1443789
3 351.542 1438432
3 351.542 1437779
3 352.503 1436646
3 352.503 1433275
3 352.503 1432554
3 353.621 1431043
3 353.621 1428637
1 353.621 1410332
3 354.343 1408277
3 354.343 1407624
3 355.695 1406003
3 356.298 1405649
3 356.298 1394262
3 356.298 1390762
3 358.098 1389432
3 358.098 1388764
3 358.898 1386514
3 358.898 1386381
3 359.767 1385686
3 359.767 1385206
3 359.767 1384852
3 360.67 1379999
3 364.393 1540051
3 364.393 1523854
3 364.393 1515974
3 364.393 1506231
3 364.393 1496686
3 364.393 1464623
3 364.393 1464329
3 364.393 1453503
3 364.393 1448432
3 364.393 1446225
3 365.118 1442981
3 365.118 1442293
3 365.118 1431793
3 365.118 1427780
3 365.118 1425566
3 365.118 1421532
3 365.118 1419883
3 365.722 1417518
3 365.722 1417164
3 365.722 1415380
3 366.945 1413287
3 367.998 1412195
3 368.526 1410731
3 369.046 1403113
3 369.788 1402435
3 369.788 1401452
3 371.326 1400832
3 371.326 1400478
3 371.326 1399908
3 371.908 1395663
3 371.908 1394092
3 371.908 1393273
3 372.966 1391802
3 372.966 1391440
3 372.966 1390574
3 378.442 1479693
3 378.442 1473527
3 378.442 1471005
3 378.442 1462920
3 378.442 1456725
3 378.442 1438257
3 378.442 1435786
3 378.442 1432213
3 378.442 1429167
3 379.135 1424361
3 379.135 1422959
3 379.135 1418563
3 379.135 1417630
3 379.722 1410671
3 379.722 1409496
3 380.411 1409292
3 384.184 1408720
3 387.356 1407517
3 388.227 1406342
3 388.227 1406303
3 390.331 1406198
3 390.331 1404099
3 392.379 1496151
3 392.379 1485109
3 392.379 1482952
3 392.379 1482299
3 392.379 1468014
3 392.379 1463428
3 392.379 1459757
3 392.379 1456522
3 393.416 1451860
3 393.416 1448856
3 393.416 1446685
3 393.416 1438434
3 393.416 1432927
3 394.358 1429236
3 394.358 1428824
3 394.358 1422790
3 394.358 1420380
3 394.358 1417685
3 394.358 1417640
3 395.363 1416154
3 395.363 1414455
3 395.363 1412452
3 395.363 1409314
3 396.332 1408504
3 396.332 1407426
3 396.332 1405998
3 396.332 1404846
3 397.3 1404193
3 397.3 1403082
3 398.184 1401687
3 399.062 1401615
3 399.941 1398996
3 400.844 1398451
3 401.48 1394784
3 403.802 1394206
3 404.695 1393191
3 404.695 1393100
3 404.695 1393077
3 405.635 1392728
3 406.537 1525254
3 406.537 1506787
3 406.537 1487536
3 406.537 1484603
3 406.537 1460487
3 406.537 1458910
3 407.637 1449307
3 407.637 1443713
3 407.637 1427516
3 408.58 1427046
3 408.58 1425555
3 408.58 1425251
3 408.58 1421619
3 408.58 1419711
3 409.297 1416488
3 409.297 1413172
3 409.93 1412985
3 409.93 1409275
3 409.93 1408630
3 409.93 1403246
3 411.04 1401965
3 411.569 1401189
3 411.569 1400795
3 411.569 1400208
3 415.654 1398832
3 415.654 1397723
3 416.39 1395007
3 417.692 1393994
3 417.692 1390930
3 418.238 1390097
3 418.898 1388983
3 419.752 1388587
3 420.619 1505894
3 420.619 1495074
3 420.619 1485199
3 420.619 1480115
3 420.619 1469207
3 420.619 1458696
3 420.619 1458103
3 420.619 1455341
3 420.619 1454060
3 420.619 1453407
3 421.478 1437506
3 421.478 1434064
3 421.478 1429609
3 421.478 1429071
3 422.044 1422452
3 422.044 1421932
3 422.594 1421882
3 422.594 1419794
3 422.594 1418714
3 425.136 1416548
3 425.694 1415949
3 426.241 1414845
3 426.241 1413466
3 426.785 1411487
3 426.785 1411157
3 426.785 1410442
3 426.785 1410395
3 426.785 1406685
3 427.35 1405262
3 434.356 1489695
3 434.356 1485586
3 434.356 1483643
3 434.356 1466748
3 434.356 1462809
3 435.008 1461935
3 435.008 1458197
3 435.008 1457350
3 435.008 1450599
3 435.008 1445014
3 436.196 1439137
3 436.196 1436378
3 436.196 1436234
3 436.791 1434195
3 437.391 1432969
3 437.391 1431489
3 437.391 1431451
3 437.391 1428667
3 438.232 1424441
3 438.232 1419554
3 438.232 1414580
3 439.22 1413239
3 439.22 1413108
3 439.22 1412461
3 439.818 1411805
3 448.24 1559195
3 448.24 1508003
3 448.24 1491806
3 448.24 1489747
3 448.24 1486461
3 448.24 1481242
3 448.24 1480020
3 448.24 1468629
3 448.24 1464865
3 449.282 1461680
3 449.282 1457149
3 449.282 1455159
3 449.282 1454243
3 450.012 1445474
3 450.012 1444100
3 450.012 1443858
3 450.012 1440347
3 450.724 1440342
3 450.724 1437112
3 451.491 1436296
3 451.491 1434089
3 452.386 1433696
3 453.024 1432783
3 453.024 1430766
3 453.024 1424732
3 453.024 1423713
3 453.63 1422261
3 454.165 1421575
3 455.228 1420773
3 455.996 1416459
3 455.996 1416033
3 462.297 1516259
3 462.297 1511674
3 462.297 1508358
3 462.297 1484198
3 462.297 1480710
3 462.297 1474774
3 462.297 1456444
3 462.297 1449343
3 462.297 1445891
3 462.297 1444505
3 462.297 1441320
3 462.297 1440145
3 462.297 1439200
3 462.297 1437345
3 463.452 1434914
3 463.452 1432872
3 463.452 1430594
3 465.247 1423169
3 466.176 1422516
3 466.176 1421028
3 466.176 1412772
3 467.157 1412320
3 467.157 1410940
3 467.157 1409765
3 468.94 1407582
3 470.018 1407390
3 470.018 1407243
3 476.707 1525879
3 476.707 1507405
3 476.707 1486690
3 476.707 1463003
3 476.707 1458903
3 476.707 1449972
3 476.707 1447028
3 476.707 1446416
3 476.707 1441842
3 478.394 1435457
3 478.394 1433577
3 478.952 1431131
3 478.952 1431069
3 478.952 1424318
3 478.952 1423997
3 478.952 1423344
3 479.631 1423293
3 479.631 1420278
3 479.631 1419270
3 480.22 1419229
3 480.22 1414643
3 480.22 1413210
3 480.22 1412383
3 480.22 1412020
3 480.22 1411848
3 480.908 1410875
3 480.908 1408856
3 482.67 1407921
3 482.67 1407567
3 482.67 1405606
3 482.67 1402612
3 484.222 1402182
3 485.389 1397651
3 488.333 1396782
3 488.333 1396004
3 490.406 1441565
3 490.406 1438727
3 490.406 1435411
3 490.406 1434758
3 490.406 1433099
3 491.354 1431048
3 491.354 1430907
3 491.354 1430902
3 492.627 1430548
3 494.548 1428753
3 495.177 1427210
3 496.096 1416348
3 497.491 1414542
3 498.678 1409689
3 499.937 1409423
3 500.537 1409402
3 502.39 1409036
3 503.214 1407616
3 503.214 1407613
3 503.214 1407337
3 503.214 1406960
3 503.998 1406008
3 504.534 1490658
3 504.534 1485684
3 504.534 1481678
3 505.149 1479285
3 505.149 1467324
3 505.149 1466355
3 505.149 1459793
3 505.149 1451159
3 505.149 1442749
3 506.063 1442470
3 506.063 1442151
3 506.778 1438207
3 506.778 1435689
3 506.778 1432386
3 506.778 1427297
3 506.778 1426318
3 506.778 1420021
3 507.376 1416744
3 507.91 1409435
3 510.606 1408890
3 518.236 1463199
3 518.236 1461594
3 518.236 1455395
3 518.236 1454220
3 519.178 1453766
3 519.178 1453478
3 519.178 1444376
3 519.178 1442600
3 519.754 1437733
3 519.754 1432971
3 522.195 1430380
3 522.195 1426188
3 523.574 1415294
3 523.574 1413027
3 523.574 1411571
3 524.212 1410396
3 524.212 1407261
3 524.212 1407211
3 524.756 1402451
3 527.662 1400913
3 527.662 1400058
3 528.217 1396841
3 528.217 1393307
3 532.313 1535739
3 532.313 1532821
3 532.313 1525176
3 532.313 1514733
3 532.313 1507763
3 532.313 1493219
3 532.313 1491971
3 532.313 1485825
3 532.313 1482858
3 532.313 1466937
3 532.991 1464959
3 532.991 1464007
3 532.991 1462232
3 532.991 1460452
3 532.991 1457662
3 532.991 1453248
3 532.991 1451494
3 532.991 1448806
3 532.991 1448596
3 532.991 1445992
3 533.643 1442341
3 533.643 1441670
3 533.643 1435755
3 533.643 1429136
3 533.643 1428662
3 533.643 1425941
3 534.221 1425861
3 534.221 1417214
3 534.805 1415668
3 534.805 1415314
3 535.337 1414344
3 535.337 1400972
3 535.337 1397770
3 535.337 1396313
3 535.337 1395006
3 535.924 1392073
3 536.451 1391522
3 537.322 1389564
3 541.791 1389245
3 542.31 1387653
3 545.489 1386593
3 545.489 1385940
3 546.156 1586366
3 546.156 1585292
3 546.156 1572290
3 546.156 1542996
3 546.156 1537059
3 546.156 1527316
3 546.156 1502862
3 546.156 1487661
3 546.156 1487508
3 546.156 1482154
3 546.156 1475302
3 547.058 1471957
3 547.058 1464420
3 547.058 1463245
3 547.058 1457249
3 547.058 1456895
3 547.058 1456617
3 547.058 1450655
3 547.826 1441892
3 547.826 1441317
3 547.826 1440309
3 547.826 1438125
3 548.439 1437415
3 548.439 1436992
3 548.439 1436819
3 548.99 1433886
3 549.548 1431666
3 550.092 1422412
3 550.092 1419095
3 550.648 1418749
3 550.648 1417634
3 550.648 1416805
3 553.731 1414564
3 553.731 1411745
3 555.513 1409074
3 558.29 1408443
3 559.59 1408424
3 560.287 1530728
3 560.287 1507168
3 560.287 1494121
3 560.287 1481952
3 560.287 1464404
3 560.287 1463229
3 560.287 1461537
3 560.287 1459818
3 561.078 1452607
3 561.078 1450597
3 561.078 1433560
3 561.078 1433273
3 562.965 1429521
3 563.83 1429252
3 563.83 1429060
3 563.83 1424207
3 564.726 1423928
3 565.452 1423530
3 565.452 1415632
3 566.009 1414204
3 566.542 1413950
3 567.059 1413830
3 567.781 1411916
3 568.398 1410635
3 569.445 1410535
3 570.49 1409360
3 571.091 1408762
3 571.667 1405062
3 571.667 1402857
3 572.346 1401710
3 572.924 1401696
3 572.924 1397039
3 574.109 1484818
3 574.109 1484325
3 574.109 1481803
3 574.109 1480628
3 574.109 1468302
3 574.109 1461510
3 574.109 1455743
3 574.841 1449002
3 574.841 1443194
3 574.841 1440999
3 575.532 1440645
3 575.532 1438644
3 575.532 1430753
3 575.532 1424299
3 576.1 1421923
3 576.959 1421569
3 576.959 1419214
3 576.959 1418911
3 578.759 1418119
3 578.759 1414381
3 578.759 1411859
3 582.387 1409508
3 583.28 1405194
3 583.28 1404990
3 588.38 1585353
3 588.38 1542173
3 588.38 1522505
3 588.38 1521398
3 588.38 1511984
3 588.38 1499140
3 588.38 1494457
3 588.38 1480754
3 588.38 1475822
3 588.38 1473446
3 588.38 1466495
3 589.424 1456752
3 589.424 1451529
3 589.424 1444533
3 589.424 1443893
3 590.342 1440835
3 590.342 1437593
3 591.237 1436344
3 592.103 1435281
3 592.103 1417876
3 592.103 1416041
3 592.103 1415955
3 593.054 1415268
3 593.943 1415111
3 593.943 1414841
3 595.601 1413743
3 595.601 1412279
3 596.142 1404914
3 596.967 1404178
3 596.967 1401656
3 596.967 1396859
3 597.852 1396752
3 597.852 1392980
3 599.885 1392560
3 602.289 1510045
1 602.289 1506696
3 602.289 1492673
3 602.289 1486432
3 602.289 1482925
3 602.289 1464323
3 603.292 1464143
3 603.292 1463490
3 603.292 1447963
3 603.292 1446471
3 603.292 1442082
3 603.292 1441660
3 604.142 1441362
3 604.686 1428598
3 604.686 1426121
3 604.686 1422894
3 605.279 1419709
3 608.131 1419559
3 608.131 1418856
3 608.131 1417414
3 608.688 1416062
3 608.688 1414482
3 609.253 1412606
3 609.253 1411540
3 609.253 1409999
3 609.253 1409819
3 609.253 1408975
3 609.844 1408779
3 609.844 1408718
3 612.593 1406196
3 616.063 1603801
3 616.063 1595737
3 616.063 1595351
3 616.063 1592742
3 616.063 1548811
3 616.063 1537631
3 616.063 1535109
3 616.063 1512567
3 616.063 1511392
3 616.063 1507078
3 616.063 1506324
3 616.063 1488103
3 616.063 1475892
3 616.063 1470766
3 617.209 1465814
3 617.209 1460929
3 617.209 1447212
3 617.209 1442935
3 618.139 1442417
3 618.139 1438982
3 618.139 1436713
3 618.139 1425970
3 618.139 1422481
3 619.16 1420662
3 619.16 1415571
3 620.076 1412835
3 620.946 1406648
3 620.946 1405982
3 620.946 1405386
3 622.327 1399353
3 622.856 1398456
3 624.969 1398316
3 624.969 1394737
3 626.019 1390876
3 628.126 1388026
3 628.651 1387373
3 629.453 1386541
3 629.453 1385366
3 630.326 1551814
3 630.326 1542499
3 630.326 1539035
3 630.326 1525874
3 630.326 1520367
3 630.326 1514321
3 630.326 1498994
3 630.326 1495990
3 630.326 1488558
3 630.326 1485373
3 630.326 1479713
3 630.326 1479367
3 630.326 1476182
3 631.407 1471594
3 631.407 1460112
3 631.407 1450369
3 631.407 1450015
3 632.158 1446620
3 632.158 1437166
3 632.158 1433213
3 632.72 1428296
3 632.72 1426227
3 633.281 1422001
3 633.953 1419159
3 633.953 1415769
3 634.795 1411452
3 634.795 1409489
3 634.795 1409018
3 634.795 1407608
3 635.817 1405100
3 639.822 1402753
3 640.865 1400479
3 640.865 1397950
3 644.768 1517039
3 644.768 1507934
3 644.768 1501315
3 644.768 1496951
3 644.768 1476898
3 644.768 1476709
3 645.707 1469834
3 645.707 1464837
3 645.707 1462629
3 645.707 1461552
3 645.707 1461205
3 646.621 1460761
3 646.621 1458973
3 646.621 1453531
3 646.621 1447962
3 647.281 1441343
3 647.281 1435989
3 647.281 1431618
3 647.281 1428973
3 647.858 1428459
3 647.858 1425832
3 648.402 1425738
3 648.932 1425079
3 649.468 1423219
3 650.139 1418366
3 650.139 1415181
3 651.487 1414323
3 651.487 1413778
3 651.487 1411735
3 653.317 1411371
3 653.317 1409269
3 654.208 1408646
3 654.208 1407677
3 654.208 1407436
3 655.135 1404675
3 655.135 1404371
3 656.016 1403386
3 656.016 1400961
3 658.67 1565969
3 658.67 1558022
3 658.67 1537971
3 658.67 1521555
3 658.67 1517653
3 658.67 1498315
3 658.67 1486321
3 658.67 1479787
3 658.67 1479441
3 658.67 1468261
3 659.721 1468229
3 659.721 1467225
3 659.721 1458970
3 659.721 1456900
3 659.721 1455391
3 660.699 1447754
3 660.699 1446011
3 660.699 1441334
3 660.699 1439397
3 661.374 1438096
3 661.374 1426284
3 661.374 1423004
3 662.149 1422789
3 662.694 1421966
3 662.694 1420993
3 662.694 1420714
3 662.694 1420641
3 662.694 1415165
3 662.694 1413416
3 662.694 1412617
3 663.333 1411528
3 663.333 1409191
3 663.873 1408016
3 664.437 1406509
3 665.586 1405705
3 665.586 1403786
3 666.133 1399044
3 666.133 1398322
3 666.673 1398136
3 667.47 1394969
3 668.282 1394762
3 668.282 1392993
3 668.282 1389926
3 668.973 1389051
3 668.973 1388751
3 671.578 1388729
3 672.254 1500924
3 672.254 1499179
3 672.254 1473785
3 672.254 1472836
3 672.254 1465229
3 672.254 1459920
3 672.254 1458928
3 672.254 1455531
3 672.254 1455155
3 672.927 1452950
3 672.927 1451998
3 672.927 1448511
3 673.558 1448429
3 674.18 1446649
3 674.18 1442216
3 674.18 1439694
3 674.766 1432087
3 674.766 1428070
3 676.208 1423172
3 677.142 1422952
3 677.142 1421310
3 677.142 1421104
3 677.142 1414353
3 678.045 1413591
3 678.045 1412806
3 679.122 1412322
3 679.122 1407431
3 679.122 1406296
3 679.855 1405942
3 683.361 1405625
3 684.216 1402757
3 684.874 1402265
3 684.874 1399392
3 684.874 1395221
3 685.545 1393064
3 685.545 1392890
3 686.136 1507059
3 686.136 1503168
3 686.136 1495833
3 686.136 1492214
3 686.136 1492095
3 686.136 1491816
3 687.032 1488979
3 687.032 1486523
3 687.032 1482361
3 687.798 1482007
3 687.798 1481273
3 688.345 1474490
3 688.345 1467005
3 688.345 1465385
3 688.345 1455374
3 689.493 1454646
3 689.493 1452603
3 689.493 1443154
3 689.493 1439846
3 689.493 1438493
3 690.072 1437534
3 691.856 1435700
3 691.856 1435047
3 691.856 1434561
3 692.637 1433311
3 692.637 1432472
3 693.56 1430737
3 699.472 1430386
3 700.364 1518173
3 700.364 1513973
3 700.364 1507107
3 700.364 1497884
3 700.364 1481661
3 700.364 1467376
3 701.355 1455607
3 701.355 1453469
3 701.355 1448775
3 701.355 1445924
3 701.355 1442186
3 702.324 1440217
3 702.324 1437533
3 704.2 1437233
3 704.2 1436512
3 704.2 1436158
3 705.344 1435148
3 706.136 1432618
3 706.136 1431192
3 706.85 1430287
3 707.482 1426882
3 707.482 1425892
3 708.239 1422669
3 708.239 1422150
3 708.239 1420975
3 709.388 1420263
3 712.928 1416122
3 712.928 1412937
3 714.054 1578320
3 714.054 1540090
3 714.054 1531490
3 714.054 1513160
3 714.054 1508965
3 714.054 1505717
3 714.054 1486379
3 714.054 1473726
3 714.054 1465908
3 714.718 1454296
3 714.718 1449443
3 714.718 1448689
3 715.285 1447280
3 715.285 1444758
3 715.285 1444570
3 715.285 1444224
3 715.285 1441963
3 715.285 1441418
3 715.285 1440744
3 715.917 1431001
3 715.917 1423730
3 716.988 1416947
3 716.988 1411843
3 716.988 1409589
3 716.988 1409386
3 717.581 1408290
3 717.581 1404416
3 717.581 1402597
3 718.15 1400660
3 718.15 1398897
3 718.691 1394964
3 718.691 1394222
3 718.691 1392967
3 719.242 1392613
3 719.242 1391934
3 728.022 1522097
3 728.022 1514588
3 728.022 1491775
3 728.022 1487114
3 728.022 1484774
3 728.022 1462587
3 728.022 1462469
3 728.022 1461816
3 728.022 1454744
3 728.702 1444167
3 728.702 1443847
3 728.702 1437111
3 728.702 1435955
3 729.268 1432678
3 729.268 1427508
3 729.268 1427040
3 729.268 1419279
3 729.268 1418641
3 730.739 1417776
3 731.981 1417413
3 731.981 1413510
3 731.981 1412256
3 732.907 1409734
3 732.907 1403029
3 736.592 1402080
3 738.211 1401838
3 738.211 1400833
3 738.779 1399988
3 738.779 1399413
3 738.779 1399094
3 740.513 1396771
3 742.268 1483512
3 742.268 1480990
3 742.268 1475668
3 742.268 1459567
3 742.268 1458905
3 742.268 1454173
3 742.268 1443837
3 742.268 1439208
3 743.059 1426735
3 743.059 1421216
3 743.801 1418845
3 744.708 1416800
3 744.708 1416321
3 746.804 1416255
3 748.289 1414264
3 749.55 1414110
3 750.26 1413528
3 750.26 1412983
3 750.26 1412040
3 752.057 1410663
3 752.057 1409270
3 752.937 1407193
3 752.937 1406018
3 753.841 1404682
3 753.841 1404668
3 755.576 1403955
3 756.445 1518294
3 756.445 1515839
3 756.445 1512854
3 756.445 1506485
3 756.445 1505668
3 756.445 1495662
3 756.445 1494732
3 756.445 1492955
3 757.444 1488987
3 757.444 1469083
3 757.444 1462575
3 757.444 1458259
3 757.444 1451508
3 757.444 1450071
3 757.444 1447894
3 758.144 1445449
3 758.144 1441326
3 758.144 1440573
3 758.144 1440045
3 758.144 1435189
3 758.857 1423757
3 758.857 1421235
3 759.415 1420687
3 759.415 1420423
3 759.415 1411641
3 759.415 1411634
3 762.095 1411215
3 762.095 1408748
3 762.787 1408717
3 763.315 1408172
3 763.315 1403827
3 763.315 1403473
3 764.091 1403399
3 766.452 1403158
3 770.731 1497922
3 770.731 1490909
3 770.731 1471728
3 770.731 1462999
3 770.731 1461641
3 771.361 1460429
3 771.361 1455022
3 771.361 1450659
3 771.975 1436460
3 771.975 1435190
3 771.975 1433900
3 771.975 1430887
3 771.975 1424136
3 773.327 1421509
3 773.921 1418440
3 773.921 1417721
3 774.473 1414802
3 774.473 1411884
3 774.473 1411878
3 774.473 1408104
3 775.079 1406442
3 775.666 1405680
3 775.666 1405205
3 775.666 1405175
3 776.234 1400494
3 778.391 1396241
3 778.937 1393192
3 778.937 1391765
3 779.501 1391329
3 780.127 1387591
3 780.127 1387234
3 780.127 1386342
3 780.745 1385484
3 781.309 1385130
3 784.78 1495314
3 784.78 1474934
3 784.78 1472749
3 784.78 1458464
3 784.78 1457321
3 784.78 1447800
3 784.78 1442991
3 784.78 1442637
3 784.78 1440770
3 784.78 1438106
3 784.78 1436166
3 784.78 1429415
3 784.78 1428263
3 786.722 1426262
3 786.722 1424183
3 786.722 1423490
3 787.794 1421884
3 787.794 1421170
3 787.794 1420380
3 788.933 1418812
3 788.933 1417649
3 788.933 1411128
3 790.053 1409716
3 792.069 1409541
3 792.069 1409340
3 792.069 1409316
3 792.069 1409071
3 793.711 1409063
3 793.711 1408989
3 794.621 1408964
3 794.621 1408682
3 795.526 1408029
3 795.526 1405625
3 796.413 1400609
3 798.2 1518216
3 798.2 1513030
3 798.2 1506741
3 798.2 1503425
3 798.2 1495048
3 798.2 1487250
3 798.2 1479692
3 798.2 1475378
3 798.2 1474331
3 798.2 1458046
3 798.2 1437928
3 798.2 1430129
3 799.342 1426457
3 799.342 1426138
3 800.28 1422466
3 801.161 1422064
3 801.161 1419511
3 801.161 1419177
3 802.121 1416952
3 802.121 1416673
3 803.018 1416299
3 803.018 1415754
3 803.018 1414220
3 805.663 1413075
3 805.663 1406821
3 806.554 1404299
3 812.585 1543359
3 812.585 1536361
3 812.585 1519649
3 812.585 1508097
3 812.585 1507751
3 812.585 1503602
3 812.585 1498541
3 812.585 1495655
3 812.585 1474817
3 813.623 1471884
3 813.623 1469362
3 813.623 1462611
3 814.537 1449263
3 814.537 1447125
3 814.537 1446787
3 815.433 1444517
3 815.433 1444372
3 815.433 1444018
3 815.433 1433331
3 815.433 1432169
3 816.846 1431760
3 817.718 1431253
3 817.718 1430864
3 819.66 1429964
3 819.66 1428268
3 819.66 1426779
3 819.66 1426414
3 820.506 1426357
3 821.105 1423852
3 821.105 1417370
3 821.105 1415123
3 823.555 1414299
3 824.292 1414185
3 826.071 1530025
3 826.071 1527350
3 826.071 1526604
3 826.071 1515837
3 826.071 1510777
3 826.071 1496492
3 826.071 1496383
3 827.076 1491530
3 827.076 1487266
3 827.076 1478451
3 827.076 1476762
3 827.076 1466143
3 827.076 1462744
3 827.076 1450289
3 827.076 1449114
3 828.106 1443684
3 828.106 1442867
3 828.106 1441910
3 829.036 1438402
3 829.036 1435832
3 829.036 1431268
3 829.036 1426737
3 829.969 1424962
3 829.969 1417623
3 831.824 1411864
3 832.699 1411510
3 834.526 1410675
3 836.296 1409834
3 840.385 1516504
3 840.385 1495024
3 840.385 1480105
3 840.385 1473313
3 840.385 1470791
3 840.385 1452493
3 841.38 1452323
3 841.38 1448410
3 842.33 1448314
3 842.33 1447139
3 842.33 1445476
3 842.33 1444919
3 843.286 1440445
3 844.194 1436855
3 844.194 1432002
3 845.102 1422759
3 845.102 1422665
3 845.102 1421490
3 846.903 1419574
3 848.228 1418083
3 851.93 1417997
3 852.742 1416120
3 852.742 1415434
3 853.662 1414779
3 853.662 1414105
3 854.598 1444552
3 854.598 1443003
3 854.598 1439112
3 854.598 1438689
3 854.598 1438565
3 854.598 1436868
3 854.598 1436288
3 855.85 1427449
3 855.85 1426649
3 858.457 1424876
3 860.234 1424806
3 860.927 1423650
3 860.927 1417802
3 860.927 1417026
3 861.734 1412800
3 861.734 1412715
3 861.734 1411365
3 862.678 1409146
3 862.678 1407008
3 862.678 1404350
3 863.288 1402155
3 864.389 1400852
3 864.389 1400498
3 868.108 1479990
3 868.108 1472287
3 868.108 1471485
3 868.108 1461400
3 868.108 1451161
3 868.108 1441535
3 868.108 1441425
3 868.108 1440250
3 868.108 1434743
3 868.108 1434109
3 868.944 1433755
3 868.944 1428232
3 868.944 1427004
3 868.944 1426615
3 868.944 1425649
3 868.944 1417826
3 868.944 1413773
3 869.574 1409259
3 869.574 1408913
3 870.151 1408084
3 873.133 1407498
3 873.133 1406120
3 874.071 1405963
3 874.071 1405023
3 875.759 1404370
3 876.278 1403516
3 876.278 1402698
3 877.008 1402344
3 879.62 1400198
3 879.62 1395667
3 879.62 1395388
3 882.273 1587414
3 882.273 1577671
3 882.273 1571213
3 882.273 1568853
3 882.273 1529746
3 882.273 1510134
3 882.273 1508327
3 882.273 1488558
3 882.273 1472889
3 883.431 1466070
3 883.431 1464160
3 883.431 1462324
3 883.431 1456965
3 883.431 1453465
3 884.362 1446762
3 884.362 1443455
3 884.362 1441484
3 885.254 1437082
3 885.254 1432728
3 886.127 1431285
3 886.687 1430740
3 886.687 1430542
3 887.241 1429459
3 887.241 1429358
3 887.241 1425357
3 887.241 1423819
3 887.241 1423465
1 887.817 1423262
3 887.817 1423184
3 888.887 1422849
3 889.421 1420708
3 889.421 1419876
3 893.606 1419413
3 895.851 1418783
3 896.396 1536841
3 896.396 1523155
3 896.396 1521271
3 896.396 1508504
3 896.396 1497190
3 896.396 1485168
3 896.396 1484444
3 897.175 1481573
3 897.175 1480273
3 897.175 1479187
3 897.175 1478267
3 897.175 1475487
3 897.78 1471182
3 897.78 1469402
3 897.78 1465231
3 897.78 1462489
3 898.405 1455018
3 898.405 1454274
3 898.405 1451089
3 898.405 1446236
3 898.405 1446076
3 898.405 1444343
3 898.405 1427893
3 898.405 1427236
3 899.33 1425371
3 900.126 1424315
3 900.644 1424196
3 900.644 1422044
3 901.688 1421737
3 901.688 1418946
3 902.552 1417206
3 903.442 1417203
3 904.152 1415837
3 904.152 1415558
3 904.152 1405255
3 904.152 1402378
3 905.232 1398855
3 906.848 1397134
3 907.455 1396380
3 910.421 1536825
3 910.421 1519042
3 910.421 1496477
3 910.421 1496198
3 910.421 1493862
3 911.089 1468842
3 911.089 1464057
3 911.089 1462085
3 911.089 1459552
3 911.089 1458877
3 911.089 1450146
3 911.089 1446830
3 911.089 1442381
3 911.089 1441417
3 911.788 1437266
3 911.788 1437134
3 911.788 1434870
3 911.788 1420748
3 911.788 1411563
3 912.388 1409851
3 912.388 1409544
3 912.388 1406480
3 914.183 1405834
3 914.183 1405057
3 914.183 1401919
3 915.304 1400981
3 916.372 1400572
3 916.372 1399844
3 916.372 1397200
3 916.372 1395313
3 918.22 1395034
3 918.22 1393953
3 919.045 1392778
3 924.08 1528684
3 924.08 1512635
3 924.08 1509450
3 924.08 1496317
3 924.08 1487365
3 924.08 1485677
3 924.08 1470751
3 924.08 1461949
3 924.08 1455263
3 924.825 1453888
3 924.825 1451366
3 924.825 1451206
3 924.825 1450289
3 924.825 1449960
3 925.385 1448255
3 925.385 1447358
3 925.385 1445107
3 925.385 1442290
3 925.385 1440855
3 925.96 1434443
3 925.96 1429577
3 926.489 1429428
3 926.489 1428408
3 926.489 1427638
3 926.489 1421887
3 926.489 1419476
3 926.489 1415425
3 927.635 1412392
3 928.19 1411443
3 928.19 1409416
3 928.19 1408135
3 928.19 1407909
3 928.798 1407410
3 928.798 1404963
3 929.331 1403022
3 929.331 1402720
3 929.331 1402477
3 929.331 1399310
3 929.889 1399251
3 929.889 1398752
3 933.104 1396419
3 933.104 1395874
3 938.029 1557435
3 938.029 1532609
3 938.029 1532537
3 938.029 1529229
3 938.029 1529017
3 938.029 1527060
3 938.029 1525756
3 938.029 1520444
3 938.029 1520090
3 938.755 1501510
3 938.755 1501094
3 938.755 1493058
3 938.755 1477635
3 938.755 1473117
3 938.755 1469617
3 939.625 1467196
3 939.625 1465951
3 939.625 1462529
3 940.33 1458768
3 940.33 1445363
3 940.33 1443465
3 940.33 1439617
3 940.33 1437095
3 941.106 1434529
3 941.106 1430887
3 942.862 1430825
3 942.862 1430507
3 944.682 1429378
3 945.625 1425945
3 945.625 1424779
3 947.269 1424761
3 947.269 1420106
3 949.663 1417844
3 951.318 1415535
3 952.421 1537193
3 952.421 1520298
3 952.421 1513892
3 952.421 1502722
3 952.421 1489641
3 952.421 1479962
3 952.421 1464695
3 952.421 1460068
3 952.421 1459714
3 952.421 1457696
3 952.421 1455597
3 953.113 1450925
3 953.113 1442288
3 954.19 1442285
3 954.19 1439766
3 954.19 1437764
3 954.19 1425912
3 955.101 1425259
3 955.101 1421084
3 955.101 1418367
3 958.282 1415805
3 960.777 1413588
3 961.658 1412269
3 961.658 1408709
3 961.658 1404395
3 966.181 1482431
3 966.181 1481772
3 966.181 1470777
3 966.181 1469479
3 966.181 1458678
3 966.181 1454357
3 966.181 1452419
3 966.181 1438318
3 967.039 1434216
3 967.039 1433088
3 967.908 1429780
3 967.908 1427598
3 968.745 1426374
3 970.042 1425467
3 970.042 1420161
3 970.042 1418831
3 970.042 1418178
3 970.042 1417003
3 970.653 1414687
3 970.653 1410001
3 970.653 1409552
3 971.214 1407479
3 972.303 1407324
3 972.303 1407196
3 972.854 1403855
3 974.039 1401180
3 974.809 1400715
3 980.288 1519067
3 980.288 1498569
3 980.288 1492830
3 980.288 1477161
3 980.288 1453390
3 980.288 1452078
3 980.288 1443709
3 981.283 1443647
3 981.283 1441722
3 982.195 1436334
3 982.195 1435630
3 982.195 1435039
3 983.117 1425371
3 983.117 1424899
3 983.117 1424452
3 983.117 1422019
3 984.032 1414223
3 984.032 1412562
3 984.032 1404857
3 985.301 1402387
3 985.301 1402376
3 985.836 1400379
3 985.836 1399823
3 985.836 1399544
3 986.369 1399204
3 988.429 1397605
3 988.429 1397160
3 992.087 1396050
3 992.087 1395914
3 994.026 1475101
3 994.026 1474822
3 994.026 1468274
3 994.026 1464048
3 994.026 1460462
3 994.026 1459859
3 994.026 1458827
3 994.026 1439106
3 994.026 1434626
3 994.026 1432264
3 995.119 1426093
3 995.119 1423291
3 995.119 1423148
3 996.127 1423064
3 996.127 1421823
3 996.884 1421469
3 997.423 1416289
3 997.423 1412917
3 997.423 1409179
3 1000.91 1400048
3 1000.91 1399258
3 1001.53 1399013
3 1001.53 1398915
3 1001.53 1398292
3 1001.53 1397315
3 1001.53 1394130
3 1001.53 1390911
3 1003.09 1390698
3 1008.27 1509044
3 1008.27 1506148
3 1008.27 1505434
3 1008.27 1478320
3 1008.27 1469858
3 1008.27 1468336
3 1008.27 1461457
3 1008.27 1460463
3 1008.27 1457524
3 1008.27 1456708
3 1009.29 1455913
3 1010.17 1454757
3 1010.17 1451019
3 1011.09 1447574
3 1011.09 1446245
3 1011.09 1440803
3 1011.09 1439666
3 1011.09 1438182
3 1011.09 1437870
3 1011.09 1436466
3 1012.06 1433066
3 1012.06 1432806
3 1012.06 1431775
3 1013.01 1428341
3 1014.77 1423085
3 1014.77 1419894
3 1015.71 1418000
3 1017.85 1413269
3 1017.85 1411763
3 1018.78 1411695
3 1018.78 1411249
3 1018.78 1405875
3 1018.78 1405340
3 1020.03 1404918
3 1020.03 1404572
3 1020.99 1404100
3 1022.77 1504656
3 1022.77 1496194
3 1022.77 1494019
3 1022.77 1483535
3 1022.77 1469250
3 1022.77 1463970
3 1022.77 1463830
3 1022.77 1463237
3 1022.77 1453976
3 1022.77 1453083
3 1022.77 1449767
3 1022.77 1447415
3 1022.77 1443677
3 1024.22 1439790
3 1024.22 1439504
3 1024.22 1439007
3 1024.22 1434036
3 1025.21 1428850
3 1025.21 1427599
3 1026.13 1427041
3 1026.13 1423437
3 1027.06 1422099
3 1027.06 1420121
3 1027.96 1419427
3 1027.96 1417753
3 1027.96 1410226
3 1028.87 1409252
3 1028.87 1407749
3 1029.73 1405776
3 1030.82 1404176
3 1031.44 1401618
3 1031.44 1400747
3 1032.32 1400094
3 1032.32 1399740
3 1034.03 1399658
3 1035.8 1399346
3 1035.8 1397253
3 1036.72 1535297
3 1036.72 1530410
3 1036.72 1519844
3 1036.72 1497226
3 1036.72 1490861
3 1036.72 1482356
3 1036.72 1476749
3 1037.58 1472129
3 1037.58 1461068
3 1037.58 1459531
3 1037.58 1453914
3 1037.58 1451973
3 1037.58 1450817
3 1037.58 1446301
3 1037.58 1445126
3 1038.63 1442678
3 1038.63 1442149
3 1038.63 1439745
3 1038.63 1429660
3 1038.63 1428458
3 1039.63 1426015
3 1039.63 1425963
3 1040.51 1415892
3 1040.51 1413317
3 1044.03 1413124
3 1044.03 1412781
3 1044.92 1409815
3 1044.92 1408554
3 1046.98 1407989
3 1046.98 1406540
3 1046.98 1405824
3 1047.67 1404186
3 1048.19 1404107
3 1050.28 1502260
3 1050.28 1489758
3 1050.28 1475362
3 1050.28 1469854
3 1050.28 1469514
3 1050.28 1466992
3 1050.28 1459896
3 1050.28 1457361
3 1050.28 1456507
3 1050.28 1450085
3 1051 1441096
3 1051.92 1439815
3 1051.92 1437494
3 1053.05 1436157
3 1054.26 1434463
3 1054.26 1433468
3 1054.26 1426895
3 1055.16 1410618
3 1056.08 1408293
3 1056.85 1407983
3 1056.85 1403130
3 1058.16 1402240
3 1058.16 1398729
3 1058.16 1396207
3 1059.28 1395234
3 1059.28 1395032
3 1064.69 1516238
3 1064.69 1515440
3 1064.69 1506202
3 1064.69 1501519
3 1064.69 1500498
3 1064.69 1499668
3 1064.69 1495645
3 1064.69 1488697
3 1065.65 1485424
3 1065.65 1473603
3 1065.65 1472079
3 1065.65 1471725
3 1065.65 1462440
3 1066.24 1460772
3 1066.24 1460238
3 1066.24 1460004
3 1067 1458558
3 1067 1451312
3 1067 1439784
3 1067.82 1436553
3 1067.82 1434181
3 1067.82 1433204
3 1067.82 1426524
3 1068.74 1424631
3 1068.74 1422267
3 1068.74 1419984
3 1068.74 1419904
3 1069.71 1418498
3 1069.71 1418161
3 1069.71 1417127
3 1069.71 1416321
3 1069.71 1413683
3 1069.71 1412068
3 1069.71 1410467
3 1070.68 1407590
3 1071.59 1407053
3 1072.49 1406824
3 1073.4 1405260
3 1075.21 1405085
3 1076.11 1403003
3 1076.11 1400920
3 1076.11 1399745
3 1078.75 1497422
3 1078.75 1496137
3 1078.75 1495642
3 1078.75 1475074
3 1078.75 1471708
3 1078.75 1463946
3 1079.73 1461908
3 1079.73 1458538
3 1079.73 1453776
3 1079.73 1441518
3 1079.73 1440719
3 1080.67 1440361
3 1081.55 1437006
3 1082.42 1436473
3 1082.42 1432455
3 1082.42 1429943
3 1082.42 1426369
3 1082.42 1423560
3 1083.23 1420204
3 1083.23 1418461
3 1083.23 1416406
3 1083.97 1415348
3 1083.97 1411832
3 1084.78 1411503
3 1084.78 1411428
3 1085.35 1409014
3 1085.35 1408906
3 1085.96 1405829
3 1086.55 1404884
3 1087.65 1396155
3 1090.49 1394265
3 1092.24 1479760
3 1092.24 1476170
3 1092.24 1473815
3 1092.24 1471504
3 1092.24 1469724
3 1092.24 1468335
3 1092.24 1457506
3 1092.24 1454321
3 1092.24 1442533
3 1092.24 1432448
3 1093.34 1428703
3 1093.34 1419534
3 1093.34 1418245
3 1093.34 1416594
3 1093.34 1415796
3 1093.34 1415442
3 1094.3 1415341
3 1094.3 1414429
3 1094.3 1407923
3 1094.3 1406748
3 1094.3 1405587
3 1094.3 1404042
3 1095.26 1399350
3 1095.26 1399071
3 1095.26 1396473
3 1095.26 1396268
3 1096.2 1394717
3 1097.95 1393099
3 1098.79 1391123
3 1099.49 1390844
3 1106.5 1497107
3 1106.5 1495826
3 1106.5 1494046
3 1106.5 1488860
3 1107.62 1487759
3 1107.62 1483445
3 1108.33 1477336
3 1108.33 1476908
3 1109.01 1467884
3 1109.01 1464222
3 1109.01 1456845
3 1109.01 1450120
3 1109.01 1440073
3 1109.61 1429812
3 1109.61 1429604
3 1110.25 1419984
3 1110.92 1418572
3 1110.92 1417919
3 1110.92 1417887
3 1110.92 1417403
3 1110.92 1414834
3 1110.92 1413581
3 1112.12 1411607
3 1112.12 1410432
3 1113.3 1409810
3 1113.95 1409287
3 1114.51 1408455
3 1114.51 1408398
3 1115.05 1408088
3 1115.05 1407648
3 1115.05 1406774
3 1115.63 1406495
3 1115.63 1404019
3 1116.2 1403428
3 1117.74 1401176
3 1117.74 1400512
3 1118.3 1399911
3 1118.3 1397518
3 1119.35 1396727
3 1120.39 1458603
3 1120.39 1449211
3 1120.39 1448932
3 1120.39 1448517
3 1120.39 1445194
3 1120.39 1438693
3 1120.39 1427713
3 1121.56 1427060
3 1121.56 1424156
3 1122.13 1421441
3 1122.13 1417417
3 1122.13 1416085
3 1122.13 1413679
3 1122.71 1413509
3 1122.71 1412075
3 1122.71 1405562
3 1122.71 1405029
3 1123.31 1404837
3 1123.31 1403424
3 1123.31 1400108
3 1123.87 1399786
3 1123.87 1399095
3 1124.42 1398037
3 1124.42 1397811
3 1128.24 1396544
3 1129.12 1394626
3 1134.08 1475110
3 1134.08 1467368
3 1134.08 1466193
3 1134.08 1465472
3 1134.08 1461295
3 1134.08 1455612
3 1135.11 1452276
3 1135.11 1451623
3 1135.11 1449195
3 1137.59 1444055
3 1137.59 1432623
3 1138.15 1430535
3 1139.84 1430369
3 1141.11 1427489
3 1142.78 1426055
3 1143.77 1424654
3 1143.77 1424300
3 1145.72 1422924
3 1145.72 1420101
3 1146.55 1418629
3 1147.08 1418071
3 1147.08 1416100
3 1147.08 1414925
3 1147.08 1413701
3 1147.71 1411051
3 1148.26 1560025
3 1148.26 1557630
3 1148.26 1547767
3 1148.26 1530331
3 1148.26 1514293
3 1148.26 1509056
3 1148.26 1489718
3 1148.26 1487019
3 1148.26 1481696
3 1148.26 1476680
3 1148.26 1473200
3 1148.26 1466595
3 1148.97 1462470
3 1149.51 1459842
3 1149.51 1455906
3 1149.51 1453829
3 1149.51 1448964
3 1149.51 1448628
3 1149.51 1448274
3 1150.11 1445986
3 1150.11 1441707
3 1150.66 1433846
3 1150.66 1432126
3 1150.66 1431772
3 1150.66 1430323
3 1151.25 1430089
3 1151.25 1424616
3 1151.25 1423335
3 1151.25 1422827
3 1151.25 1421652
3 1151.92 1421290
3 1152.8 1419896
3 1153.39 1418907
3 1153.39 1418628
3 1154.05 1417758
3 1154.05 1417552
3 1162.08 1584811
3 1162.08 1536030
3 1162.08 1528083
3 1162.08 1519607
3 1162.08 1508217
3 1162.08 1488879
3 1162.08 1481706
3 1162.7 1479448
3 1162.7 1477861
3 1162.7 1469786
3 1162.7 1464933
3 1163.32 1463072
3 1163.32 1449921
3 1163.32 1443961
3 1163.32 1440899
3 1163.32 1439068
3 1163.32 1437329
3 1163.32 1431521
3 1163.32 1431254
3 1164 1422930
3 1164 1422757
3 1164.56 1422137
3 1164.56 1421920
3 1164.56 1421657
3 1164.56 1420476
3 1165.13 1410589
3 1165.13 1407681
3 1165.13 1406825
3 1165.72 1406134
3 1171.59 1405052
3 1172.14 1403334
3 1172.14 1401493
3 1176.2 1537669
3 1176.2 1527658
3 1176.2 1494192
3 1176.2 1479009
3 1176.2 1471210
3 1176.2 1467233
3 1176.2 1455123
3 1176.2 1446112
3 1176.2 1439038
3 1177.22 1436146
3 1177.22 1430326
3 1177.22 1427928
3 1178.12 1416475
3 1178.98 1414081
3 1178.98 1410896
3 1179.84 1409615
3 1180.41 1409497
3 1188.29 1409334
3 1188.29 1408771
3 1189.04 1408623
3 1189.67 1408426
3 1190.19 1575402
3 1190.19 1564633
3 1190.19 1556722
3 1190.19 1548436
3 1190.19 1545251
3 1190.19 1532655
3 1190.19 1530320
3 1190.19 1526024
3 1191.19 1522434
3 1191.19 1519912
3 1191.19 1504243
3 1191.19 1503496
3 1191.19 1502727
3 1191.19 1492716
3 1192.08 1488468
3 1192.08 1478383
1 1192.08 1476535
3 1192.08 1455538
3 1192.08 1452419
3 1192.67 1450557
3 1192.67 1449579
3 1193.25 1448842
3 1193.25 1431767
3 1193.25 1431097
3 1193.25 1428725
3 1193.25 1428106
3 1194.35 1428098
3 1194.35 1423258
3 1195.42 1421977
3 1195.99 1421826
3 1195.99 1421607
3 1195.99 1421539
3 1195.99 1419511
3 1195.99 1417118
3 1195.99 1414972
3 1196.59 1414427
3 1196.59 1412289
3 1197.48 1411114
3 1197.48 1410364
3 1198.12 1408468
3 1198.69 1405365
3 1198.69 1404084
3 1199.82 1403457
3 1199.82 1403260
3 1200.36 1400446
3 1201.03 1399309
3 1201.03 1397347
3 1202.52 1397019
3 1203.45 1395401
3 1204.35 1471397
3 1204.35 1456919
3 1204.35 1437109
3 1204.35 1429352
3 1204.35 1421897
3 1205.28 1417257
3 1205.8 1415882
3 1206.35 1412726
3 1207.07 1412580
3 1207.07 1412035
3 1207.65 1411382
3 1207.65 1406886
3 1208.24 1405163
3 1208.77 1404510
3 1209.49 1403240
3 1212.12 1402886
3 1214.71 1401995
3 1215.57 1400780
3 1216.65 1396802
3 1218.15 1514941
3 1218.15 1485076
3 1218.15 1483901
3 1218.15 1461948
3 1218.15 1457634
3 1218.15 1436083
3 1218.73 1433863
3 1219.27 1433198
3 1219.27 1423213
3 1219.27 1416430
3 1219.27 1414013
3 1219.27 1408276
3 1219.87 1401609
3 1219.87 1400235
3 1219.87 1398514
3 1220.43 1398260
3 1220.96 1394788
3 1220.96 1393481
3 1221.51 1393427
3 1221.51 1393263
3 1222.04 1392793
3 1222.88 1392742
3 1223.53 1392509
3 1224.72 1391030
3 1226.05 1388237
3 1226.79 1387846
3 1227.75 1386110
3 1232.18 1537995
3 1232.18 1522326
3 1232.18 1517132
3 1232.18 1511425
3 1232.18 1504806
3 1232.18 1504021
3 1233.19 1501176
3 1233.19 1483281
3 1233.19 1475305
3 1233.19 1474639
3 1234.12 1466218
3 1234.12 1464894
3 1234.12 1457462
3 1234.12 1454342
3 1234.12 1449888
3 1234.12 1443793
3 1234.12 1443358
3 1234.12 1429817
3 1235.01 1422187
3 1235.53 1419933
3 1236.08 1419579
3 1240.92 1418967
3 1240.92 1418088
3 1240.92 1417397
3 1241.84 1415518
3 1241.84 1414552
3 1241.84 1411636
3 1244.5 1410500
3 1244.5 1410361
3 1244.5 1409813
3 1244.5 1409568
3 1245.42 1409395
3 1245.42 1409026
3 1245.42 1408956
3 1246.33 1542750
3 1246.33 1526553
3 1246.33 1511417
3 1246.33 1505513
3 1246.33 1493294
3 1246.33 1490772
3 1246.33 1488338
3 1246.33 1486942
3 1246.33 1477248
3 1247.39 1473770
3 1247.39 1470629
3 1247.39 1467353
3 1247.39 1465963
3 1247.39 1464788
3 1248.4 1464504
3 1248.4 1460278
3 1248.4 1456725
3 1248.4 1456446
3 1248.4 1454441
3 1248.4 1453568
3 1248.4 1443141
3 1249.61 1442488
3 1250.57 1440074
3 1250.57 1438899
3 1250.57 1435473
3 1250.57 1434178
3 1251.52 1434167
3 1251.52 1433581
3 1251.52 1430694
3 1251.52 1426954
3 1251.52 1424795
3 1253.38 1423639
3 1253.38 1416347
3 1253.38 1414455
3 1254.29 1413896
3 1254.29 1413680
3 1254.94 1412672
3 1254.94 1412019
3 1259.53 1411296
3 1260.44 1481557
3 1260.44 1477026
3 1260.44 1470608
3 1260.44 1455673
3 1261.42 1449335
3 1261.42 1449056
3 1261.42 1448188
3 1261.42 1444037
3 1261.42 1442933
3 1262.36 1438080
3 1262.36 1436877
3 1262.36 1436495
3 1262.36 1434355
3 1262.36 1431461
3 1262.36 1430647
3 1262.36 1426254
3 1263.33 1424693
3 1263.33 1424555
3 1265.18 1423005
3 1265.18 1421355
3 1265.18 1420180
3 1265.93 1413195
3 1265.93 1410812
3 1265.93 1409457
3 1268.77 1408816
3 1268.77 1406781
3 1270 1406581
3 1270.68 1404583
3 1274.11 1519940
3 1274.11 1513189
3 1274.11 1494278
3 1274.11 1492352
3 1274.11 1492302
3 1274.11 1491536
3 1274.11 1490735
3 1274.11 1486041
3 1274.91 1482408
3 1274.91 1474696
3 1274.91 1470924
3 1274.91 1469833
3 1275.59 1468246
3 1275.59 1451239
3 1275.59 1450955
3 1276.2 1448446
3 1276.2 1447255
3 1276.2 1446859
3 1277.42 1441978
3 1277.42 1441282
3 1277.42 1432553
3 1278.01 1427310
3 1278.01 1426999
3 1278.67 1426717
3 1279.23 1424231
3 1280.06 1419588
3 1280.93 1417095
3 1288.33 1512589
3 1288.33 1508058
3 1288.33 1504256
3 1288.33 1468031
3 1288.33 1457946
3 1288.33 1457667
1 1288.33 1441384
3 1288.33 1439266
3 1288.33 1429524
3 1288.33 1428848
3 1289.38 1425433
3 1289.38 1421899
3 1289.38 1419910
3 1290.32 1414043
3 1291.19 1413714
3 1291.19 1412957
3 1291.19 1412370
3 1292.13 1412045
3 1292.13 1408071
3 1292.93 1407444
3 1292.93 1406571
3 1292.93 1404259
3 1294.62 1404062
3 1298.33 1403982
3 1298.33 1403692
3 1298.33 1403338
3 1299.45 1403021
3 1301.84 1400267
3 1302.38 1512271
3 1302.38 1485131
3 1302.38 1470608
1 1302.38 1445782
3 1303.25 1436879
3 1303.25 1434278
3 1303.25 1434185
3 1303.25 1431172
3 1303.25 1426337
3 1303.25 1422716
3 1303.25 1422599
3 1304.26 1422155
3 1305.14 1421889
3 1306.04 1421470
3 1306.91 1416866
3 1308.63 1415152
3 1313.5 1410650
3 1314.3 1406714
3 1314.3 1403026
3 1316.73 1657707
3 1316.73 1626617
3 1316.73 1621581
3 1316.73 1589861
3 1316.73 1586553
3 1316.73 1555463
3 1316.73 1545720
3 1316.73 1545476
3 1316.73 1528466
3 1316.73 1519999
3 1317.84 1518866
3 1317.84 1513359
3 1317.84 1498900
3 1317.84 1493234
3 1317.84 1485354
3 1317.84 1484179
3 1317.84 1468510
3 1317.84 1463068
3 1317.84 1460685
3 1317.84 1460244
3 1317.84 1458249
3 1318.86 1448767
3 1318.86 1445144
3 1319.77 1444406
3 1319.77 1438619
3 1320.35 1437079
3 1320.35 1436957
3 1320.35 1427214
3 1321 1426416
3 1321.59 1421885
3 1325.13 1419572
3 1325.96 1418338
3 1325.96 1415415
3 1326.77 1414494
3 1326.77 1414240
3 1328.27 1413418
3 1328.27 1412743
3 1328.27 1412145
3 1330.7 1538327
3 1330.7 1522858
3 1330.7 1521523
3 1330.7 1516337
3 1330.7 1512847
3 1330.7 1483801
3 1330.7 1483256
3 1331.75 1476637
3 1331.75 1468765
3 1331.75 1468154
3 1332.7 1463521
3 1332.7 1460895
3 1332.7 1459664
3 1332.7 1459571
3 1332.7 1449402
3 1332.7 1447994
3 1333.7 1445290
3 1333.7 1441946
3 1333.7 1441649
3 1333.7 1434401
3 1333.7 1430697
3 1334.68 1429360
3 1334.68 1428873
3 1334.68 1428649
3 1335.65 1427654
3 1335.65 1424984
3 1335.65 1423703
3 1336.39 1423689
3 1337.01 1423264
3 1337.55 1421806
3 1337.55 1421527
3 1337.55 1416449
3 1337.55 1415463
3 1337.55 1413021
3 1338.26 1412742
3 1338.87 1411585
3 1338.87 1411231
3 1338.87 1411074
3 1340.65 1410932
3 1341.47 1410578
3 1342 1407481
3 1343.62 1404391
3 1343.62 1404072
3 1343.62 1402071
3 1344.48 1493594
3 1344.48 1493265
3 1344.48 1483851
3 1344.48 1482765
3 1344.48 1476874
3 1344.48 1475949
3 1345.15 1466389
3 1345.15 1459638
3 1345.15 1455772
3 1345.15 1453107
3 1345.15 1452214
3 1345.15 1444844
3 1345.76 1444419
3 1345.76 1443588
3 1345.76 1435694
3 1345.76 1435041
3 1346.42 1427901
3 1347.15 1427547
3 1347.15 1424801
3 1348.1 1423563
3 1348.1 1418710
3 1348.1 1417111
3 1348.1 1415788
3 1348.1 1413288
3 1348.1 1410169
3 1349.08 1409516
3 1350 1408846
3 1354.5 1405616
3 1354.5 1404993
3 1355.2 1404469
3 1355.2 1400389
3 1358.31 1518803
3 1358.31 1510175
3 1358.31 1509284
3 1358.31 1470177
3 1358.31 1459492
3 1358.31 1440890
3 1358.99 1440763
3 1358.99 1430905
3 1358.99 1425422
3 1358.99 1418803
3 1359.61 1416281
3 1359.61 1407725
3 1359.61 1405174
3 1362.62 1404375
3 1372.03 1508015
3 1372.03 1503541
3 1372.03 1480999
3 1372.03 1476566
3 1372.03 1475391
3 1372.03 1464519
3 1372.03 1463096
3 1372.03 1462011
3 1372.03 1461732
3 1372.69 1458536
3 1372.69 1458001
3 1373.34 1457738
3 1373.34 1452295
3 1373.34 1435173
3 1373.93 1433929
3 1373.93 1433832
3 1373.93 1433714
3 1373.93 1431778
3 1374.51 1430495
3 1374.51 1425324
3 1374.51 1421417
3 1376.05 1421123
3 1376.05 1421063
3 1376.98 1420129
3 1376.98 1417876
3 1376.98 1416819
3 1379.83 1415035
3 1383.68 1414123
3 1386.33 1483143
3 1386.33 1472441
3 1386.33 1463618
3 1387.27 1462112
3 1387.27 1453533
3 1387.27 1452897
3 1387.27 1451011
3 1387.27 1447795
3 1387.27 1447142
3 1388.25 1443486
3 1388.25 1441475
3 1388.25 1433473
3 1390.05 1432820
3 1390.63 1430933
3 1390.63 1428938
3 1391.21 1418927
3 1392.32 1417127
3 1392.32 1416648
3 1392.32 1415742
3 1395.82 1413960
3 1396.84 1410275
3 1398.93 1403791
3 1398.93 1399297
3 1400.29 1530322
3 1400.29 1527703
3 1400.29 1505625
3 1400.29 1489595
3 1400.29 1483619
3 1400.29 1472391
3 1400.29 1468165
3 1400.29 1466876
3 1401.37 1466173
3 1401.37 1458455
3 1401.37 1457090
3 1401.37 1440893
3 1402.33 1437763
3 1402.33 1437648
3 1403.23 1437409
3 1404.17 1432946
3 1404.17 1430111
3 1404.17 1426805
3 1404.17 1426725
3 1405.95 1424945
3 1405.95 1421112
3 1405.95 1420089
3 1406.85 1419233
3 1407.71 1414133
3 1408.57 1413753
3 1408.57 1411198
3 1408.57 1409735
3 1408.57 1409152
3 1411.04 1407921
3 1411.04 1406331
3 1411.76 1405967
3 1411.76 1405789
3 1414.42 1521847
3 1414.42 1521220
3 1414.42 1518035
3 1414.42 1515513
3 1414.42 1505710
3 1414.42 1501484
3 1414.42 1491399
3 1414.42 1488840
3 1414.42 1482089
3 1415.5 1478904
3 1415.5 1466620
3 1415.5 1460461
3 1415.5 1451041
3 1415.5 1446510
3 1415.5 1444290
3 1416.17 1441407
3 1416.17 1441128
3 1416.17 1434377
3 1417.01 1433355
3 1417.01 1429945
3 1417.01 1429726
3 1417.96 1426016
3 1417.96 1420537
3 1417.96 1420301
3 1418.9 1419928
3 1418.9 1419845
3 1418.9 1415963
3 1418.9 1415684
3 1419.83 1413364
3 1428.06 1499323
3 1428.06 1482130
3 1428.06 1472273
3 1428.06 1460037
3 1429.02 1454730
3 1429.02 1452681
3 1429.02 1451198
3 1429.02 1444895
3 1429.02 1442535
3 1429.71 1441144
3 1429.71 1435962
3 1429.71 1434351
3 1430.34 1433321
3 1430.34 1431286
3 1430.34 1420492
3 1431.09 1413367
3 1431.09 1408320
3 1431.09 1401533
3 1431.83 1398751
3 1431.83 1398693
3 1431.83 1390129
3 1442.78 1553127
3 1442.78 1548499
3 1442.78 1546292
3 1442.78 1523311
3 1442.78 1522383
3 1442.78 1520552
3 1442.78 1518393
3 1442.78 1502934
3 1442.78 1502674
3 1442.78 1501157
3 1442.78 1499982
3 1443.83 1475866
3 1443.83 1469354
1 1443.83 1453348
3 1443.83 1452975
3 1443.83 1449360
3 1443.83 1446896
3 1444.78 1446550
3 1445.65 1441605
3 1446.54 1438924
3 1446.54 1433701
3 1446.54 1426787
3 1446.54 1423368
3 1447.46 1422473
3 1447.46 1421928
3 1448.34 1417983
3 1448.34 1416702
3 1449.06 1415445
3 1449.59 1415177
3 1455.95 1413261
3 1455.95 1412912
3 1456.97 1554722
3 1456.97 1523005
3 1456.97 1513496
3 1456.97 1508953
3 1456.97 1508580
3 1456.97 1496535
3 1456.97 1493227
3 1456.97 1492648
3 1457.59 1490139
3 1457.59 1484639
3 1457.59 1467597
3 1458.15 1462250
3 1458.15 1445571
3 1458.92 1444421
3 1458.92 1442386
3 1460.97 1439343
3 1461.54 1431270
3 1461.54 1429008
3 1462.61 1428228
3 1462.61 1427684
3 1462.61 1427113
3 1463.18 1426578
3 1463.18 1423435
3 1463.18 1420289
3 1463.89 1420031
3 1464.59 1419971
3 1464.59 1418799
3 1466.6 1414789
3 1467.17 1412477
3 1467.97 1410825
3 1467.97 1410471
3 1468.88 1404951
3 1468.88 1404428
3 1469.79 1402008
3 1470.34 1439595
3 1470.34 1439374
3 1470.34 1437996
3 1470.34 1433778
3 1470.34 1433096
3 1470.34 1430031
3 1470.34 1427239
3 1470.34 1425530
3 1470.34 1425500
3 1470.34 1422468
3 1471.07 1420636
3 1471.07 1416367
3 1471.07 1415338
3 1471.07 1412400
3 1471.87 1412153
3 1471.87 1409433
3 1472.77 1406967
3 1473.66 1406348
3 1473.66 1403856
3 1474.59 1400243
3 1474.59 1397877
3 1475.25 1395390
3 1476.91 1393131
3 1476.91 1388600
3 1476.91 1388453
3 1476.91 1387620
3 1476.91 1387075
3 1477.85 1383811
3 1484.3 1488035
3 1484.3 1471543
3 1484.3 1459090
3 1484.3 1455434
3 1484.3 1455413
3 1484.3 1455059
3 1484.3 1452592
3 1485.3 1449389
3 1485.3 1447691
3 1485.3 1442907
3 1485.3 1434960
3 1485.3 1429356
3 1485.3 1421652
3 1485.3 1419564
3 1485.3 1418447
3 1488.5 1416712
3 1489.04 1416001
3 1489.04 1412685
3 1489.59 1411880
3 1489.59 1411484
3 1490.13 1402327
3 1490.13 1401474
3 1495.8 1398485
3 1498.37 1521011
3 1498.37 1512045
3 1498.37 1504578
3 1498.37 1500527
3 1498.37 1476554
3 1498.37 1472816
3 1498.37 1471093
3 1498.37 1466988
3 1498.37 1466276
3 1499.39 1464583
3 1499.39 1463927
3 1500.32 1454889
3 1500.32 1450195
3 1501.27 1447675
3 1501.27 1446345
3 1501.27 1437013
3 1502.28 1435301
3 1502.28 1432116
3 1502.28 1430394
3 1502.28 1426666
3 1502.28 1426621
3 1502.28 1426342
3 1502.28 1423798
3 1502.28 1418356
3 1503.15 1417703
3 1503.15 1415604
3 1504.18 1411073
3 1504.18 1409351
3 1505.08 1406183
3 1505.08 1405112
3 1505.98 1404108
3 1505.98 1403146
3 1505.98 1402792
3 1505.98 1402273
3 1506.91 1401994
3 1512.14 1515836
3 1512.14 1511164
3 1512.14 1510780
3 1512.14 1502703
3 1512.14 1501572
3 1512.14 1500181
3 1512.14 1496657
3 1512.14 1495913
1 1513.17 1492832
3 1513.17 1489647
3 1513.17 1487179
3 1513.17 1487010
3 1513.86 1486275
3 1513.86 1483331
3 1513.86 1474193
3 1513.86 1471922
3 1513.86 1470641
3 1513.86 1470287
3 1514.63 1455829
3 1515.53 1451957
3 1516.43 1442640
3 1516.43 1439651
3 1516.43 1435347
3 1517.36 1434876
3 1517.36 1431833
3 1517.36 1431107
3 1519.26 1430562
3 1520.03 1421077
3 1520.03 1414554
3 1520.93 1413233
3 1521.83 1412886
3 1522.55 1409701
3 1526.29 1534096
3 1526.29 1530503
3 1526.29 1516935
3 1526.29 1515965
3 1526.29 1515354
3 1526.29 1512832
3 1526.29 1512719
3 1526.29 1509645
3 1526.29 1505089
3 1526.29 1504436
3 1526.96 1490919
3 1526.96 1485514
3 1526.96 1482329
3 1527.53 1481603
3 1527.53 1470005
3 1528.09 1468830
3 1528.09 1468044
3 1528.09 1467553
3 1528.09 1467308
3 1528.09 1465016
3 1528.09 1461778
3 1528.09 1461596
3 1528.72 1460444
3 1528.72 1457259
3 1528.72 1457024
3 1528.72 1454961
3 1528.72 1440120
3 1528.72 1431648
3 1529.33 1430328
3 1529.33 1430236
3 1529.33 1430189
3 1529.9 1426117
3 1530.59 1425172
3 1530.59 1425118
3 1530.59 1422905
3 1531.54 1422534
3 1532.46 1419908
3 1533.38 1419643
3 1534.91 1419029
3 1540.26 1552862
3 1540.26 1551915
3 1540.26 1549638
3 1540.26 1533196
3 1540.26 1526264
3 1540.26 1514334
3 1540.26 1507797
3 1540.26 1505292
3 1541.13 1497222
3 1541.13 1479527
3 1541.13 1477250
3 1541.13 1471743
3 1541.88 1466427
3 1541.88 1456258
3 1541.88 1455277
3 1542.44 1453208
3 1542.44 1444563
3 1543.01 1435313
3 1543.56 1434271
3 1544.09 1428797
3 1544.65 1424205
3 1544.65 1423882
3 1544.65 1419015
3 1544.65 1417630
3 1544.65 1416765
3 1544.65 1415808
3 1544.65 1415125
3 1545.27 1414771
3 1545.83 1410195
3 1546.38 1408614
3 1546.38 1408260
3 1548.03 1403729
3 1554.35 1575833
3 1554.35 1555692
3 1554.35 1554486
3 1554.35 1537815
3 1554.35 1527804
3 1554.35 1524966
3 1554.35 1523136
3 1554.35 1498456
3 1554.35 1491287
3 1555.43 1480911
3 1555.43 1459590
3 1555.43 1457068
3 1555.43 1456314
3 1556.39 1445585
3 1556.39 1443405
3 1556.39 1443221
3 1556.39 1439221
3 1556.39 1438027
3 1556.39 1434847
3 1556.39 1433496
3 1557.19 1431169
3 1557.19 1431051
3 1557.19 1427686
3 1557.19 1423948
3 1557.19 1423466
3 1557.92 1418760
3 1557.92 1416921
3 1557.92 1416567
3 1558.83 1415525
3 1562.19 1414605
3 1562.19 1411420
3 1562.19 1410245
3 1564.36 1409963
3 1564.9 1409269
3 1564.9 1404379
3 1568.07 1519335
3 1568.07 1513828
3 1568.07 1503743
3 1568.07 1470225
3 1568.07 1469462
3 1568.07 1469115
3 1568.07 1465389
3 1568.07 1461424
3 1568.07 1449192
3 1568.07 1446844
3 1568.82 1446392
3 1568.82 1437887
3 1568.82 1437697
3 1568.82 1435970
3 1568.82 1435754
3 1569.43 1431755
3 1569.43 1428973
3 1569.98 1428047
3 1570.5 1425942
3 1571.04 1425829
3 1571.04 1424385
3 1571.04 1421517
3 1571.04 1421238
3 1577.36 1419705
3 1578.03 1414969
3 1580.76 1414792
3 1582.38 1523091
3 1582.38 1500417
3 1582.38 1489668
3 1582.38 1483612
3 1582.38 1475259
3 1582.99 1469840
3 1582.99 1464749
3 1583.56 1464406
3 1583.56 1460577
3 1583.56 1453031
3 1583.56 1450492
3 1584.13 1447147
3 1584.67 1444254
3 1584.67 1437999
3 1585.21 1436927
3 1586.27 1436415
3 1586.27 1434405
3 1586.27 1430745
3 1586.27 1426246
3 1586.86 1425892
3 1594.45 1424789
3 1594.45 1421035
3 1595.59 1420602
3 1595.59 1420600
3 1596.16 1533499
3 1596.16 1521105
3 1596.16 1517920
3 1596.16 1516483
3 1596.16 1502871
3 1596.16 1502636
3 1596.16 1490703
3 1596.16 1483677
3 1596.16 1475816
3 1596.16 1474036
3 1596.16 1472072
3 1596.93 1470924
3 1596.93 1465153
3 1596.93 1464799
3 1597.49 1461035
3 1597.49 1460291
3 1597.49 1459555
3 1598.38 1455735
3 1598.38 1455174
3 1598.38 1455124
3 1599.11 1451640
3 1599.11 1450091
3 1600.81 1445320
3 1600.81 1440397
3 1600.81 1439645
3 1602.56 1439291
3 1602.56 1433705
3 1602.56 1431976
3 1602.56 1429848
3 1602.56 1421712
3 1604.35 1419355
3 1610 1415784
3 1610.73 1481725
3 1610.73 1466130
3 1610.73 1465113
3 1610.73 1464256
3 1611.71 1456577
3 1611.71 1453076
3 1611.71 1450493
3 1611.71 1446789
3 1611.71 1441112
3 1611.71 1429956
3 1612.75 1427824
3 1613.66 1426497
3 1614.54 1417975
3 1614.54 1416644
3 1614.54 1415892
3 1615.24 1415094
3 1615.96 1410240
3 1615.96 1410151
3 1617.08 1409502
3 1617.08 1404056
3 1617.62 1402992
3 1624.19 1545261
3 1624.19 1543598
3 1624.19 1532221
3 1624.19 1526512
3 1624.19 1503970
3 1624.19 1499656
3 1624.19 1498902
3 1624.19 1469340
3 1624.19 1451438
3 1624.19 1447424
3 1624.19 1447208
3 1624.19 1441339
3 1624.9 1433273
3 1624.9 1432043
3 1625.47 1423310
3 1625.47 1422956
3 1626.02 1418103
3 1626.55 1415788
3 1627.59 1413509
3 1628.77 1413323
3 1628.77 1409948
3 1629.45 1409062
3 1629.45 1407887
3 1629.45 1406851
3 1630.14 1406363
3 1630.14 1404580
3 1630.83 1402464
3 1632.59 1397109
3 1632.59 1396916
3 1632.59 1394545
3 1633.54 1391296
3 1633.54 1388179
3 1635.31 1387783
3 1637.62 1387536
3 1637.62 1387311
3 1638.36 1525481
3 1638.36 1514918
3 1638.36 1503719
3 1638.36 1498277
3 1638.36 1497480
3 1638.36 1497126
3 1638.36 1485994
3 1638.36 1481229
3 1638.98 1460964
3 1639.57 1458687
3 1639.57 1453180
3 1639.57 1452162
3 1639.57 1450423
3 1639.57 1449914
3 1640.52 1447070
3 1641.42 1443668
3 1641.42 1443001
3 1642.32 1436719
3 1642.32 1429158
3 1642.32 1429080
3 1643.39 1427623
3 1644.27 1425039
3 1645.16 1424571
3 1647.8 1421253
3 1648.72 1419940
3 1649.67 1415746
3 1651.74 1411049
3 1651.74 1410616
3 1652.36 1530654
3 1652.36 1487820
3 1652.36 1479553
3 1652.36 1469218
3 1652.36 1465228
3 1652.36 1461478
3 1652.36 1460412
3 1652.36 1446704
3 1653.38 1444674
3 1653.38 1444320
3 1653.38 1443337
3 1653.38 1442732
3 1653.38 1432647
3 1653.38 1430894
3 1654.39 1425262
3 1656.06 1422567
3 1656.73 1415505
3 1661.89 1413689
3 1661.89 1410802
3 1662.43 1410726
3 1662.43 1409423
3 1666.04 1540904
3 1666.04 1532013
3 1666.04 1526611
3 1666.04 1503937
3 1666.04 1495177
3 1666.04 1492655
3 1666.68 1491553
3 1666.68 1476897
3 1666.68 1475396
3 1666.68 1466534
3 1666.68 1459199
3 1667.33 1455739
3 1667.33 1455728
3 1667.33 1449164
3 1667.33 1446999
3 1667.33 1439499
3 1667.33 1438827
3 1669.15 1437629
3 1669.15 1437596
3 1669.15 1437079
3 1670.02 1434557
3 1670.02 1434090
3 1670.71 1432171
3 1671.37 1429087
3 1671.37 1428506
3 1672.04 1428486
3 1672.58 1427891
3 1672.58 1427248
3 1672.58 1424876
3 1672.58 1423701
3 1672.58 1421986
3 1673.49 1420385
3 1673.49 1418508
3 1673.49 1414398
3 1674.38 1414044
3 1674.93 1413401
3 1675.51 1413391
3 1676.05 1413351
3 1676.65 1411920
3 1677.71 1411524
3 1678.24 1406040
3 1678.24 1406028
3 1678.79 1405945
3 1678.79 1404117
3 1678.79 1400379
3 1679.35 1400100
3 1680.45 1457832
3 1680.45 1437144
3 1680.45 1434652
3 1680.45 1432785
3 1680.45 1431162
3 1681.06 1424996
3 1681.06 1423039
3 1681.06 1419992
3 1681.82 1417437
3 1681.82 1415230
3 1684.13 1412723
3 1684.13 1407095
3 1684.13 1404581
3 1684.13 1404235
3 1684.71 1399704
3 1684.71 1398648
3 1686.29 1397819
3 1687.37 1396911
3 1687.9 1395699
3 1688.44 1394285
3 1694.24 1539068
3 1694.24 1536546
3 1694.24 1529791
3 1694.24 1521606
3 1694.24 1519050
3 1694.24 1502408
3 1694.24 1497555
3 1694.24 1486018
3 1694.88 1480023
3 1695.44 1476321
3 1695.44 1470376
3 1695.44 1456674
3 1695.44 1447310
3 1696.58 1446268
3 1696.58 1441814
3 1696.58 1439791
3 1696.58 1437740
3 1697.32 1427094
3 1698.21 1421614
3 1699.06 1420599
3 1700.15 1419101
3 1700.15 1418077
3 1700.15 1417629
3 1700.15 1416937
3 1700.72 1415319
3 1700.72 1414627
3 1701.28 1413381
3 1701.28 1412877
3 1701.82 1412836
3 1702.37 1410559
3 1702.37 1407754
3 1702.37 1407081
3 1706.33 1406245
3 1707.75 1405962
3 1707.75 1405867
3 1708.59 1503885
3 1708.59 1491422
3 1708.59 1489448
3 1708.59 1479437
3 1708.59 1470054
3 1708.59 1455726
3 1708.59 1451800
3 1708.59 1446602
3 1708.59 1430185
3 1709.57 1429651
3 1709.57 1426904
3 1709.57 1424405
3 1710.12 1421099
3 1710.12 1421077
3 1710.12 1416851
3 1710.12 1408785
3 1711.72 1404593
3 1711.72 1401556
3 1711.72 1401460
3 1712.28 1399034
3 1712.28 1399020
3 1714.41 1397033
3 1715.46 1393848
3 1722.71 1539456
3 1722.71 1514390
3 1722.71 1511082
3 1722.71 1496379
3 1722.71 1495106
3 1722.71 1481693
3 1722.71 1480142
3 1722.71 1479151
3 1722.71 1473935
3 1722.71 1472132
3 1722.71 1468064
3 1722.71 1456884
3 1722.71 1455307
3 1722.71 1453393
3 1722.71 1453114
3 1722.71 1450347
3 1723.82 1445751
3 1723.82 1441437
3 1724.72 1440744
3 1724.72 1435134
3 1724.72 1434589
3 1725.63 1433760
3 1725.63 1428110
3 1726.59 1427930
3 1727.33 1427806
3 1727.33 1424297
3 1727.33 1421869
3 1727.33 1413341
3 1728.06 1412925
3 1728.06 1412742
3 1728.06 1410018
3 1728.06 1409067
3 1731.53 1406620
3 1731.53 1404482
3 1736.7 1575472
3 1736.7 1571158
3 1736.7 1531228
3 1736.7 1502147
3 1736.7 1501608
3 1736.7 1494887
3 1736.7 1490220
3 1736.7 1483221
3 1736.7 1476602
3 1736.7 1471646
3 1736.7 1457803
3 1736.7 1456843
3 1736.7 1455682
3 1737.65 1454786
3 1737.65 1446504
3 1737.65 1446150
3 1737.65 1437952
3 1737.65 1435572
3 1738.4 1435052
3 1738.4 1430062
3 1738.4 1426374
3 1740.55 1418577
3 1740.55 1414635
3 1740.55 1413861
3 1740.55 1413272
3 1741.45 1412414
3 1741.45 1409193
3 1741.45 1408419
3 1745.06 1408205
3 1750.67 1493258
3 1750.67 1492175
3 1750.67 1482226
3 1750.67 1475799
3 1750.67 1470403
3 1750.67 1467950
3 1751.51 1462221
3 1751.51 1452991
3 1751.51 1449110
3 1751.51 1446260
3 1751.51 1443983
3 1751.51 1443278
3 1752.11 1438754
3 1752.11 1433535
3 1752.73 1429045
3 1753.82 1427349
3 1753.82 1423370
3 1753.82 1417168
3 1754.38 1416972
3 1755.12 1416407
3 1764.5 1584167
3 1764.5 1575280
3 1764.5 1567333
3 1764.5 1555075
3 1764.5 1540540
3 1764.5 1531361
3 1764.5 1530529
3 1764.5 1511191
3 1765.52 1507499
3 1765.52 1500986
3 1765.52 1493234
3 1765.52 1490921
3 1765.52 1482169
3 1765.52 1478160
3 1765.52 1472718
3 1766.5 1470656
3 1766.5 1469089
3 1766.5 1465029
3 1766.5 1462752
3 1766.5 1461902
3 1766.5 1458717
3 1767.22 1453887
3 1767.22 1453563
3 1767.22 1444623
3 1767.22 1429487
3 1767.22 1429360
3 1767.22 1426551
3 1767.95 1425376
3 1767.95 1409583
3 1767.95 1409456
3 1768.53 1406094
3 1768.53 1405815
3 1768.53 1402077
3 1769.13 1401863
3 1769.13 1401509
3 1773.02 1401185
3 1773.02 1400231
3 1778.58 1477457
3 1778.58 1477360
3 1778.58 1476805
3 1778.58 1473573
3 1778.58 1468291
3 1778.58 1464247
3 1778.58 1464102
3 1778.58 1454006
3 1778.58 1447425
3 1778.58 1446684
3 1778.58 1440880
3 1779.31 1433907
3 1779.31 1432800
3 1779.31 1422715
3 1779.31 1418849
3 1779.31 1410879
3 1779.92 1409375
3 1779.92 1408474
3 1779.92 1408329
3 1780.47 1404779
3 1780.47 1402476
3 1780.47 1401067
3 1780.47 1400503
3 1781.53 1399958
3 1782.62 1395815
3 1792.26 1595733
3 1792.26 1544056
3 1792.26 1525588
3 1792.26 1517250
3 1792.26 1490256
3 1792.26 1479076
3 1792.26 1462700
3 1792.26 1461696
3 1792.26 1459558
3 1793.31 1452119
3 1794.21 1449945
3 1794.21 1448645
3 1794.88 1430308
3 1794.88 1428170
3 1794.88 1426948
3 1799.49 1424408
3 1806.24 1500395
3 1806.24 1490384
3 1806.24 1477506
3 1806.24 1474715
3 1806.24 1463147
3 1806.24 1462035
3 1806.97 1457185
3 1806.97 1456552
3 1806.97 1454446
3 1806.97 1453989
3 1806.97 1453832
3 1806.97 1449802
3 1806.97 1449122
3 1806.97 1448254
3 1806.97 1444869
3 1806.97 1444863
3 1806.97 1443886
3 1806.97 1437615
3 1808.1 1436166
3 1808.1 1435564
3 1808.1 1435509
3 1809.03 1433880
3 1809.03 1430475
3 1809.03 1430452
3 1809.03 1430031
3 1809.9 1428553
3 1809.9 1427569
3 1809.9 1427425
3 1809.9 1421266
3 1811.61 1419895
3 1813.31 1419052
3 1813.31 1418507
3 1814.38 1416250
3 1815.27 1416177
3 1816.15 1415969
3 1816.15 1410629
3 1820.51 1592351
3 1820.51 1587112
3 1820.51 1574040
3 1820.51 1568462
3 1820.51 1539168
3 1820.51 1537741
3 1820.51 1507552
3 1820.51 1493205
3 1820.51 1486711
3 1820.51 1479744
3 1821.15 1479167
3 1821.15 1460366
3 1821.15 1455898
3 1821.15 1454715
3 1821.15 1454151
3 1821.15 1445875
3 1821.15 1443247
3 1821.83 1437175
3 1821.83 1433713
3 1821.83 1430759
3 1821.83 1409050
3 1822.91 1408274
3 1822.91 1407385
3 1823.56 1407363
3 1823.56 1406971
3 1826.82 1402704
3 1826.82 1402466
3 1830.36 1402091
3 1830.89 1400999
3 1832.35 1400842
3 1832.35 1399484
3 1832.35 1395711
3 1833.8 1394994
3 1834.56 1599765
3 1834.56 1584865
3 1834.56 1582727
3 1834.56 1576108
3 1834.56 1570263
3 1834.56 1566770
3 1834.56 1565396
3 1834.56 1549792
3 1834.56 1531703
3 1834.56 1531190
3 1835.33 1528759
3 1835.33 1520769
3 1835.33 1506231
3 1835.33 1504977
3 1835.33 1499409
3 1835.33 1494892
3 1835.33 1482842
3 1836.37 1476248
3 1836.37 1467187
3 1836.37 1466012
3 1836.37 1462217
3 1836.37 1452169
3 1836.37 1440897
3 1838.62 1440616
3 1839.63 1427078
3 1839.63 1422920
3 1839.63 1419022
3 1839.63 1413175
3 1841.74 1411701
3 1841.74 1407963
3 1842.32 1405913
3 1842.94 1405905
3 1844.77 1402527
3 1848.25 1542065
3 1848.25 1528802
3 1848.25 1525884
3 1848.25 1515873
3 1848.25 1507383
3 1848.25 1506938
3 1848.25 1498349
3 1848.25 1483869
3 1848.25 1473325
3 1848.25 1467090
3 1848.25 1458628
3 1848.25 1458246
3 1848.25 1454226
3 1848.25 1452834
3 1848.25 1449605
3 1848.25 1447326
3 1849.65 1443018
3 1849.65 1442739
3 1849.65 1439669
3 1849.65 1434136
3 1850.8 1433777
3 1850.8 1433689
3 1850.8 1433483
3 1851.94 1429106
3 1851.94 1423246
3 1851.94 1421751
3 1852.91 1417286
3 1854.67 1410439
3 1855.62 1408162
3 1855.62 1407071
3 1856.33 1404148
3 1856.33 1402888
3 1856.33 1401041
3 1862.78 1498772
3 1862.78 1494692
3 1862.78 1493542
3 1862.78 1484859
3 1862.78 1473630
3 1863.81 1469049
3 1863.81 1463117
3 1863.81 1458264
3 1863.81 1458258
3 1865.37 1456933
3 1865.37 1454223
3 1866.04 1453784
3 1866.04 1453477
3 1866.04 1447165
3 1866.66 1444081
3 1866.66 1440981
3 1866.66 1437271
3 1867.26 1435243
3 1867.86 1433951
3 1872.78 1432527
3 1872.78 1431802
3 1873.46 1431641
3 1873.46 1430954
3 1874.36 1430614
3 1876.24 1520947
3 1876.24 1520601
3 1876.24 1497935
3 1876.24 1489260
3 1876.24 1479175
3 1876.24 1456501
3 1876.24 1453932
3 1876.24 1445685
3 1876.24 1445032
3 1877.47 1439846
3 1877.47 1437709
3 1877.47 1430958
3 1878.42 1429756
3 1878.42 1426018
3 1878.42 1424825
3 1879.32 1422303
3 1879.32 1419992
3 1879.32 1419447
3 1880.26 1418166
3 1881.15 1417728
3 1881.15 1416235
3 1882.04 1415881
3 1882.04 1415801
3 1882.72 1415582
3 1882.72 1414498
3 1882.72 1414051
3 1883.42 1409532
3 1883.42 1408944
3 1884.85 1408086
3 1885.42 1406745
3 1885.42 1405790
3 1886 1405782
3 1886.54 1405697
3 1886.54 1405171
3 1887.08 1403430
3 1887.08 1402777
3 1887.08 1401062
3 1887.08 1397542
3 1888.17 1392692
3 1888.17 1391602
3 1888.17 1390261
3 1890.35 1562872
3 1890.35 1530369
3 1890.35 1530189
3 1890.35 1498094
3 1890.35 1493870
3 1890.35 1493091
3 1890.35 1483980
3 1890.35 1474077
3 1890.35 1467564
3 1890.35 1462735
3 1891.19 1457140
3 1891.19 1437514
3 1891.19 1425905
3 1891.19 1425776
3 1891.19 1419025
3 1891.19 1417374
3 1892.15 1412763
3 1892.15 1411085
3 1892.15 1408755
3 1892.15 1407474
3 1893.39 1406610
3 1893.91 1403382
3 1893.91 1403028
3 1894.45 1402316
3 1894.45 1401679
3 1895.2 1400871
3 1896.09 1399775
3 1896.09 1398494
3 1896.78 1397332
3 1897.31 1396874
3 1904.01 1464685
3 1904.01 1447205
3 1904.01 1446167
3 1904.01 1445622
3 1904.01 1443851
3 1904.01 1442089
3 1904.01 1435611
3 1904.01 1430690
3 1904.64 1427481
3 1904.64 1426328
3 1905.17 1426230
3 1905.17 1421122
3 1905.17 1414074
3 1905.74 1413711
3 1905.74 1412544
3 1906.29 1411752
3 1906.29 1411263
3 1906.83 1409996
3 1909.07 1404623
3 1909.07 1399968
3 1909.07 1399361
3 1909.07 1396839
3 1909.07 1393168
3 1909.07 1392849
3 1910.12 1392669
3 1910.12 1391674
3 1910.12 1390897
3 1913.64 1389484
3 1913.64 1388802
3 1913.64 1387632
3 1914.23 1386757
3 1914.99 1385395
3 1917.34 1384267
3 1918.59 1539306
3 1918.59 1516764
3 1918.59 1513781
3 1918.59 1483592
3 1918.59 1472492
3 1918.59 1469696
3 1918.59 1464800
3 1918.59 1464663
3 1918.59 1462854
3 1918.59 1459077
3 1918.59 1445048
3 1918.59 1440926
3 1919.67 1437610
3 1919.67 1436732
3 1919.67 1436089
3 1919.67 1430903
3 1919.67 1428545
3 1919.67 1426924
3 1919.67 1426366
3 1920.64 1425514
3 1920.64 1423280
3 1920.64 1421513
3 1920.64 1420661
3 1921.6 1417944
3 1921.6 1410876
3 1929.19 1410355
3 1930.09 1410250
3 1931.85 1408982
3 1932.76 1521258
3 1932.76 1498584
3 1932.76 1495229
3 1932.76 1482041
3 1932.76 1477727
3 1932.76 1477464
3 1932.76 1465324
3 1932.76 1460574
3 1933.6 1447413
3 1933.6 1443257
3 1933.6 1438726
3 1933.6 1435610
3 1933.6 1433873
3 1934.52 1431122
3 1934.52 1430843
3 1934.52 1427658
3 1935.06 1425411
3 1935.06 1424758
3 1935.62 1423389
3 1936.33 1414532
3 1937.04 1409954
3 1937.04 1408055
3 1937.04 1404521
3 1937.72 1403588
3 1937.72 1402413
3 1944.11 1401804
3 1944.11 1399228
3 1946.23 1493604
3 1946.23 1484372
3 1946.23 1466569
3 1946.23 1463244
3 1946.23 1462069
3 1946.23 1458535
3 1948.01 1455083
3 1948.01 1451220
3 1948.01 1450030
3 1948.01 1448475
3 1948.01 1445230
3 1949.01 1435868
3 1949.75 1435323
3 1954.71 1435167
3 1954.71 1419654
3 1960.52 1499868
3 1960.52 1498952
3 1960.52 1489001
3 1960.52 1483052
3 1960.52 1482629
3 1961.36 1481567
3 1961.36 1467451
3 1961.36 1467035
3 1961.36 1465621
3 1962.17 1462968
3 1962.17 1450163
3 1962.17 1448427
3 1962.17 1426807
3 1962.17 1422742
3 1962.76 1421461
3 1962.76 1417057
3 1962.76 1416669
3 1963.34 1416537
3 1963.93 1411910
3 1963.93 1411351
3 1964.53 1410428
3 1965.44 1407634
3 1965.44 1405481
3 1966.03 1402559
3 1967.15 1401997
3 1967.15 1399374
3 1967.74 1397610
3 1972.01 1396347
3 1972.56 1396240
3 1974.07 1553133
3 1974.07 1540343
3 1974.07 1537369
3 1974.07 1526388
3 1974.07 1513181
3 1974.07 1507965
3 1974.07 1506839
3 1974.07 1492660
3 1974.07 1491095
3 1975.08 1490413
3 1975.08 1483794
3 1975.08 1477545
3 1975.08 1477151
3 1975.08 1476875
3 1975.08 1466115
3 1975.08 1464050
3 1976.07 1462875
3 1976.07 1461899
3 1976.07 1460724
3 1976.07 1459764
3 1977.03 1454279
3 1977.92 1452735
3 1977.92 1452635
3 1978.8 1449030
3 1978.8 1445845
3 1978.8 1445297
3 1978.8 1445171
3 1979.76 1444892
3 1980.65 1441371
3 1980.65 1440666
3 1981.54 1438849
3 1981.54 1433853
3 1981.54 1423658
3 1981.54 1423594
3 1982.16 1418862
3 1982.16 1418678
3 1982.16 1417186
3 1982.73 1413688
3 1983.28 1413268
3 1983.82 1412594
3 1987.56 1411729
3 1987.56 1408292
3 1988.14 1627337
3 1988.14 1597009
3 1988.14 1562738
3 1988.14 1561823
3 1988.14 1555020
3 1988.14 1549162
3 1988.14 1546769
3 1988.14 1544156
3 1988.14 1541634
3 1988.14 1533091
3 1988.14 1500976
3 1988.14 1498899
3 1988.14 1486092
3 1988.14 1477421
3 1989.21 1465607
3 1990.14 1463693
3 1990.14 1459955
3 1990.14 1459426
3 1991.08 1457446
3 1991.08 1451506
3 1991.08 1450573
3 1992.02 1446761
3 1992.02 1443910
3 1992.92 1437820
3 1996.54 1434912
3 1996.54 1433982
3 1996.54 1432871
3 1996.54 1431652
3 1998.9 1431432
3 1998.9 1428150
3 1999.44 1428081
3 2001.01 1427059
3 2001.7 1426103
3 2002.25 1467885
3 2002.25 1466460
3 2002.25 1466181
3 2002.85 1459065
3 2002.85 1459037
3 2002.85 1458384
3 2002.85 1457287
3 2003.47 1443365
3 2003.47 1440460
3 2004.57 1438723
3 2004.57 1438108
3 2004.57 1437190
3 2005.13 1435052
3 2005.66 1431008
3 2006.25 1428713
3 2006.25 1428341
3 2006.25 1421845
3 2006.81 1417837
3 2007.37 1417161
3 2007.37 1413976
3 2007.91 1413306
3 2008.6 1409387
3 2009.24 1408586
3 2014 1407791
3 2015.08 1407140
3 2015.08 1404752
3 2016.14 1562953
3 2016.14 1538837
3 2016.14 1536315
3 2016.14 1531428
3 2016.14 1525534
3 2016.14 1517609
3 2016.14 1515365
3 2016.14 1514054
3 2016.14 1496557
3 2016.14 1492424
3 2016.14 1477928
3 2016.14 1476703
3 2016.14 1472626
3 2017.04 1471442
3 2017.04 1470351
3 2017.04 1464983
3 2017.04 1461469
3 2017.04 1452176
3 2017.04 1450247
3 2017.04 1431779
3 2017.04 1431687
3 2017.04 1431425
3 2018.08 1431121
1 2018.08 1428602
3 2018.08 1427748
3 2018.08 1426424
3 2019.11 1425976
3 2019.11 1424236
3 2019.11 1423249
3 2020.22 1418585
3 2020.22 1417617
3 2020.22 1407606
3 2021.21 1405056
3 2022.89 1404870
3 2022.89 1402534
3 2024.61 1395532
3 2025.45 1394643
3 2025.98 1389496
3 2025.98 1387594
3 2025.98 1387315
3 2025.98 1386974
3 2027.45 1385799
3 2027.45 1385100
3 2027.45 1384746
3 2028.24 1383902
3 2028.24 1381194
3 2028.98 1379620
3 2028.98 1379266
3 2030.59 1537439
3 2030.59 1523988
3 2030.59 1513977
3 2030.59 1505722
3 2030.59 1502388
3 2030.59 1500419
3 2030.59 1499125
3 2030.59 1497722
3 2030.59 1492869
3 2030.59 1492190
3 2030.59 1490255
3 2030.59 1482472
3 2030.59 1467518
3 2031.69 1465201
3 2031.69 1464922
3 2031.69 1456527
3 2031.69 1454928
3 2031.69 1453282
3 2032.29 1452631
3 2032.29 1446663
3 2032.89 1446638
3 2032.89 1444889
3 2032.89 1443260
3 2033.46 1442691
3 2033.46 1437394
3 2033.46 1437104
3 2033.46 1430485
3 2033.46 1429730
3 2033.46 1427208
3 2034.05 1425105
3 2034.05 1423843
3 2034.05 1420881
3 2034.05 1419706
3 2035.5 1413575
3 2036.12 1412503
3 2036.12 1411537
3 2037.5 1408291
3 2039.21 1408116
3 2039.21 1406341
3 2039.21 1405736
3 2041.78 1403740
3 2042.68 1401823
3 2044.4 1513598
3 2044.4 1511173
3 2044.4 1498782
3 2044.4 1486553
3 2044.4 1483368
3 2044.4 1475989
3 2044.4 1475731
3 2044.4 1472183
3 2045.42 1460062
3 2045.42 1455801
3 2045.42 1454796
3 2045.42 1449715
3 2045.42 1449269
3 2045.42 1448724
3 2046.23 1443502
3 2046.23 1441920
3 2046.23 1438530
3 2046.23 1435769
3 2046.23 1434334
3 2046.96 1431149
3 2046.96 1429268
3 2054.86 1423176
3 2054.86 1420690
3 2055.77 1420077
3 2056.65 1418438
3 2056.65 1416980
3 2058.41 1512559
3 2058.41 1512205
3 2058.41 1476311
3 2058.41 1476155
3 2058.41 1453637
3 2058.41 1443236
3 2058.41 1436223
3 2059.39 1433813
3 2059.39 1430380
3 2059.39 1429965
3 2060.3 1428321
3 2060.3 1427351
3 2060.3 1425690
3 2060.3 1425136
3 2062.97 1425037
3 2064.86 1422242
3 2064.86 1419778
3 2065.8 1419624
3 2065.8 1418934
3 2065.8 1416308
3 2066.74 1408727
3 2066.74 1408241
3 2072.24 1553625
3 2072.24 1549329
3 2072.24 1513930
3 2072.24 1509704
3 2072.24 1503334
3 2072.24 1492286
3 2072.24 1491156
3 2072.24 1488677
3 2072.24 1483634
3 2072.24 1470651
3 2072.24 1462752
3 2073.09 1461922
3 2073.09 1457222
3 2074 1452841
3 2074 1452306
3 2074 1451911
3 2074 1439949
3 2074 1435422
3 2074 1428684
3 2074.95 1425771
3 2074.95 1425760
3 2074.95 1421921
3 2075.87 1420784
3 2076.76 1419598
3 2076.76 1419319
3 2076.76 1416869
3 2076.76 1413782
3 2077.7 1413131
3 2077.7 1411371
3 2077.7 1410867
3 2077.7 1408537
3 2078.63 1407899
3 2078.63 1405703
3 2078.63 1403135
3 2078.63 1400549
3 2079.56 1400247
3 2079.56 1399893
3 2079.56 1395659
3 2079.56 1391962
3 2079.56 1389370
3 2080.53 1388099
3 2080.53 1386916
3 2086.62 1530679
3 2086.62 1528736
3 2086.62 1517362
3 2086.62 1517008
3 2086.62 1513652
3 2086.62 1507511
3 2086.62 1502283
3 2086.62 1494429
3 2086.62 1492915
3 2086.62 1490830
3 2087.67 1480480
3 2087.67 1456984
3 2087.67 1454401
3 2087.67 1453668
3 2087.67 1446446
3 2089.58 1444248
3 2089.58 1442324
3 2089.58 1439891
3 2089.58 1438610
3 2089.58 1435854
3 2090.71 1432669
3 2090.71 1431111
3 2091.75 1430566
3 2100.91 1546316
3 2100.91 1536080
3 2100.91 1532895
3 2100.91 1526667
3 2100.91 1525893
3 2100.91 1514866
3 2100.91 1512417
3 2100.91 1505169
3 2100.91 1501230
3 2100.91 1493935
3 2100.91 1493581
3 2101.7 1490329
3 2101.7 1479149
3 2101.7 1472348
3 2101.7 1471796
3 2101.7 1470891
3 2101.7 1470624
3 2102.67 1470432
3 2102.67 1470430
3 2103.82 1461927
3 2103.82 1449192
3 2103.82 1447831
3 2103.82 1445821
3 2103.82 1444938
3 2104.68 1440085
3 2105.27 1434814
3 2106.05 1433485
3 2106.05 1429259
3 2106.91 1425521
3 2106.91 1423223
3 2107.5 1421573
3 2107.5 1417887
3 2107.5 1417797
3 2108.06 1416939
3 2108.68 1416375
3 2108.68 1409434
3 2109.61 1407693
3 2109.61 1405728
3 2109.61 1402791
3 2110.29 1398166
3 2110.29 1392978
3 2111.17 1392325
3 2112.24 1390367
3 2114.37 1511094
3 2114.37 1510194
3 2114.37 1494521
3 2114.37 1490790
3 2114.37 1480835
3 2114.37 1474297
3 2114.37 1468989
3 2114.99 1462506
3 2114.99 1455752
3 2114.99 1447910
3 2114.99 1446956
3 2115.57 1442942
3 2115.57 1435748
3 2115.57 1435203
3 2115.57 1434746
3 2115.57 1432146
3 2116.67 1431867
3 2116.67 1431576
3 2116.67 1427538
3 2116.67 1426425
3 2117.26 1424487
3 2117.26 1420789
3 2117.26 1419486
3 2117.81 1416414
3 2117.81 1414744
3 2118.36 1413667
3 2122.55 1413463
3 2123.87 1413349
3 2124.5 1411967
3 2124.5 1411723
3 2125.08 1411046
3 2128.58 1543582
3 2128.58 1527855
3 2128.58 1525578
3 2128.58 1511429
3 2128.58 1502924
3 2128.58 1497822
3 2128.58 1472359
3 2128.58 1467453
3 2128.58 1465740
3 2128.58 1465682
3 2128.58 1465602
3 2128.58 1457307
3 2128.58 1453821
3 2129.66 1450468
3 2129.66 1447433
3 2129.66 1444239
3 2129.66 1434385
3 2129.66 1430675
3 2129.66 1427916
3 2130.25 1425304
3 2130.25 1424023
3 2130.25 1419634
3 2130.25 1419280
3 2130.25 1413117
3 2130.85 1408074
3 2130.85 1406119
3 2134.32 1397434
3 2134.32 1397391
3 2134.32 1396530
3 2135.22 1396132
3 2142.28 1532207
3 2142.28 1521027
3 2142.28 1518505
3 2142.28 1516883
3 2142.28 1511659
1 2142.28 1475404
3 2142.28 1468084
3 2142.28 1442920
3 2142.28 1434856
3 2143.3 1432718
3 2143.3 1430031
3 2143.3 1429118
3 2143.3 1424845
3 2144 1424688
3 2144 1424064
3 2144 1422315
3 2144 1421857
3 2144 1418315
3 2144.59 1414658
3 2144.59 1412921
3 2144.59 1411661
3 2144.59 1410783
3 2144.59 1409217
3 2145.15 1408304
3 2145.15 1406027
3 2145.71 1405096
3 2145.71 1404145
3 2145.71 1403652
3 2145.71 1402592
3 2145.71 1396399
3 2146.31 1392807
3 2146.85 1391631
3 2148.97 1391526
3 2156.72 1458017
3 2156.72 1447654
3 2156.72 1427972
3 2156.72 1427748
3 2156.72 1426451
3 2156.72 1425562
3 2157.67 1417722
3 2157.67 1417542
3 2157.67 1415868
3 2157.67 1413984
3 2158.62 1411943
3 2158.62 1410404
3 2158.62 1407578
3 2158.62 1402446
3 2159.52 1401014
3 2159.52 1400409
3 2159.52 1399234
3 2159.52 1397432
3 2160.4 1395855
3 2160.4 1395310
3 2160.4 1393792
3 2162.15 1391448
3 2162.67 1391271
3 2162.67 1391270
3 2163.28 1388726
3 2168.35 1388643
3 2168.91 1386562
3 2168.91 1383379
3 2170.44 1520953
3 2170.44 1517645
3 2170.44 1515944
3 2170.44 1480647
3 2170.44 1466800
3 2170.44 1462188
3 2170.44 1462184
3 2170.44 1457146
3 2171.18 1452279
3 2171.18 1450485
3 2171.18 1446184
3 2171.8 1445090
3 2171.8 1444341
3 2171.8 1443764
3 2172.37 1442483
3 2174.01 1428038
3 2174.01 1425331
3 2175.14 1423775
3 2175.14 1422090
3 2175.74 1417257
3 2175.74 1417239
3 2175.74 1414367
3 2175.74 1411660
3 2175.74 1405705
3 2176.33 1404922
3 2176.33 1402965
3 2176.97 1402611
3 2177.51 1401201
3 2177.51 1400228
3 2178.13 1398669
3 2179.23 1397530
3 2180.8 1395466
3 2184.25 1525715
3 2184.25 1511581
3 2184.25 1510961
3 2184.25 1504842
3 2184.25 1495939
3 2184.25 1495582
3 2184.25 1487842
3 2185.28 1478091
3 2185.28 1469170
3 2185.28 1461617
3 2185.28 1460578
3 2185.28 1450692
3 2185.28 1447507
3 2187.13 1446054
3 2187.13 1442199
3 2187.13 1440597
3 2188.08 1426643
3 2188.08 1421987
3 2188.08 1421472
3 2189.18 1421442
3 2189.18 1421275
3 2190.91 1420306
3 2191.76 1418634
3 2191.76 1418121
3 2191.76 1417770
3 2192.64 1417491
3 2192.64 1416946
3 2193.18 1415549
3 2194.2 1415453
3 2194.2 1413962
3 2194.2 1413761
3 2197.32 1412611
3 2198.53 1494068
3 2198.53 1490179
3 2198.53 1487958
3 2198.53 1479589
3 2198.53 1472523
3 2198.53 1455380
3 2198.53 1452470
3 2198.53 1449109
3 2198.53 1448547
3 2198.53 1443193
3 2199.44 1442378
3 2199.44 1441212
3 2199.44 1438640
3 2199.44 1435244
3 2200.01 1434620
3 2200.84 1433967
3 2200.84 1433541
3 2200.84 1430616
3 2201.73 1430262
3 2202.28 1428430
3 2202.85 1424705
3 2205.05 1420236
3 2207.68 1418221
3 2207.68 1415828
3 2210.29 1415134
3 2210.29 1414481
3 2212.02 1442489
3 2212.02 1441881
3 2212.02 1438724
3 2212.02 1434147
3 2212.02 1432636
3 2212.02 1432161
3 2212.02 1430120
3 2212.02 1420956
3 2212.02 1420440
3 2212.72 1418397
3 2212.72 1412069
3 2213.6 1408312
3 2215.37 1404695
3 2215.37 1399795
3 2226.22 1526754
3 2226.22 1525248
3 2226.22 1513635
3 2226.22 1498349
3 2226.22 1476771
3 2226.22 1476596
3 2226.22 1467236
3 2226.22 1466162
3 2226.22 1463634
3 2226.22 1459202
1 2226.9 1446944
3 2226.9 1442446
3 2226.9 1440169
3 2227.48 1431090
3 2227.48 1429186
3 2227.48 1427905
3 2228.03 1426229
3 2228.03 1423772
3 2229.09 1423671
3 2229.63 1418944
3 2233.47 1417770
3 2233.47 1414890
3 2234.36 1410037
3 2234.36 1409964
3 2236.05 1409781
3 2236.75 1406123
3 2236.75 1405474
3 2239.47 1404242
3 2240.05 1543278
3 2240.05 1534277
3 2240.05 1494126
3 2240.05 1488515
3 2240.05 1469338
3 2240.05 1467002
3 2240.05 1464152
3 2240.05 1463499
3 2241.08 1463145
3 2241.08 1459373
3 2242.03 1456311
3 2242.03 1454491
3 2242.03 1448364
3 2242.03 1447819
3 2242.03 1445627
3 2242.99 1445348
3 2243.57 1444269
3 2243.57 1443103
3 2244.73 1442450
3 2244.73 1440834
3 2244.73 1440289
3 2245.66 1439358
3 2245.66 1439114
3 2247.45 1437833
3 2250.1 1435135
3 2250.99 1434976
3 2250.99 1432782
3 2252.66 1429072
3 2253.34 1429043
3 2253.34 1428382
3 2253.34 1426994
3 2253.91 1426366
3 2253.91 1425948
3 2254.46 1571606
3 2254.46 1548427
3 2254.46 1540468
3 2254.46 1526225
3 2254.46 1523818
3 2254.46 1521372
3 2255.09 1513073
3 2255.09 1506167
3 2255.09 1506125
3 2255.09 1503828
3 2255.09 1488609
3 2255.09 1484490
3 2255.74 1479999
3 2255.74 1470723
3 2256.29 1467538
3 2256.29 1456358
3 2256.9 1455698
3 2256.9 1449739
3 2256.9 1440654
3 2257.47 1430003
3 2257.47 1429344
3 2258.87 1427458
3 2258.87 1426822
3 2259.52 1425638
3 2261.71 1422964
3 2262.36 1422271
3 2262.36 1413385
3 2262.36 1411493
3 2263.99 1410863
3 2268.33 1571459
3 2268.33 1569182
3 2268.33 1553704
3 2268.33 1532989
3 2268.33 1527803
3 2268.33 1522950
3 2268.33 1521669
3 2268.33 1510312
3 2268.33 1501405
3 2269.36 1491094
3 2269.36 1489176
3 2269.36 1484753
3 2269.36 1472745
3 2269.36 1466333
3 2269.36 1466246
3 2269.36 1463743
3 2270.38 1460156
3 2270.38 1457815
3 2270.38 1455842
3 2270.38 1455297
3 2270.38 1454122
3 2271 1454118
3 2271 1452841
3 2271.89 1434773
3 2271.89 1433588
3 2273.89 1428957
3 2274.9 1428672
3 2274.9 1426239
3 2274.9 1425148
3 2274.9 1423845
3 2275.83 1423005
3 2275.83 1406640
3 2275.83 1405819
3 2276.63 1403929
3 2276.63 1395610
3 2276.63 1393658
3 2277.57 1392483
3 2279.36 1391825
3 2281.85 1391471
3 2281.85 1387761
3 2282.41 1606623
3 2282.41 1595453
3 2282.41 1585284
3 2282.41 1541535
3 2282.41 1522155
3 2282.41 1509168
3 2282.41 1496221
3 2282.41 1492285
3 2282.41 1483983
3 2282.41 1475356
3 2283.29 1473915
3 2283.29 1473813
3 2283.29 1462709
3 2283.29 1461051
3 2283.29 1452467
3 2284.09 1450478
3 2284.09 1450405
3 2284.09 1441530
3 2285.01 1439071
3 2285.91 1436994
3 2285.91 1435400
3 2285.91 1433410
3 2285.91 1431741
3 2285.91 1428404
3 2285.91 1427222
3 2286.73 1425977
3 2286.73 1424993
3 2286.73 1424366
3 2287.32 1423551
3 2287.32 1423477
3 2289.86 1423382
3 2289.86 1420814
3 2289.86 1411224
3 2290.44 1408280
3 2290.44 1407834
3 2290.99 1407673
3 2290.99 1403757
3 2291.57 1402092
3 2294.81 1401363
3 2296.21 1506089
3 2296.21 1493734
3 2296.21 1485471
3 2296.21 1484071
3 2296.21 1461606
3 2296.21 1456719
3 2296.21 1449007
3 2296.21 1448903
3 2296.21 1446696
3 2296.21 1439967
3 2297.02 1436229
3 2297.02 1434981
3 2297.84 1430312
3 2297.84 1427270
3 2298.74 1423068
3 2298.74 1420991
3 2298.74 1420780
3 2299.79 1420426
3 2300.75 1419642
3 2300.75 1419515
3 2301.64 1416629
3 2302.95 1416283
3 2302.95 1413711
3 2303.57 1412519
3 2303.57 1402757
3 2303.57 1401487
3 2304.12 1400942
3 2304.12 1399017
3 2307.71 1396738
3 2309.7 1396305
3 2310.24 1548003
3 2310.24 1542121
3 2310.24 1534959
3 2310.24 1521273
3 2310.24 1515265
3 2310.24 1504935
3 2310.24 1484625
3 2310.24 1477465
3 2310.24 1440820
3 2310.24 1440075
3 2311.1 1436097
3 2311.1 1434939
3 2311.1 1430150
3 2311.1 1427978
3 2312.02 1426505
3 2312.02 1425963
3 2312.97 1409065
3 2312.97 1406239
3 2313.65 1404101
3 2313.65 1403544
3 2313.65 1401925
3 2313.65 1400316
3 2314.2 1399107
3 2314.2 1396380
3 2314.86 1396092
3 2315.71 1395439
3 2315.71 1393366
3 2319.82 1391277
3 2320.33 1390755
3 2321.32 1389062
3 2321.32 1388947
3 2322.08 1388607
3 2323.8 1386330
3 2323.8 1384943
3 2324.33 1471392
3 2324.33 1471070
3 2324.33 1456854
3 2324.33 1434312
3 2325.45 1430557
3 2325.45 1430160
3 2325.45 1430086
3 2327.1 1426752
3 2327.1 1424904
3 2327.65 1424490
3 2327.65 1414754
3 2328.21 1414405
3 2329.44 1414367
3 2329.44 1413791
3 2329.44 1411849
3 2329.44 1408396
3 2330.29 1407397
3 2331.21 1402107
3 2331.21 1401728
3 2334.11 1401675
3 2334.11 1401007
3 2334.11 1399369
3 2338.49 1501733
3 2338.49 1501188
3 2338.49 1487465
3 2338.49 1471190
3 2338.49 1467961
1 2338.49 1467955
3 2338.49 1461487
3 2338.49 1459237
3 2339.31 1456917
3 2339.31 1449064
3 2339.31 1446651
3 2339.31 1443891
3 2339.31 1443764
3 2339.31 1437065
3 2339.31 1435072
3 2339.31 1431270
1 2340.05 1427311
3 2340.05 1426252
3 2340.05 1421704
3 2340.05 1421107
3 2340.05 1420069
3 2340.05 1420013
3 2340.97 1411804
3 2340.97 1409236
3 2340.97 1403110
3 2340.97 1401962
3 2340.97 1399658
3 2341.61 1399419
3 2341.61 1397493
3 2341.61 1396586
3 2342.23 1396499
3 2343.39 1393977
3 2343.39 1393785
3 2344.09 1393723
3 2344.96 1391646
3 2345.67 1387420
3 2345.67 1384262
3 2346.92 1383571
3 2348.04 1382642
3 2348.79 1380787
3 2349.67 1380242
3 2349.67 1379861
3 2352.45 1556514
3 2352.45 1548690
3 2352.45 1534843
3 2352.45 1531658
3 2352.45 1518149
3 2352.45 1514514
3 2352.45 1513738
3 2352.45 1498173
3 2352.45 1494208
3 2352.45 1491716
3 2352.45 1491179
3 2353.14 1488019
3 2353.14 1472454
3 2353.14 1472403
3 2353.14 1464339
3 2353.14 1461972
3 2354.01 1454699
3 2354.01 1452972
3 2354.01 1452319
1 2354.85 1451627
3 2354.85 1449056
3 2355.52 1448736
3 2355.52 1448657
3 2355.52 1447575
3 2355.52 1442744
3 2355.52 1435921
3 2355.52 1435631
3 2355.52 1432183
3 2356.17 1431623
3 2356.17 1429362
3 2356.17 1420021
3 2356.73 1419667
3 2356.73 1418968
3 2356.73 1417793
3 2357.3 1417545
3 2357.85 1416051
3 2357.85 1414293
3 2358.4 1414140
3 2358.4 1409914
3 2358.98 1409193
3 2358.98 1407704
3 2358.98 1407551
3 2358.98 1407198
3 2358.98 1406038
3 2359.63 1405253
3 2359.63 1403438
3 2359.63 1403178
3 2360.2 1402984
3 2360.2 1394479
3 2360.2 1393500
3 2360.76 1392195
3 2360.76 1391364
3 2361.3 1391306
3 2361.3 1390131
3 2363.47 1389893
3 2366.53 1511302
3 2366.53 1494114
3 2366.53 1491632
3 2366.53 1489803
3 2366.53 1486931
3 2366.53 1474426
3 2366.53 1467675
3 2366.53 1464490
3 2367.32 1463209
3 2367.32 1462452
3 2367.32 1462111
3 2367.32 1444216
3 2367.32 1441814
3 2367.32 1437806
3 2367.92 1435533
3 2367.92 1432212
3 2367.92 1420911
3 2369.64 1417743
3 2370.28 1416355
3 2370.28 1415663
3 2370.28 1410810
3 2372.13 1410515
3 2372.13 1403033
3 2373.06 1401431
3 2373.97 1400337
3 2374.84 1399912
3 2375.73 1399848
3 2380.64 1524434
3 2380.64 1518435
3 2380.64 1518305
3 2380.64 1515120
3 2380.64 1513945
3 2380.64 1503518
3 2380.64 1496323
3 2380.64 1485972
3 2381.26 1478435
3 2381.26 1472630
3 2381.26 1459369
3 2381.26 1454413
3 2381.26 1452005
3 2381.86 1445638
3 2381.86 1444463
3 2381.86 1442549
3 2381.86 1440411
3 2382.43 1434573
3 2382.43 1425115
3 2383 1418771
3 2383 1413306
3 2383 1412857
3 2383.58 1408830
3 2383.58 1408011
3 2384.25 1405905
3 2384.9 1399447
3 2384.9 1398272
3 2384.9 1391498
3 2384.9 1389573
3 2385.62 1389230
3 2385.62 1386708
3 2386.3 1386027
3 2387.44 1385581
3 2387.44 1384040
3 2387.44 1383566
3 2394.81 1519393
3 2394.81 1519047
3 2394.81 1510701
3 2394.81 1482369
3 2394.81 1481685
3 2394.81 1480036
3 2394.81 1478584
3 2394.81 1465453
3 2395.68 1462268
3 2395.68 1459546
3 2395.68 1450874
3 2395.68 1449841
3 2395.68 1449562
3 2395.68 1445875
3 2395.68 1445044
3 2396.32 1443094
3 2396.32 1441668
3 2396.32 1433944
3 2396.94 1432333
3 2397.57 1428455
3 2398.46 1422262
3 2398.46 1417447
3 2398.46 1413709
3 2398.46 1413430
3 2398.46 1413009
3 2399.41 1412944
3 2399.41 1409133
3 2401.27 1408494
3 2402.17 1407504
3 2403.78 1405861
3 2404.55 1404715
3 2405.12 1404436
3 2405.12 1401061
3 2405.12 1400942
3 2405.12 1399624
3 2405.12 1399270
3 2405.12 1398665
3 2408.18 1574938
3 2408.18 1537664
3 2408.18 1523129
3 2408.18 1510596
3 2408.18 1493835
3 2408.18 1479234
3 2408.18 1477638
3 2408.18 1473342
3 2408.91 1464837
3 2409.49 1463885
3 2409.49 1449177
3 2409.49 1447996
3 2409.49 1447642
3 2409.49 1441045
3 2409.49 1437860
3 2409.49 1437201
3 2410.1 1435827
3 2410.1 1434426
3 2410.1 1431601
3 2410.1 1428931
3 2410.82 1427952
3 2410.82 1422210
3 2411.5 1421687
3 2411.5 1417736
3 2411.5 1412865
3 2412.75 1410430
3 2413.36 1409537
3 2413.36 1407359
3 2416.53 1404026
3 2417.09 1402780
3 2422.41 1510848
3 2422.41 1504097
3 2422.41 1492540
3 2422.41 1491507
3 2422.41 1485383
3 2422.41 1466464
3 2422.41 1463144
3 2422.41 1454900
3 2422.41 1453673
3 2422.41 1446171
3 2422.41 1443649
3 2423.25 1441057
3 2423.25 1437554
3 2423.25 1436736
3 2423.25 1432244
3 2423.25 1427978
3 2423.94 1426720
3 2423.94 1425879
3 2423.94 1425641
3 2424.49 1423193
3 2424.49 1422432
3 2424.49 1421217
3 2424.49 1420960
3 2425.63 1419006
3 2425.63 1418353
3 2426.37 1414096
3 2426.37 1412003
3 2427.51 1409949
3 2428.42 1407776
3 2429.51 1407447
3 2433.12 1403500
3 2433.64 1400978
3 2436.2 1608752
3 2436.2 1561855
3 2436.2 1545337
3 2436.2 1528111
3 2436.2 1521894
3 2436.2 1515936
3 2436.2 1508148
3 2436.2 1505626
3 2436.2 1495541
3 2436.2 1495007
1 2436.2 1482530
3 2436.2 1478880
3 2436.2 1478765
3 2436.2 1468755
3 2436.91 1460966
3 2437.48 1459346
3 2437.48 1457392
3 2438.02 1456739
3 2438.02 1452507
3 2438.92 1451543
3 2438.92 1445121
3 2438.92 1443298
3 2439.78 1443152
3 2439.78 1441977
3 2439.78 1438509
3 2439.78 1436189
3 2440.34 1433571
3 2441.1 1432608
3 2441.97 1427737
3 2442.95 1427249
3 2442.95 1425603
3 2442.95 1423626
3 2445.72 1422865
3 2450.07 1490659
3 2450.07 1478154
3 2450.07 1467985
3 2450.07 1460407
3 2450.07 1452834
3 2450.07 1449776
3 2450.07 1449138
3 2450.07 1448768
3 2450.07 1442601
3 2450.07 1439668
3 2451.08 1438466
3 2451.08 1437840
3 2451.08 1423662
3 2451.08 1421230
3 2451.08 1416329
3 2452.01 1413807
3 2452.01 1411487
3 2452.9 1408317
3 2452.9 1406001
3 2453.8 1405647
3 2453.8 1402127
3 2453.8 1400829
3 2463.38 1399307
3 2463.38 1398336
3 2464.29 1486701
3 2464.29 1477958
3 2464.29 1475150
3 2464.29 1458027
3 2464.29 1446713
3 2464.29 1445042
3 2465.59 1433926
3 2465.59 1432437
3 2465.59 1431784
3 2465.59 1431436
3 2465.59 1426905
3 2465.59 1426746
3 2466.2 1426712
3 2466.2 1416629
3 2466.2 1412911
3 2466.2 1406815
3 2466.87 1406305
3 2466.87 1402841
3 2467.79 1401404
3 2467.79 1400568
3 2467.79 1398397
3 2469.14 1395902
3 2478.35 1522480
3 2478.35 1514134
3 2478.35 1509908
3 2478.35 1509454
3 2478.35 1499844
3 2478.35 1491459
3 2478.35 1488937
3 2478.35 1486606
3 2478.35 1475824
3 2478.35 1470697
3 2478.35 1464479
3 2479.48 1463946
3 2479.48 1463293
3 2479.48 1448046
3 2479.48 1446765
3 2480.45 1438252
3 2480.45 1427962
3 2480.45 1427826
3 2481.57 1421888
3 2481.57 1421423
3 2483.6 1420028
3 2483.6 1419973
3 2483.6 1411135
3 2483.6 1408131
3 2484.18 1408051
3 2484.72 1404866
3 2489.66 1401942
3 2491.03 1399512
3 2491.72 1398626
3 2492.47 1583509
3 2492.47 1569642
3 2492.47 1558720
3 2492.47 1558482
3 2492.47 1555236
3 2492.47 1552714
3 2492.47 1538456
3 2492.47 1524468
3 2493.3 1517849
3 2493.3 1517818
3 2493.3 1485238
3 2493.3 1482963
3 2493.3 1479072
3 2493.3 1467689
3 2493.98 1466594
3 2493.98 1456701
3 2493.98 1446695
3 2493.98 1446341
3 2493.98 1443423
3 2493.98 1441669
3 2493.98 1441479
3 2493.98 1436505
3 2494.61 1426004
3 2494.61 1424829
3 2494.61 1420108
3 2495.17 1418593
3 2495.17 1413133
3 2495.76 1412738
3 2495.76 1410964
3 2497.15 1407779
3 2500.18 1407300
3 2500.18 1406614
3 2501.3 1404652
3 2501.3 1404512
3 2501.3 1400559
3 2501.3 1398496
3 2501.87 1398217
3 2501.87 1396936
3 2503.6 1396910
3 2503.6 1396453
3 2505.27 1395699
3 2505.85 1394011
3 2505.85 1392856
3 2506.39 1518832
3 2506.39 1500862
3 2506.39 1475546
3 2506.39 1474812
3 2506.39 1472535
3 2506.39 1469039
3 2506.39 1465554
3 2506.39 1462821
3 2506.39 1460458
3 2506.39 1457868
3 2506.39 1444839
3 2506.39 1441654
3 2507.33 1436801
3 2507.33 1436317
3 2508.01 1434641
3 2508.01 1427556
3 2508.01 1424059
3 2509.21 1423115
3 2509.21 1411425
3 2509.21 1410094
3 2510.13 1407268
3 2511.85 1404083
3 2511.85 1403830
3 2511.85 1403430
3 2512.75 1403379
3 2512.75 1403076
3 2513.66 1400463
3 2513.66 1398223
3 2520.16 1524042
3 2520.16 1499034
3 2520.16 1495776
3 2520.16 1489157
3 2520.16 1472945
3 2520.16 1472904
3 2520.16 1461491
3 2520.16 1454074
3 2520.86 1444849
3 2520.86 1439312
3 2520.86 1436326
3 2520.86 1429755
3 2521.45 1427524
3 2521.45 1426688
3 2523.18 1425386
3 2523.18 1424202
3 2523.18 1422556
3 2523.78 1418651
3 2528.8 1416374
3 2531.79 1415752
3 2532.33 1414527
3 2532.33 1408768
3 2532.33 1408748
3 2534.44 1579448
3 2534.44 1563052
3 2534.44 1550793
3 2534.44 1540847
3 2534.44 1535473
3 2534.44 1520476
3 2534.44 1500431
3 2534.44 1499357
3 2534.44 1498513
3 2534.44 1496817
3 2534.44 1485131
3 2534.44 1482563
3 2534.44 1463644
3 2535.15 1462469
3 2535.15 1456031
3 2535.72 1453509
3 2535.72 1449607
3 2535.72 1449382
3 2535.72 1430780
3 2536.84 1429510
3 2536.84 1426856
3 2536.84 1423650
3 2537.93 1422179
3 2538.45 1421280
3 2538.45 1420465
3 2544.41 1420017
3 2545.11 1418077
3 2545.11 1416902
3 2547.96 1416690
3 2548.82 1510854
3 2548.82 1510005
3 2548.82 1494974
3 2548.82 1484963
3 2548.82 1477662
3 2548.82 1475842
3 2548.82 1470663
3 2548.82 1469370
3 2548.82 1449939
3 2548.82 1440188
3 2549.63 1439473
3 2549.63 1433758
3 2549.63 1430159
3 2549.63 1425989
3 2550.38 1425318
3 2550.38 1417248
3 2550.38 1417130
3 2551.72 1413895
3 2551.72 1413532
3 2552.39 1413302
3 2552.39 1410506
3 2553.03 1408790
3 2553.57 1407621
3 2553.57 1407333
3 2554.1 1406008
3 2554.1 1405195
3 2554.1 1398226
3 2554.1 1395498
3 2554.1 1393594
3 2554.68 1393374
3 2554.68 1393142
3 2554.68 1391343
3 2555.77 1391281
3 2555.77 1389975
3 2556.82 1389294
3 2562.55 1521577
3 2562.55 1513154
3 2562.55 1506184
3 2562.55 1502979
3 2562.55 1495119
3 2562.55 1492569
3 2562.55 1488952
3 2563.62 1488245
3 2563.62 1484933
3 2564.57 1481748
3 2564.57 1480504
3 2564.57 1479642
3 2564.57 1463756
3 2564.57 1444000
3 2564.57 1442323
3 2564.57 1438221
3 2565.62 1431689
3 2565.62 1427375
3 2566.55 1426094
3 2566.55 1419323
3 2567.15 1417247
3 2567.15 1414798
3 2567.15 1409224
3 2567.15 1408807
3 2567.78 1407978
3 2567.78 1406610
3 2567.78 1406039
3 2576.34 1499629
3 2576.34 1483570
3 2576.34 1453080
3 2576.34 1446387
3 2576.34 1446033
3 2576.34 1442416
3 2577.3 1434753
3 2577.3 1428080
3 2577.3 1424736
3 2577.3 1422662
3 2578.22 1420140
3 2580.64 1418965
3 2585.92 1412482
3 2585.92 1409733
3 2586.8 1408685
3 2587.46 1404979
3 2587.46 1403330
3 2587.46 1403039
3 2587.46 1402685
3 2588.15 1400739
3 2588.15 1398163
3 2589.24 1395021
3 2589.24 1394712
3 2589.24 1394667
3 2590.32 1458214
3 2590.32 1448819
3 2590.32 1446680
3 2590.96 1443540
3 2590.96 1440232
3 2590.96 1439408
3 2591.53 1435180
3 2591.53 1420895
3 2591.53 1417260
3 2592.1 1410407
3 2592.1 1410119
3 2592.1 1407069
3 2592.65 1403441
3 2592.65 1402657
3 2592.65 1396198
3 2592.65 1394786
3 2592.65 1394467
3 2592.65 1393674
3 2593.78 1393611
3 2594.31 1391277
3 2594.85 1389251
3 2594.85 1387970
3 2595.39 1387694
3 2595.94 1387667
3 2596.47 1386811
3 2604.2 1516351
3 2604.2 1493677
3 2604.2 1490476
3 2604.2 1479289
3 2604.2 1465823
3 2604.2 1462766
3 2604.2 1455396
3 2604.2 1444169
3 2604.2 1436215
3 2604.2 1429350
3 2605.06 1423912
3 2605.06 1422122
3 2605.61 1416615
3 2605.61 1412963
3 2605.61 1408724
3 2605.61 1407651
3 2606.83 1406882
3 2606.83 1406218
3 2607.46 1406150
3 2608.42 1404136
3 2608.42 1403999
3 2608.42 1401287
3 2608.42 1399790
3 2609.15 1398580
3 2611.95 1397380
3 2615.42 1392390
3 2615.42 1390211
3 2616.33 1386895
3 2616.33 1385927
3 2617.27 1385616
3 2617.27 1383120
3 2617.99 1382522
3 2618.68 1485522
3 2618.68 1479813
3 2618.68 1475863
3 2618.68 1475318
3 2618.68 1471016
3 2618.68 1468916
3 2618.68 1464690
3 2619.6 1451371
3 2619.6 1450718
3 2619.6 1442754
3 2619.6 1436645
3 2620.27 1436433
3 2620.27 1430153
3 2620.27 1428680
3 2621.19 1425331
3 2621.19 1424240
3 2621.19 1415420
3 2622.46 1415064
3 2622.46 1412235
3 2623.12 1411918
3 2623.67 1411582
3 2623.67 1411326
3 2623.67 1404304
3 2624.25 1403806
3 2624.79 1402593
3 2624.79 1399479
3 2632.34 1471557
3 2632.34 1464605
3 2632.34 1456896
3 2632.34 1454655
3 2632.34 1452854
3 2632.34 1444687
3 2632.34 1443406
3 2632.34 1439445
3 2632.34 1433395
3 2633.32 1431950
3 2634.14 1428733
3 2634.14 1425199
3 2634.14 1424845
3 2636.73 1424037
3 2636.73 1423950
3 2636.73 1422339
3 2636.73 1420468
3 2637.76 1417946
3 2637.76 1413375
3 2639.05 1411327
3 2639.05 1410979
3 2639.67 1410788
3 2639.67 1410645
3 2639.67 1410009
3 2640.29 1409470
3 2640.29 1407865
3 2640.29 1407407
3 2640.93 1405709
3 2641.48 1405303
3 2642.08 1403510
3 2642.08 1402803
3 2642.76 1401910
3 2642.76 1399484
3 2644.21 1397997
3 2644.21 1396728
3 2644.21 1396396
3 2646.67 1494241
3 2646.67 1477385
3 2646.67 1475404
3 2646.67 1472219
3 2646.67 1449137
3 2646.67 1446974
3 2646.67 1436566
3 2646.67 1434317
3 2646.67 1432828
3 2647.47 1432055
3 2647.47 1429418
3 2647.47 1425090
3 2648.03 1422183
3 2648.92 1421877
3 2648.92 1415126
3 2648.92 1414826
3 2651.58 1413904
3 2652.44 1412410
3 2652.44 1412016
3 2654.83 1408033
3 2655.36 1405992
3 2655.89 1404985
3 2658.47 1404979
3 2658.47 1403647
3 2659.01 1403293
3 2660.26 1484666
3 2660.26 1469740
3 2660.26 1464554
3 2660.26 1462598
3 2660.26 1449437
3 2660.26 1447636
3 2660.26 1440892
3 2661.13 1439717
3 2661.13 1437461
3 2661.13 1437155
3 2661.13 1423277
3 2661.86 1422669
3 2662.41 1412937
3 2662.41 1412673
3 2663.1 1410028
3 2663.1 1407957
3 2663.1 1406856
3 2664.06 1406805
3 2664.06 1406416
3 2665.18 1405188
3 2666.04 1403100
3 2674.27 1562280
3 2674.27 1557610
3 2674.27 1535068
3 2674.27 1472190
3 2674.27 1471830
3 2674.27 1469653
3 2674.27 1468372
3 2674.27 1465439
3 2674.93 1464894
3 2674.93 1463602
3 2674.93 1461822
3 2674.93 1457656
3 2674.93 1449638
3 2674.93 1449273
3 2674.93 1447996
3 2675.55 1441488
3 2675.55 1436913
3 2675.55 1436258
3 2675.55 1435979
3 2675.55 1429187
3 2675.55 1427316
3 2676.21 1424794
3 2676.21 1417431
3 2676.21 1417429
3 2676.21 1416254
3 2677.87 1413435
3 2678.47 1412730
3 2679 1412481
3 2680.58 1411735
3 2680.58 1407718
3 2682.56 1405510
3 2682.56 1405154
3 2682.56 1404816
3 2682.56 1401790
3 2682.56 1401532
3 2683.48 1401124
3 2684.16 1399878
3 2684.16 1394012
3 2684.81 1393055
3 2686.45 1391880
3 2687.5 1391229
3 2688.05 1496398
3 2688.05 1486313
3 2688.05 1483332
3 2688.05 1474603
3 2688.05 1473068
3 2688.05 1472339
3 2688.05 1470132
3 2688.05 1458952
3 2688.69 1457060
3 2688.69 1455885
3 2688.69 1447403
3 2689.27 1445874
3 2689.27 1440915
3 2689.83 1434701
3 2689.83 1430540
3 2689.83 1426088
3 2689.83 1417658
3 2689.83 1417324
3 2690.41 1416476
3 2690.41 1416043
3 2690.95 1415674
3 2690.95 1413570
3 2690.95 1413216
3 2690.95 1412963
3 2691.53 1412310
3 2692.05 1412221
3 2693.09 1411216
3 2693.09 1409644
3 2694.68 1409583
3 2695.22 1409335
3 2695.76 1403234
3 2702.09 1571618
3 2702.09 1566111
3 2702.09 1559360
3 2702.09 1551022
3 2702.09 1550328
3 2702.09 1549974
3 2702.09 1524002
3 2702.09 1516989
3 2702.09 1501451
3 2702.09 1496103
3 2702.09 1491528
3 2702.09 1487708
3 2702.76 1485360
3 2702.76 1478738
3 2702.76 1473416
3 2702.76 1473170
3 2702.76 1463767
3 2702.76 1460102
3 2702.76 1459111
3 2702.76 1458458
3 2704.02 1454473
3 2704.02 1451733
3 2704.02 1449211
3 2704.72 1442406
3 2705.41 1439197
3 2705.41 1437916
3 2705.41 1435639
3 2706.75 1432497
3 2707.65 1430359
3 2707.65 1427273
3 2708.56 1423727
3 2708.56 1420909
3 2709.44 1420614
3 2710.49 1419439
3 2711.02 1417681
3 2711.02 1417006
3 2711.55 1414090
3 2711.55 1412939
3 2716.39 1501426
3 2716.39 1494807
3 2716.39 1492146
3 2716.39 1478991
3 2716.39 1460919
3 2717.35 1449697
3 2717.35 1443281
3 2717.35 1440247
3 2717.35 1439072
3 2717.35 1438493
3 2718.32 1428855
3 2718.32 1428576
3 2718.32 1426183
3 2719.27 1425964
3 2719.27 1424923
3 2719.27 1423743
3 2720.18 1420050
3 2720.18 1419912
3 2721.07 1415741
3 2721.07 1415383
3 2721.07 1414766
3 2721.07 1412628
3 2721.07 1412497
3 2721.07 1407864
3 2721.07 1407466
3 2721.07 1407112
3 2722.05 1405811
3 2722.05 1404348
3 2722.05 1403173
3 2723 1402119
3 2724.54 1398897
3 2725.07 1398144
3 2725.07 1395808
3 2725.67 1395454
3 2730.03 1494652
3 2730.03 1486028
3 2730.03 1485913
3 2730.63 1474977
3 2730.63 1464966
3 2730.63 1457000
3 2731.29 1456512
3 2731.29 1455458
3 2731.29 1451680
3 2731.29 1446945
3 2731.29 1446666
3 2731.29 1444782
3 2731.29 1438072
3 2731.87 1431392
3 2731.87 1431151
3 2731.87 1428626
3 2731.87 1427553
3 2732.43 1424949
3 2732.43 1424526
3 2732.43 1417383
3 2732.43 1414802
3 2733.03 1409360
3 2733.03 1408960
3 2733.58 1406224
3 2733.58 1402442
3 2734.17 1398875
3 2734.17 1394091
3 2734.17 1389099
3 2734.72 1382598
3 2734.72 1381101
3 2744.36 1545702
3 2744.36 1520575
3 2744.36 1517137
3 2744.36 1506873
3 2744.36 1500272
3 2744.36 1492233
3 2744.36 1478386
3 2744.36 1476414
3 2745.31 1473205
3 2745.31 1464357
3 2745.31 1457606
3 2745.31 1453813
3 2745.31 1453160
3 2745.9 1448307
3 2745.9 1445122
3 2748.47 1443295
3 2749.23 1440631
3 2749.23 1438109
3 2749.23 1435584
3 2749.23 1433289
3 2750.05 1432719
3 2750.05 1430795
3 2750.05 1429858
3 2753.44 1428590
3 2753.44 1426288
3 2754 1420534
3 2758.68 1526099
3 2758.68 1524623
3 2758.68 1507769
3 2758.68 1504945
3 2758.68 1491321
3 2758.68 1462882
3 2758.68 1460419
3 2758.68 1460157
3 2758.68 1456972
3 2758.68 1453234
3 2759.48 1451285
3 2759.48 1449749
3 2759.48 1449470
3 2759.48 1448087
3 2759.48 1437967
3 2759.48 1433021
3 2759.48 1430324
3 2760.08 1429283
3 2760.08 1424825
3 2760.65 1417276
3 2760.65 1416120
3 2760.65 1415537
3 2761.23 1414767
3 2762.05 1405024
3 2764.45 1403982
3 2765.05 1401835
3 2770.41 1401609
3 2772.71 1537387
3 2772.71 1530859
3 2772.71 1508317
3 2772.71 1505795
3 2772.71 1501770
3 2772.71 1495710
3 2772.71 1493433
3 2772.71 1474185
3 2772.71 1469654
3 2772.71 1453314
3 2773.56 1453035
3 2773.56 1451065
3 2773.56 1443580
3 2773.56 1440980
3 2774.13 1440697
3 2774.13 1439131
3 2774.13 1438323
3 2774.13 1437837
3 2774.75 1434818
3 2774.75 1432541
3 2774.75 1430878
3 2774.75 1429925
3 2774.75 1428356
3 2775.36 1427703
3 2775.36 1425730
3 2775.36 1424813
3 2775.36 1424534
3 2776.32 1408269
3 2776.32 1408219
3 2776.32 1403688
3 2778.99 1402160
3 2779.89 1395923
3 2779.89 1395858
3 2781.04 1395705
3 2781.68 1392389
3 2781.68 1389672
3 2781.68 1387065
3 2783.87 1384819
3 2783.87 1384398
3 2786.4 1527065
3 2786.4 1525967
3 2786.4 1503821
3 2786.4 1500636
3 2786.4 1491683
3 2786.4 1486640
3 2786.4 1483790
3 2786.4 1477911
3 2786.4 1475773
3 2786.4 1475446
3 2786.4 1471169
3 2786.4 1464545
3 2786.4 1457482
3 2787.48 1447305
3 2787.48 1443218
3 2788.35 1441607
3 2789.11 1433999
3 2789.11 1425790
query_times: 59
Score = 1423847
