    Blocking waiting for file lock on package cache
    Blocking waiting for file lock on package cache
    Blocking waiting for file lock on package cache
    Blocking waiting for file lock on package cache
    Blocking waiting for file lock on build directory
    Finished release [optimized] target(s) in 0.09s
     Running `target/release/tester ../a.out 0002`
3 0.632 768455
3 0.632 765462
3 0.632 764677
3 0.632 747498
3 0.632 744764
3 0.632 744706
3 0.632 744513
3 0.632 741638
3 1.09 738798
3 1.09 730072
3 1.09 728748
3 1.417 725873
3 1.678 724002
3 1.938 723118
2 1.938 720998
3 1.938 719622
3 3.189 710288
3 3.457 708806
3 3.457 708306
2 5.225 705998
3 14.035 828012
3 14.035 823137
3 14.035 787999
3 14.035 777566
3 14.035 751164
3 14.035 746998
3 14.035 743602
3 14.286 741737
3 14.286 733836
3 14.286 725027
3 14.484 724541
3 14.484 722869
3 14.484 718131
3 14.675 717874
3 14.871 715961
3 15.037 714096
3 15.037 713207
3 28.262 859328
3 28.262 849401
3 28.262 832169
3 28.262 829838
3 28.262 820724
3 28.262 802509
3 28.262 797014
3 28.262 787164
3 28.262 746336
3 28.262 738836
3 28.698 735977
3 28.698 729896
3 28.698 727938
2 29.018 722726
3 29.018 719945
3 29.018 710917
3 29.018 710261
3 29.378 707420
2 32.496 705982
3 32.666 704180
2 32.834 702424
3 32.999 695836
3 32.999 690961
3 32.999 690040
3 33.189 686949
3 33.442 686449
3 42.131 770773
3 42.131 752885
3 42.131 748220
3 42.131 747720
3 42.131 742984
3 42.131 736428
3 42.131 729574
3 42.39 724777
3 42.39 721886
3 42.39 712573
3 42.39 710910
3 56.059 774567
3 56.059 769692
3 56.059 763712
3 56.059 760297
3 56.059 756944
3 56.059 756189
2 56.059 743613
3 56.059 731744
3 56.059 730208
3 56.408 722116
3 56.408 718699
3 56.597 716199
3 56.597 715973
3 56.809 714927
3 56.809 713466
3 56.809 709688
3 56.809 708822
3 57.011 700752
3 58.326 695217
3 70.057 816712
3 70.057 798824
3 70.057 797588
3 70.057 783918
3 70.057 779373
3 70.057 769823
3 70.057 748201
3 70.057 747701
3 70.057 738861
3 70.057 731775
3 70.353 731303
3 70.353 728854
3 70.353 727681
3 70.353 724821
3 70.557 721160
3 70.557 720989
3 70.557 720489
3 70.744 720033
3 70.744 717432
3 70.744 715079
3 77.094 714183
3 77.094 710398
3 77.418 710319
3 77.732 707445
3 77.897 704022
3 84.064 769771
3 84.064 767125
3 84.064 763880
2 84.064 758039
3 84.064 751232
3 84.064 750369
3 84.304 740005
3 84.304 732263
3 84.304 731252
3 84.498 726535
3 84.498 723126
3 84.498 722202
3 84.498 721659
3 84.498 718705
3 84.739 718205
3 84.739 716883
3 84.739 711143
3 84.956 710643
3 84.956 709804
3 85.143 707952
3 85.928 706973
3 86.271 706669
3 86.271 704185
3 98.017 776143
3 98.017 761254
3 98.017 745269
3 98.017 741491
3 98.017 733176
3 98.017 732442
3 98.017 732322
3 98.017 727289
3 98.017 722196
3 98.017 716559
3 98.017 714760
3 98.332 714235
3 98.599 713194
3 98.599 708975
3 98.599 707423
3 98.599 704332
2 99.989 701419
3 102.541 691492
3 102.758 687714
3 102.758 686170
3 103.021 684056
3 112.01 845615
3 112.01 782011
3 112.01 761038
3 112.01 757260
3 112.01 737412
3 112.01 731516
3 112.01 726971
3 112.29 725792
3 112.453 725674
3 112.453 725500
3 112.626 716490
3 112.626 715911
3 112.806 712669
3 112.806 712155
3 112.806 711782
3 112.806 705085
3 112.806 702526
3 126.115 766897
3 126.115 752014
3 126.115 749984
3 126.115 749538
3 126.414 729967
3 127.049 723657
3 127.049 716095
3 127.049 715354
3 127.049 714854
3 127.049 713026
3 127.4 709935
3 127.69 708543
3 140.225 793697
2 140.225 770237
3 140.225 767630
3 140.563 767101
3 140.563 760363
1 140.893 756630
3 141.47 740865
2 141.47 739223
3 141.47 737034
3 141.47 732159
3 141.827 731659
3 141.827 727627
3 141.827 725440
3 141.827 718638
3 141.827 718062
3 142.181 717562
1 145.817 717237
3 145.817 715971
3 145.817 709675
3 154.191 816380
3 154.191 799143
3 154.191 791421
3 154.191 776942
3 154.191 773851
3 154.191 770354
3 154.191 770115
3 154.191 765240
3 154.644 764273
3 154.644 759319
3 154.644 757969
3 154.644 745784
3 154.644 742338
3 154.644 742178
3 155.018 739703
3 155.319 737162
3 155.617 733653
3 155.617 730435
3 156.692 728358
3 157.644 727980
3 157.876 720424
3 157.876 719824
3 159.54 714194
3 159.54 713648
3 160.519 706753
3 160.519 704625
3 160.519 701585
3 160.519 700847
3 168.003 774097
3 168.003 762432
3 168.003 754340
2 168.003 726846
3 168.003 726346
3 168.003 721959
3 168.003 717063
3 168.385 710325
3 182.251 781844
3 182.251 779445
3 182.251 775948
3 182.251 760183
3 182.615 749178
3 182.958 744212
3 182.958 739337
3 182.958 736300
3 183.3 733142
3 196.055 824846
3 196.055 783233
3 196.055 782350
3 196.055 775401
3 196.42 762328
3 196.42 747616
3 196.42 742120
3 196.42 739703
3 196.42 735124
3 196.42 735002
3 196.42 725267
3 196.42 722257
3 196.836 719822
3 196.836 718538
3 196.836 715432
3 196.836 714786
3 197.168 712400
3 197.743 707333
3 198.037 706833
3 198.037 699277
3 210.028 920380
3 210.028 867816
3 210.028 866908
3 210.028 797911
3 210.028 794634
3 210.028 789759
3 210.028 788872
3 210.028 785456
3 210.028 770984
3 210.028 763985
3 210.028 758992
3 210.028 755901
3 210.028 753144
3 210.028 752946
3 210.505 752769
3 210.505 740426
3 210.505 737727
3 210.505 732357
3 210.505 731590
3 210.505 728860
3 210.505 728599
3 210.799 724821
3 210.799 722792
3 210.799 721689
3 210.799 721189
3 211.167 719813
3 211.167 706073
3 211.167 699161
3 212.844 692448
2 224.021 774785
3 224.021 768736
3 224.021 763994
3 224.021 736488
3 224.021 732710
3 224.021 730071
3 224.021 721867
3 224.021 716307
3 224.352 715775
3 224.352 709662
3 224.352 709037
3 224.352 705946
3 224.352 700468
3 224.352 698384
3 238.038 821205
3 238.038 816598
3 238.038 791080
3 238.038 774361
3 238.038 766556
3 238.038 764211
3 238.038 759769
3 238.038 737905
3 238.038 729477
3 238.311 726386
3 238.311 720796
3 238.311 717577
3 238.495 714601
3 238.661 713799
3 240.815 711462
3 242.39 710252
3 252.021 917505
3 252.021 864941
3 252.021 837900
3 252.021 823867
3 252.021 796888
3 252.021 791107
3 252.021 783551
3 252.021 779000
3 252.021 771830
3 252.021 766955
3 252.021 753882
3 252.021 751134
3 252.021 748516
3 252.021 745053
3 252.021 737713
3 252.021 737678
3 252.021 737501
3 252.74 734882
3 253.758 725847
2 253.758 722862
3 253.758 705625
3 253.758 704741
3 254.097 701402
2 266.089 765583
3 266.089 747679
3 266.089 739587
3 266.089 725763
3 266.341 725263
3 266.341 722372
3 266.341 718423
3 266.341 718058
3 266.538 715332
3 280.041 809537
3 280.041 809338
3 280.041 756774
3 280.041 752371
3 280.041 750603
3 280.041 750360
3 280.041 750103
3 280.041 735243
3 280.041 732935
3 280.041 731997
3 280.041 725259
3 280.5 725081
3 280.5 723306
3 280.807 722419
3 294.214 751911
3 294.214 748253
2 294.214 740696
3 294.214 739320
3 294.214 725223
3 294.214 724471
3 294.214 722312
3 294.624 719831
3 294.624 719596
3 294.624 715996
3 294.624 714545
3 294.624 711465
3 294.965 710767
3 294.965 710164
3 294.965 702072
2 297.136 700751
3 297.136 697570
3 297.136 697180
3 297.483 696864
3 297.661 696356
3 297.661 693465
3 297.661 692902
3 308.071 794157
3 308.071 785111
3 308.071 781614
3 308.071 773243
3 308.071 757478
3 308.071 755543
3 308.071 754402
3 308.071 737781
3 308.316 735171
3 308.316 731516
2 308.316 707071
3 308.316 703927
3 308.521 702526
3 322.037 796605
3 322.037 777511
3 322.037 763876
3 322.037 759001
3 322.037 754430
3 322.037 754387
3 322.037 738735
2 322.037 735276
3 322.436 733945
3 322.436 733445
3 322.436 719014
3 322.436 717424
3 336.097 841856
3 336.097 838489
2 336.097 833014
3 336.097 826933
3 336.097 823842
3 336.097 793626
3 336.097 790167
3 336.097 785979
3 336.097 777887
3 336.394 773735
3 336.394 766997
3 336.394 751902
3 336.394 744576
3 336.597 739508
3 336.597 737574
3 336.597 734483
3 336.597 732998
3 336.597 731226
2 337.389 726681
3 337.389 725443
3 337.693 720898
2 339.765 719990
3 340.326 712434
3 350.143 796790
3 350.143 781146
3 350.143 778659
3 350.143 776832
2 350.143 748927
3 350.143 741917
3 350.143 741478
3 350.143 736949
3 350.143 733171
3 350.143 725609
3 350.492 722059
3 350.785 718718
3 350.785 713797
3 350.785 710345
3 351.099 709437
3 351.385 705769
3 351.385 704932
3 351.69 702477
3 351.874 701569
3 364.157 775385
3 364.157 757494
3 364.157 740257
3 364.157 738414
3 364.157 733351
3 364.157 733133
3 364.157 715464
3 364.157 713511
3 364.423 712749
3 364.594 709658
3 378.033 743385
3 378.033 741515
3 378.033 739215
3 378.033 736249
3 378.033 731686
3 378.033 726705
3 378.267 713457
3 378.267 709304
3 378.267 705807
3 382.719 701254
3 382.897 698163
3 384.064 697801
3 391.57 697266
3 391.57 690952
3 392.18 802707
3 392.18 797832
2 392.18 789468
3 392.18 775668
3 392.18 771890
3 392.18 764279
3 392.18 762814
3 392.18 760928
3 392.18 757150
3 392.18 754462
3 392.624 750629
3 392.624 743067
3 392.624 735775
3 392.624 733011
3 392.98 731997
3 406.164 811758
3 406.164 794791
3 406.164 793477
3 406.164 778853
2 406.164 774020
3 406.164 773520
3 406.164 767439
3 406.164 763381
2 406.499 762485
3 406.499 750354
3 406.499 744900
3 406.703 740449
3 406.876 739222
3 406.876 736153
3 407.384 726908
3 407.558 726177
3 408.631 725401
3 408.958 724644
2 409.904 720065
3 412.805 719540
3 420.052 811764
3 420.052 800227
3 420.052 768299
3 420.052 753741
3 420.052 737589
3 420.052 731494
3 420.052 727782
3 420.052 727104
3 420.052 719690
3 420.477 719370
3 420.477 718274
3 420.477 715183
3 420.477 710598
3 420.798 710229
3 420.798 706732
3 423.287 706181
3 423.568 705861
3 423.568 704852
3 423.568 704352
3 434.062 749061
3 434.062 743663
3 434.062 734260
3 434.062 730763
3 434.062 728327
3 434.062 724879
3 434.062 723294
3 434.523 716764
3 434.523 716198
3 434.523 711165
3 434.523 705500
3 434.915 704612
3 435.078 700165
3 437.442 699971
3 437.618 699476
3 437.8 698370
3 437.8 697870
3 437.992 692548
3 437.992 692415
3 438.474 691512
3 439.506 688302
3 439.506 687037
3 448.249 773295
3 448.249 757651
3 448.249 752776
3 448.249 744245
3 448.917 738604
3 448.917 738167
3 448.917 737584
3 448.917 734670
2 449.25 731172
3 449.25 729433
3 449.556 725542
2 449.556 719971
1 449.862 719275
3 449.862 713210
3 449.862 712710
3 449.862 707164
3 453.512 703729
3 453.718 703633
3 453.718 703209
3 453.933 702709
3 462.171 868368
3 462.171 850153
3 462.171 847125
3 462.171 778128
3 462.171 774631
3 462.171 768719
3 462.171 764250
3 462.171 762953
3 462.171 739100
3 462.171 738354
3 462.638 727138
3 462.638 727033
3 462.638 718368
3 462.638 715746
3 462.638 714746
3 462.638 708665
3 463.015 705413
3 476.063 776057
3 476.063 761098
3 476.063 757526
3 476.063 752944
3 476.063 749186
3 476.063 745689
3 476.063 745385
3 476.063 740852
3 476.063 732760
3 476.063 732260
3 476.51 729594
3 476.51 729199
3 476.51 728482
3 476.51 726236
3 476.51 720926
3 476.51 720155
3 476.871 715201
3 476.871 713275
3 476.871 707938
3 477.191 700202
3 490.152 812492
3 490.152 794604
3 490.152 771950
3 490.152 756306
3 490.152 748744
3 490.152 741188
3 490.619 718236
3 490.619 713169
3 490.619 711042
3 491.015 705844
3 491.313 702950
3 504.158 797759
3 504.158 786504
3 504.158 782726
3 504.158 776618
3 504.158 763501
3 504.158 760853
3 504.546 748438
3 504.546 744941
3 509.236 731134
3 509.413 730634
3 509.413 714175
3 509.895 712215
3 509.895 710866
3 510.199 708884
3 518.172 865687
3 518.172 813123
2 518.172 785987
3 518.172 765014
3 518.172 759665
3 518.547 755887
3 518.547 751342
3 518.547 749806
3 518.547 743541
3 518.547 741881
2 518.547 739320
3 518.547 737783
3 518.547 736229
3 518.92 734286
3 518.92 721402
3 518.92 718311
3 518.92 716695
3 518.92 715502
3 519.138 711052
3 519.306 707482
3 519.306 705997
3 519.486 705829
2 521.031 703419
3 521.031 700948
3 521.444 700698
3 521.444 699922
3 532.101 799092
3 532.101 788955
3 532.101 782931
3 532.101 779738
3 532.101 775960
3 532.338 762705
3 532.338 756309
2 532.338 742516
3 532.338 738022
3 532.338 733147
3 532.881 731595
3 533.054 715259
3 546.237 806178
3 546.237 780434
3 546.237 772878
3 546.237 771581
3 546.237 766706
3 546.237 762235
3 546.619 747202
3 546.619 745426
3 546.619 741648
3 546.943 740801
3 546.943 740351
3 546.943 739918
3 546.943 732362
3 546.943 730431
3 546.943 724534
3 546.943 722644
2 546.943 709680
3 546.943 708772
3 546.943 708161
3 547.359 707372
1 548.445 705437
3 548.445 704937
2 560.064 813798
3 560.064 812915
3 560.064 806834
3 560.064 790515
3 560.064 787620
3 560.064 773386
3 560.064 770694
3 560.064 754030
3 560.064 749626
3 560.49 740032
3 560.49 738089
2 560.99 735447
3 561.168 735078
3 561.168 731581
3 561.168 730045
3 561.46 727000
3 561.823 725553
3 561.823 725514
3 561.823 722056
3 573.469 718387
3 573.469 718123
3 573.775 717623
3 574.05 812551
3 574.05 789866
3 574.05 756090
3 574.05 752312
3 574.05 751812
3 574.422 743812
3 574.422 737731
3 574.422 724132
3 574.422 711461
2 575.912 710289
3 576.232 704004
3 588.127 876527
3 588.127 807530
3 588.127 797608
2 588.127 767691
3 588.127 763409
3 588.127 754698
3 588.127 732969
3 588.127 715100
3 588.127 711527
3 588.582 710671
3 589.817 710300
3 589.817 709363
3 589.999 709062
3 589.999 707978
3 589.999 706235
3 589.999 702738
3 589.999 697784
3 602.057 811930
3 602.057 793715
3 602.057 778356
3 602.057 762591
3 602.057 762306
3 602.057 759863
3 602.057 757928
3 602.057 739608
3 602.057 739374
3 602.057 734878
3 602.057 728797
3 602.397 723338
3 602.397 712338
3 602.397 712287
3 602.397 710516
3 602.606 710165
3 602.606 708509
3 604.995 703427
3 605.167 702927
3 605.167 701403
3 605.672 698893
3 606.234 698685
3 606.411 697798
3 606.411 697779
3 616.229 802374
3 616.229 798343
3 616.229 781576
1 616.229 779973
2 616.229 774593
3 616.229 771502
3 616.57 765813
3 616.57 764818
3 616.57 764153
3 616.57 756019
3 616.787 754249
3 616.787 751963
3 616.787 734863
3 618.354 727721
3 618.354 724630
3 618.673 718549
2 620.582 717531
3 620.792 707412
3 620.792 703152
3 620.792 702849
3 621.168 698694
3 621.336 697208
3 621.336 694117
3 621.51 693284
3 621.667 693084
3 621.667 689993
3 630.282 777713
3 630.282 766754
3 630.282 742123
3 630.282 724017
3 630.282 715305
3 630.282 713872
3 630.661 713400
3 630.949 709624
3 631.908 706728
3 632.178 702950
3 644.104 797270
3 644.104 796975
3 644.104 776923
3 644.104 767654
3 644.104 761943
3 644.104 758851
3 644.104 754381
3 644.104 754125
3 644.372 748071
3 644.372 743535
3 644.558 739399
3 644.739 736100
3 644.739 734292
3 644.941 732135
3 644.941 719964
2 644.941 715565
3 652.089 708431
3 652.43 705543
3 658.196 830890
3 658.196 823328
3 658.196 820701
3 658.196 815826
3 658.196 812329
3 658.196 796591
3 658.196 794114
3 658.196 790336
3 658.645 782537
3 658.645 773184
3 658.645 759085
3 658.645 755296
3 658.645 754459
3 658.645 754187
3 658.645 754115
3 658.645 751879
3 658.977 747606
3 658.977 731036
3 659.205 726371
3 659.205 725798
3 659.205 722809
3 659.205 721057
3 659.205 719849
3 659.205 718236
3 672.073 829837
3 672.073 773114
3 672.073 748880
3 672.073 732723
3 672.073 725161
3 672.073 707274
3 672.073 703777
3 672.443 703600
3 678.979 700323
3 679.155 695516
3 679.323 690481
3 679.323 687390
3 686.098 820053
3 686.098 802816
3 686.098 797652
3 686.098 793472
3 686.098 771502
3 686.098 762510
3 686.098 744295
3 686.512 740919
3 686.512 739437
3 686.512 738937
3 686.869 737438
3 686.869 735159
3 687.714 734407
3 687.714 726619
3 688.015 726526
3 688.015 723029
3 688.747 722817
3 688.747 720538
3 688.747 717910
3 688.747 716565
3 688.949 713702
3 688.949 711672
3 688.949 711172
3 689.137 711016
3 689.451 710854
2 689.929 710761
3 689.929 704496
3 689.929 702868
3 690.371 701434
3 690.576 701015
3 700.147 824263
3 700.147 813263
3 700.147 806822
3 700.147 800330
3 700.147 782905
3 700.147 765017
3 700.147 760405
3 700.147 759145
3 700.147 747278
3 700.147 741435
3 700.147 739653
3 700.147 731706
3 700.147 728209
3 700.442 725386
3 700.61 724009
3 701.975 716467
3 701.975 716054
2 702.779 715421
3 702.779 714921
2 709.772 714589
3 709.772 710061
3 710.073 709977
3 710.397 707470
3 710.397 704187
3 710.978 696345
3 710.978 695845
3 714.107 812064
3 714.107 772900
3 714.107 767395
3 714.107 759833
3 714.107 756055
3 714.107 747742
3 714.52 745174
3 714.52 744245
3 714.52 739920
3 714.846 739545
3 715.147 734670
2 715.447 729703
3 715.447 728480
3 716.91 724026
3 720.521 723489
3 720.521 722554
3 720.844 720501
3 721.079 716751
3 728.065 884083
3 728.065 853867
3 728.065 826826
3 728.065 774262
3 728.065 759445
3 728.294 751889
3 728.294 735207
3 728.48 728468
3 728.48 725339
3 728.797 720065
3 728.797 713735
3 728.797 710841
3 728.797 707495
3 728.797 703285
3 729.133 702950
3 742.225 809646
2 742.225 782510
3 742.225 771075
2 742.225 769207
3 742.225 753563
3 742.225 749027
3 742.225 745530
3 742.225 738156
3 742.636 731482
3 742.636 724744
3 742.636 712688
3 742.636 711104
3 742.977 710844
3 742.977 707883
3 743.336 707607
3 745.37 704647
3 745.552 704645
3 756.17 805149
3 756.17 793395
3 756.17 782498
3 756.17 776032
3 756.17 767976
3 756.17 763101
1 756.17 761748
3 756.17 757970
3 756.17 755614
3 756.17 746305
3 756.17 740039
3 756.17 724395
3 756.17 721304
3 756.648 720719
3 759.627 716241
3 760.415 713109
3 760.415 712539
3 761.857 711261
3 762.147 709910
3 770.111 807399
3 770.111 789184
3 770.111 776111
3 770.111 774499
3 770.111 761410
3 770.111 758948
3 770.111 755451
3 770.111 744054
3 770.111 735675
3 770.111 728410
3 770.392 727825
3 770.566 726874
3 770.738 713725
3 770.738 713202
3 770.738 708751
3 770.957 704332
2 771.126 703613
3 771.126 696972
3 771.303 696020
3 771.932 694017
3 775.072 693538
3 775.072 689416
3 778.996 684886
3 784.098 836973
3 784.098 832098
3 784.098 814210
3 784.098 754853
3 784.098 748345
3 784.098 745213
3 784.098 721609
3 784.098 720671
3 784.098 717831
3 785.653 715396
2 785.961 710433
3 785.961 710182
3 785.961 709129
3 786.165 706833
3 786.339 706686
3 786.339 706516
3 786.339 706197
3 786.339 705031
3 786.339 699277
3 798.009 812260
3 798.009 804698
3 798.009 798811
3 798.009 790367
3 798.009 786483
3 798.009 772261
3 798.009 770839
3 798.009 758771
3 798.009 753082
3 798.009 752195
3 798.009 733131
3 798.009 730001
3 798.009 728465
2 798.51 715653
3 798.51 711995
3 798.51 709718
3 799.099 709598
3 799.099 708915
3 799.398 708147
2 799.398 704090
3 799.398 695522
3 799.398 693928
3 799.723 692427
3 802.78 690150
3 802.78 687983
3 803.084 684069
3 812.134 772284
3 812.134 767330
3 812.134 750944
3 812.134 744206
3 812.134 723795
3 812.463 721382
3 812.463 715597
3 812.709 714447
3 812.709 703146
3 812.709 698273
3 812.95 698102
1 826.112 791881
3 826.112 782069
3 826.112 778299
3 826.112 760084
3 826.112 759692
3 826.112 739892
3 826.356 738916
3 826.356 737316
3 826.356 724040
3 826.554 720262
3 826.716 720123
3 826.881 717032
3 827.302 712367
2 830.571 697709
3 831.093 688066
3 831.258 685588
2 834.279 685401
3 834.279 684901
3 834.751 682486
3 834.751 682365
3 834.751 681298
3 835.125 679060
3 835.125 678914
3 840.012 777872
3 840.012 774168
3 840.012 764823
3 840.012 761465
3 840.012 760965
3 840.012 750915
3 840.012 746928
3 840.012 740270
3 840.012 739770
3 840.012 738862
3 840.012 733519
3 840.678 733414
3 840.678 732567
3 840.678 731610
3 840.678 729636
3 840.678 724054
3 840.678 719798
3 840.961 717019
3 841.128 716676
3 843.542 715733
3 843.542 714102
3 843.867 708866
3 844.157 708810
3 854.144 783946
3 854.144 770365
3 854.144 761613
3 854.144 759235
3 854.144 749397
3 854.144 731509
3 854.144 729007
3 854.144 724830
3 854.144 721451
3 854.581 720951
1 854.581 720175
3 854.896 719665
3 854.896 713892
3 854.896 705800
3 854.896 702428
2 855.228 700018
3 855.228 698536
3 855.228 695445
3 855.546 694494
3 855.546 690174
3 860.713 689367
3 860.713 688401
3 861.063 687177
3 862.216 686529
3 868.049 847053
3 868.049 837545
3 868.049 828553
3 868.049 819439
3 868.049 810447
3 868.049 798093
3 868.049 779878
3 868.049 765452
3 868.049 743183
3 868.049 741649
3 868.049 739866
3 868.049 733785
3 868.049 730655
3 868.049 725858
3 868.049 725160
3 868.393 718422
3 868.393 718266
3 868.393 716248
3 868.393 713065
3 868.393 712617
3 882.01 781989
3 882.01 776872
3 882.01 772327
3 882.01 736905
3 882.01 733236
3 882.01 726934
3 882.01 726693
3 882.397 723602
3 882.397 720874
3 882.397 718648
3 882.397 713504
3 882.397 712567
3 896.052 892292
3 896.052 847570
3 896.052 839728
3 896.052 786828
3 896.052 765855
3 896.052 738063
3 896.052 734703
3 896.052 728918
3 896.052 725140
2 896.356 719059
3 896.356 719010
3 896.356 717164
3 896.356 712210
2 896.869 708115
3 897.092 707484
3 897.092 707266
3 897.319 704424
3 897.319 700646
3 898.269 698800
3 898.269 693846
3 901.999 693720
3 901.999 686982
3 902.207 686482
3 902.588 686236
3 910.249 771873
3 910.249 771484
3 910.249 770956
2 910.249 756435
3 910.249 752657
3 910.249 736564
3 910.249 735089
3 910.642 734087
3 910.642 732295
3 910.982 729567
3 910.982 728784
3 910.982 728517
3 912.194 717874
3 912.194 713335
3 912.509 711919
3 924.054 749033
3 924.054 741557
3 924.054 732485
3 924.054 728484
3 924.054 726984
3 924.054 724576
3 924.054 721770
3 924.054 716710
3 924.054 716274
3 925.702 715750
3 925.702 713959
3 925.702 708940
3 925.702 707484
3 925.909 702207
3 925.909 700828
3 926.086 700314
3 926.086 699941
3 926.435 699922
3 926.9 697114
3 926.9 696105
3 926.9 695575
3 928.085 694246
3 928.085 691155
3 938.036 902877
3 938.036 887112
2 938.036 812260
3 938.036 794382
3 938.036 787656
3 938.036 776167
3 938.036 774090
3 938.036 753618
3 938.036 747240
3 938.036 739684
3 938.036 733147
3 938.387 731592
2 938.387 730056
3 938.387 726461
3 938.387 722665
3 938.387 718827
3 939.562 718792
3 939.562 715295
3 939.819 714795
3 939.977 714709
1 940.424 711792
3 940.424 711353
3 940.707 704197
3 940.707 703330
3 940.707 702394
3 952.122 773991
3 952.122 758102
3 952.122 754605
3 952.122 754384
3 952.122 738094
2 952.354 718064
3 952.718 715405
3 952.889 713519
2 955.736 710100
3 955.736 707622
3 955.736 701701
3 955.941 694421
3 955.941 693632
3 955.941 693104
3 955.941 686859
3 966.106 777873
3 966.106 770317
3 966.106 752211
3 966.106 731744
3 966.478 727630
1 971.003 725366
3 971.33 724433
3 977.055 721460
3 977.371 717125
3 977.371 715118
3 977.371 711856
1 979.963 709423
3 980.266 816186
3 980.266 760226
3 980.266 755193
3 980.266 753506
3 980.266 737956
3 980.266 737133
3 980.266 735291
3 980.635 734178
3 980.635 731358
3 980.635 729245
1 980.962 716998
3 980.962 711162
3 980.962 705417
2 994.143 802475
3 994.143 795393
3 994.143 783996
3 994.143 779042
2 994.143 770941
3 994.143 762483
3 994.381 744377
3 994.381 733686
3 994.381 733176
3 994.381 726490
3 994.381 721199
3 994.381 718075
3 994.592 717635
3 994.592 717188
3 994.592 714387
3 994.592 709054
3 994.798 706478
3 994.798 704179
2 998.267 703387
3 998.267 691615
2 998.834 688626
3 1006.15 687541
2 1008.07 770313
1 1008.07 760219
3 1008.07 755270
3 1008.07 752136
3 1008.07 748569
3 1008.07 740984
3 1008.07 740469
3 1008.07 733731
3 1008.07 732881
3 1009.38 718614
3 1009.38 717440
3 1009.72 713845
2 1012.68 713059
3 1012.99 709562
2 1013.84 706312
3 1014.15 705134
3 1014.15 705042
3 1014.15 701951
3 1022.24 826101
3 1022.24 824776
3 1022.24 823889
3 1022.24 801235
3 1022.24 793673
3 1022.24 785812
3 1022.24 779243
3 1022.24 770889
3 1022.24 763333
3 1022.24 751796
3 1022.24 741034
3 1022.7 739379
3 1022.7 730327
3 1022.7 727236
3 1022.7 724809
3 1022.7 713328
3 1022.92 711900
3 1022.92 711671
3 1023.09 710525
3 1023.09 709146
3 1023.09 707028
2 1024.34 705025
3 1024.34 704507
3 1024.34 699277
3 1036.03 823221
3 1036.03 807420
3 1036.03 785812
3 1036.03 758771
3 1036.03 752033
3 1036.03 749413
3 1036.03 740293
3 1036.03 738816
3 1036.46 733321
3 1036.46 726583
3 1036.46 719786
3 1036.46 718902
3 1036.46 709906
3 1036.77 704952
2 1040.88 703433
3 1040.88 702887
3 1050.03 765773
2 1050.03 760876
3 1050.03 734409
3 1050.03 730393
3 1050.03 727721
3 1050.03 726497
3 1050.03 723085
3 1050.34 720304
3 1050.34 715830
3 1050.34 712333
3 1051.36 711911
3 1051.53 708499
3 1051.53 705652
3 1051.53 703708
3 1064.15 894338
3 1064.15 886782
3 1064.15 834218
3 1064.15 818574
3 1064.15 800454
3 1064.15 785668
3 1064.15 759056
3 1064.15 739034
3 1064.15 732367
3 1064.15 731867
3 1064.45 731270
3 1064.45 727773
3 1064.45 726371
3 1064.66 719457
3 1064.66 717686
3 1064.66 716162
3 1064.66 709665
3 1064.98 708992
3 1076.23 703427
3 1076.53 703345
3 1076.53 690777
3 1078.02 776681
3 1078.02 748444
3 1078.02 742363
3 1078.02 724475
3 1078.02 715046
3 1078.02 712164
3 1078.25 710242
3 1078.25 707644
3 1078.25 706954
3 1078.44 698732
3 1078.44 698439
3 1078.62 695850
3 1078.62 694796
3 1092.02 833525
3 1092.02 815310
3 1092.02 809072
3 1092.02 770970
3 1092.02 766811
3 1092.02 764232
3 1092.02 760096
3 1092.02 754693
3 1092.43 748089
3 1092.43 747985
3 1092.43 747038
3 1092.43 746242
3 1092.43 744527
3 1092.43 741143
2 1092.78 736708
3 1092.78 729171
3 1093.1 726791
3 1093.1 725393
3 1093.1 718223
3 1093.41 712142
3 1093.41 708665
3 1093.41 705413
3 1093.98 704586
3 1096.74 702927
2 1096.74 702360
3 1096.99 695493
3 1096.99 692264
3 1096.99 688912
2 1106.17 880794
3 1106.17 873232
3 1106.17 865435
3 1106.17 858080
3 1106.17 851999
3 1106.17 841513
3 1106.17 832043
3 1106.17 763046
3 1106.17 760709
3 1106.17 744944
3 1106.56 733965
3 1106.56 715461
3 1106.56 712370
3 1106.56 701619
3 1106.8 697139
3 1106.8 696778
2 1120.12 853997
3 1120.12 798037
3 1120.12 796501
3 1120.12 793410
3 1120.12 786672
2 1120.12 771300
3 1120.12 763564
3 1120.12 759890
3 1120.12 759024
3 1120.12 745452
3 1120.12 741161
3 1120.42 718848
3 1121.11 711610
3 1121.29 709001
3 1121.47 708073
3 1121.47 705420
3 1121.47 704085
3 1121.47 703711
3 1121.66 703198
3 1121.66 702388
3 1121.66 700307
3 1134 803749
3 1134 803235
3 1134 795679
3 1134 782606
3 1134 777731
3 1134 760435
3 1134 755890
3 1134 754971
3 1134.51 742282
3 1134.51 724395
3 1134.51 721679
3 1134.51 710575
3 1134.51 707484
3 1134.96 700828
3 1135.35 700314
3 1135.55 699941
3 1141.43 699922
3 1141.72 698644
3 1142.01 697114
3 1142.01 694246
3 1142.27 691155
3 1148.05 734622
3 1148.05 732333
3 1148.05 728291
3 1148.05 726885
3 1148.68 726844
3 1148.68 724148
3 1148.92 723622
3 1148.92 720281
3 1148.92 718588
3 1148.92 716338
3 1148.92 715514
2 1150.18 712143
3 1150.18 711026
3 1150.18 704978
3 1152.4 704274
3 1152.93 696899
3 1152.93 696140
2 1162.14 837149
3 1162.14 833652
3 1162.14 829874
2 1162.14 811072
3 1162.14 806414
2 1162.36 784153
3 1162.36 771083
3 1162.36 770154
3 1162.36 767992
3 1162.36 765938
2 1162.74 760436
2 1162.74 760134
3 1162.91 759634
3 1162.91 720245
3 1163.11 716006
3 1163.6 710973
3 1163.6 709632
3 1163.6 705181
3 1176.17 798957
2 1176.17 790598
3 1176.17 774512
3 1176.17 746536
3 1176.17 716360
3 1176.56 709465
3 1176.56 707537
3 1176.56 703759
1 1179.92 703367
3 1190.27 748516
3 1190.27 748286
3 1190.27 740724
3 1190.27 736946
3 1190.27 729863
3 1190.27 729255
3 1190.27 716531
3 1190.27 715278
3 1190.66 713490
3 1190.66 711500
3 1190.66 710252
3 1191.02 706985
3 1191.6 705938
3 1204.14 801723
3 1204.14 779069
2 1204.14 752533
3 1204.14 749543
3 1204.14 737312
3 1204.14 736812
3 1204.14 736382
3 1204.14 732885
3 1204.46 725441
3 1204.64 724778
3 1204.64 723169
3 1205.11 719907
3 1205.11 716129
3 1205.31 713033
3 1206.35 709869
3 1206.52 708443
3 1206.52 706834
3 1206.73 706152
3 1208.17 704731
3 1208.17 702927
2 1210.1 700953
3 1218.17 758819
3 1218.17 752081
3 1218.17 748545
3 1218.17 735508
3 1218.17 732011
3 1218.17 720860
3 1218.17 719879
3 1218.58 719293
2 1218.88 716991
3 1218.88 710910
3 1218.88 706586
3 1219.2 706035
3 1219.5 701585
3 1219.5 700985
2 1232.14 904940
3 1232.14 887052
3 1232.14 871287
3 1232.14 845543
3 1232.14 809396
3 1232.14 740399
3 1232.4 720541
3 1232.4 720426
3 1232.4 720278
3 1232.4 719841
3 1232.4 716750
3 1232.65 715989
2 1232.97 715038
3 1233.29 712302
3 1233.55 710850
3 1233.55 710107
3 1233.79 708578
2 1233.79 707680
3 1233.79 706575
3 1233.79 706435
3 1234.04 699837
3 1234.04 697720
2 1234.04 695383
3 1234.04 694036
3 1234.29 691315
3 1234.29 690572
3 1234.61 688124
3 1234.89 686926
3 1234.89 686169
3 1235.18 684986
3 1235.18 683503
3 1246.03 773356
3 1246.03 765463
3 1246.03 759093
3 1246.03 757050
3 1246.03 753272
3 1246.03 751011
3 1246.03 750143
3 1246.03 749855
3 1246.03 746633
3 1246.32 745302
3 1246.32 740414
3 1246.32 737377
3 1246.32 731296
3 1246.32 731182
3 1246.77 723204
2 1247.91 721750
3 1247.91 720884
3 1248.22 713218
3 1260.01 742461
2 1260.01 733685
3 1260.01 729424
1 1260.01 721938
3 1260.01 721180
3 1260.93 716389
3 1260.93 713562
3 1261.24 710397
3 1261.51 708167
3 1262.06 707903
3 1274.07 804597
3 1274.07 767090
3 1274.07 763312
3 1274.07 756574
3 1274.07 739337
2 1274.07 738108
3 1274.07 734989
3 1274.31 732612
3 1274.49 732238
3 1274.49 731983
3 1274.49 727108
3 1274.71 726687
3 1274.91 721015
3 1274.91 719131
3 1278.69 718670
3 1278.69 718414
3 1278.69 717295
3 1279.07 714892
3 1279.07 711871
3 1279.39 708971
3 1279.39 708265
3 1279.39 708093
3 1288.03 882215
3 1288.03 854287
3 1288.03 785290
3 1288.03 780415
3 1288.03 759039
3 1288.03 751477
3 1288.03 750199
3 1288.03 738289
3 1288.37 738134
3 1288.37 730578
3 1288.37 729630
3 1288.37 724755
3 1290.52 724170
3 1291.63 723219
3 1302.13 894082
3 1302.13 889207
3 1302.13 836643
3 1302.13 818755
3 1302.13 787778
3 1302.13 773147
3 1302.13 771268
3 1302.13 763176
3 1302.13 759398
3 1302.13 725754
3 1302.52 725550
3 1302.52 720811
3 1302.52 720596
3 1302.75 716564
3 1302.75 715396
3 1303.45 714808
3 1303.45 712863
3 1303.45 711311
3 1303.45 708816
3 1303.45 707566
3 1303.83 707263
3 1303.83 704172
2 1306.32 700571
3 1307.98 700131
3 1308.16 699631
3 1308.16 699277
3 1316.26 794909
3 1316.26 791028
3 1316.26 783472
3 1316.26 778927
3 1316.26 764580
3 1316.26 748815
3 1316.26 745077
3 1316.26 735190
3 1316.26 717084
3 1316.66 716570
3 1316.66 715954
3 1316.97 715397
3 1316.97 715246
3 1316.97 714873
3 1316.97 714854
2 1317.29 714087
3 1317.29 710309
3 1317.29 704228
3 1317.29 702950
3 1318.15 700883
3 1318.15 699894
3 1318.15 687360
3 1330.04 783504
3 1330.04 778550
3 1330.04 772469
3 1330.04 758120
3 1330.04 749782
3 1330.04 746226
3 1330.43 742535
3 1330.43 737829
3 1330.43 731572
3 1330.43 729665
3 1330.43 728075
3 1330.43 716874
3 1330.8 713783
3 1330.8 713091
3 1330.8 712557
3 1331.11 710006
3 1344.09 849407
3 1344.09 831519
1 1344.09 828628
2 1344.09 825339
3 1344.09 814645
3 1344.09 809980
3 1344.09 806483
1 1344.09 795086
3 1344.53 772432
3 1344.53 768517
3 1344.53 766869
3 1344.53 760955
3 1344.53 750616
3 1344.53 732891
3 1344.82 727498
3 1344.82 722465
3 1344.82 719374
3 1345.02 710167
3 1345.02 710040
3 1358.1 745852
3 1358.1 738709
3 1358.1 735385
3 1358.1 732100
3 1358.1 726751
3 1358.1 726251
3 1358.36 724401
3 1358.36 716309
3 1358.74 714773
3 1372.05 760049
3 1372.05 758771
3 1372.05 740665
3 1372.05 736309
3 1372.05 733109
3 1372.42 731621
3 1372.42 729571
3 1372.42 716606
3 1373.03 715070
3 1373.32 714697
3 1373.32 714678
3 1373.52 712282
3 1373.52 711986
3 1373.52 708873
3 1373.72 704694
3 1373.72 703919
3 1373.72 703745
3 1373.72 700828
3 1373.91 700314
3 1374.21 699922
3 1376.5 692385
2 1381.35 691376
3 1381.93 691151
3 1381.93 687082
3 1381.93 686131
3 1381.93 685367
1 1386.1 787580
3 1386.1 776568
3 1386.1 769006
3 1386.1 758368
3 1386.1 754590
3 1386.1 751093
3 1386.1 750561
3 1386.1 739918
3 1386.1 736140
3 1388.06 729915
3 1400.19 833105
3 1400.19 833034
3 1400.19 824942
3 1400.19 815149
3 1400.19 807587
3 1400.19 769380
3 1400.19 762642
3 1400.6 746323
3 1400.6 742845
3 1400.6 740594
3 1400.92 740243
3 1400.92 739679
3 1400.92 736182
3 1401.25 735289
3 1401.25 730633
3 1403.4 728745
3 1403.4 728002
3 1403.66 726893
3 1403.66 721575
3 1403.66 720946
3 1404.01 720155
3 1404.31 719480
3 1404.31 719132
3 1404.31 718357
3 1404.31 716560
3 1404.66 713124
3 1404.9 712624
3 1414.03 776803
2 1414.03 737821
3 1414.03 737321
3 1414.03 726803
3 1414.03 726340
3 1414.29 721461
3 1414.29 718164
3 1414.48 717664
2 1415.02 716461
3 1415.02 710225
3 1415.02 709725
3 1415.02 708449
3 1415.36 708051
3 1415.36 706051
3 1415.36 701899
3 1415.66 700858
3 1415.66 698672
3 1415.66 695581
3 1416.04 695311
2 1418.18 692650
3 1418.18 691569
3 1418.18 688843
2 1421.63 685428
3 1421.85 684376
3 1421.85 681650
3 1428.22 867421
3 1428.22 837205
3 1428.22 768208
3 1428.22 757762
3 1428.22 752887
3 1428.22 748319
3 1428.22 747368
3 1428.22 730131
3 1428.22 716875
3 1428.22 714487
3 1428.61 713040
3 1429.54 707495
3 1429.54 702950
3 1442.13 728106
3 1442.13 723093
3 1442.13 721081
3 1442.13 720211
3 1442.13 717120
3 1442.13 714165
3 1442.13 713634
3 1442.37 712347
3 1442.37 711960
2 1442.57 710073
3 1442.57 699015
3 1442.57 698198
3 1442.57 694263
3 1442.76 694066
3 1442.76 693728
3 1442.76 693506
3 1456.26 803173
3 1456.26 754213
3 1456.26 732729
2 1456.26 732431
3 1456.26 722889
3 1456.26 720296
3 1456.67 715238
3 1456.67 711747
3 1456.87 708928
2 1459.49 704192
3 1460.07 704185
3 1460.07 703695
3 1470.2 810348
3 1470.2 782582
3 1470.2 771045
3 1470.2 766170
3 1470.2 751670
3 1470.5 747955
3 1470.5 744903
3 1470.7 743942
3 1470.88 742566
3 1470.88 742066
3 1470.88 741323
3 1470.88 739882
3 1471.1 739814
3 1471.27 736115
3 1471.27 735948
3 1471.27 735164
3 1471.27 728181
3 1471.27 726091
3 1471.27 724081
3 1471.5 720596
3 1471.67 717476
2 1471.99 716525
3 1471.99 715555
3 1472.32 714495
3 1472.6 709620
3 1472.88 708896
3 1472.88 703435
3 1484.12 815086
3 1484.12 789568
3 1484.12 759271
3 1484.12 758088
3 1484.12 755120
3 1484.12 748551
3 1484.12 746854
3 1484.12 734388
3 1484.12 730535
3 1484.12 728641
3 1484.12 727444
3 1484.38 722567
3 1484.38 722461
3 1484.38 718683
3 1484.57 717401
3 1484.57 717075
3 1484.57 716491
3 1484.85 716184
3 1484.85 713093
3 1485.15 711557
3 1485.42 704952
2 1492.36 704263
3 1492.36 704246
1 1492.36 701547
3 1492.57 699254
3 1493.2 698729
3 1494.83 698393
3 1498.06 720428
3 1498.06 709421
1 1500.49 706909
3 1500.49 706435
3 1500.49 701642
3 1500.49 698940
3 1500.49 698408
3 1501.13 695317
3 1512.12 852164
3 1512.12 812533
3 1512.12 799600
2 1512.12 776601
3 1512.12 771544
3 1512.12 769591
2 1512.12 758738
3 1512.12 740851
3 1512.12 740156
3 1512.54 735357
3 1512.54 735281
3 1512.54 733633
3 1512.54 732725
3 1512.54 729131
3 1512.54 724125
3 1512.54 718061
3 1512.54 711362
3 1512.91 708271
3 1513.46 698194
3 1526.1 748735
3 1526.1 740643
3 1526.1 740251
3 1526.1 733513
3 1526.1 729538
3 1526.1 729115
3 1526.1 721875
3 1526.1 721798
3 1526.1 721661
3 1526.59 719702
2 1528.38 715125
3 1528.38 714742
3 1528.59 714524
3 1528.59 714024
3 1540.09 754890
3 1540.09 746684
3 1540.09 743814
3 1540.09 743028
3 1540.09 740723
3 1540.09 737226
3 1540.32 733056
3 1540.32 729278
2 1540.5 728888
3 1540.5 721332
3 1540.5 708645
3 1540.5 704833
3 1554.15 829952
3 1554.15 788460
3 1554.15 785816
2 1554.15 774479
3 1554.15 767149
3 1554.15 763981
3 1554.15 763575
3 1554.15 758341
3 1554.15 754765
3 1554.57 749461
3 1554.57 746733
3 1554.57 742891
3 1554.57 742423
3 1554.57 741623
3 1554.93 740916
3 1555.23 734835
3 1556.54 732750
3 1556.54 731529
3 1556.54 728381
3 1556.75 725304
3 1557.06 724398
3 1557.06 716836
3 1557.41 715612
3 1557.41 711961
1 1566.19 709192
3 1566.37 709020
3 1566.37 706105
3 1567.01 705653
3 1567.01 703895
3 1568.09 799928
3 1568.09 783288
3 1568.09 777204
3 1568.09 773426
3 1568.09 770813
3 1568.09 756498
3 1568.09 751003
3 1568.09 741513
3 1568.09 740191
3 1568.09 739748
3 1568.09 721680
3 1568.09 721400
3 1568.35 715782
3 1568.57 710253
3 1568.88 707786
3 1569.04 706233
3 1569.04 705663
3 1569.04 703887
3 1569.22 701839
3 1569.22 699904
3 1569.39 699404
3 1582.08 806328
3 1582.08 788441
3 1582.08 744349
3 1582.08 742940
3 1582.08 742469
3 1582.08 738985
3 1582.47 735488
3 1582.47 730613
3 1582.79 730508
3 1582.79 724427
2 1584.53 716056
3 1584.53 715560
3 1584.84 715397
3 1585.13 713203
3 1585.13 711055
3 1585.13 710559
3 1585.13 710478
1 1585.47 709195
3 1585.47 708086
2 1585.47 707468
3 1596.13 766902
3 1596.13 759304
3 1596.13 752566
3 1596.13 751989
3 1596.13 748897
3 1596.13 746262
3 1596.13 745204
3 1596.43 742484
3 1596.43 735127
3 1596.64 729056
3 1596.64 725519
3 1596.64 721156
3 1596.64 719191
3 1596.64 718355
3 1596.64 716241
3 1596.64 715741
3 1596.64 712610
3 1597.3 701073
3 1610.07 804592
3 1610.07 802722
3 1610.07 797036
3 1610.07 776063
3 1610.07 759392
3 1610.07 741286
3 1610.37 739321
3 1610.37 725750
1 1610.37 724397
3 1610.37 723446
3 1610.37 722960
3 1610.58 721806
3 1610.58 718736
3 1610.58 718415
3 1610.58 714937
3 1610.77 713517
3 1610.77 712634
3 1611.11 711796
3 1611.11 710131
3 1611.29 704050
3 1611.9 703658
3 1612.69 700404
3 1624.18 795035
3 1624.18 789544
3 1624.18 784103
3 1624.18 779228
3 1624.18 741922
3 1624.18 739703
3 1624.18 737729
3 1624.18 736336
3 1624.18 734144
3 1624.18 733854
3 1624.18 732885
3 1624.18 731020
3 1624.62 726580
3 1624.62 715183
3 1624.62 711686
3 1624.93 706732
3 1638.09 745671
3 1638.09 745041
3 1638.09 726539
2 1638.09 716378
3 1638.31 713868
2 1641.16 707749
3 1641.55 704838
3 1641.55 700536
3 1641.73 698947
3 1652.08 802652
3 1652.08 752957
3 1652.08 748082
3 1652.08 744977
3 1652.08 744477
3 1652.08 741231
3 1652.08 736710
3 1652.08 736125
3 1652.08 718604
3 1652.53 714251
3 1652.53 710512
3 1652.53 705238
3 1652.53 705167
3 1652.53 703137
3 1653.12 703130
3 1653.12 699288
3 1653.12 698650
3 1658.6 697114
3 1658.6 696105
3 1658.6 695575
3 1658.6 691155
3 1666.08 865681
3 1666.08 849916
3 1666.08 849025
3 1666.08 848117
3 1666.08 844282
3 1666.08 839407
3 1666.08 832357
3 1666.08 824801
3 1666.08 813264
3 1666.08 811967
3 1666.08 791080
3 1666.08 774761
3 1666.08 768229
3 1666.08 766693
3 1666.46 745781
3 1666.46 738225
3 1666.46 727041
3 1666.46 727009
3 1666.67 722134
3 1666.67 722049
3 1666.67 720667
3 1666.67 715057
3 1666.67 709742
3 1666.94 708865
3 1666.94 705844
3 1666.94 705085
3 1667.12 703990
3 1667.29 701712
3 1667.29 700969
3 1667.52 700960
3 1680.12 758633
3 1680.12 743742
3 1680.32 742264
3 1680.32 734708
3 1680.32 733940
3 1680.32 730483
3 1680.32 729983
3 1680.59 724583
3 1680.59 719629
3 1680.59 713306
3 1680.79 712891
1 1681.12 711946
3 1681.12 709168
2 1682.98 709163
2 1693.79 705258
3 1693.79 702070
3 1693.79 700138
3 1694.16 844526
3 1694.16 836970
3 1694.16 822819
3 1694.16 822653
3 1694.16 803993
3 1694.16 774005
3 1694.16 773054
3 1694.16 753214
2 1694.16 732282
3 1694.16 728785
3 1694.16 726412
3 1694.49 723627
3 1694.49 720702
3 1694.49 713140
3 1694.49 712422
3 1694.49 709749
3 1694.84 708265
3 1695.17 701657
3 1695.98 701265
3 1697.06 698971
3 1708.26 805897
3 1708.26 802119
3 1708.26 796922
3 1708.26 771295
3 1708.26 770819
2 1708.26 758593
3 1708.26 750443
3 1708.26 747944
3 1708.64 742735
3 1708.64 739644
3 1708.64 734690
3 1708.97 728410
3 1711.15 719205
3 1711.44 716188
1 1717.45 711035
2 1718.51 708644
3 1718.51 705802
3 1722.18 778792
3 1722.18 771230
3 1722.18 755094
3 1722.18 738386
3 1722.18 731648
3 1722.18 725899
3 1722.18 723719
3 1722.18 709084
3 1722.59 707400
3 1722.59 705564
3 1723.52 704390
3 1723.52 698241
3 1723.52 696298
3 1723.52 696065
2 1734.72 690827
3 1736.13 809782
3 1736.13 800598
3 1736.13 799062
3 1736.13 777143
3 1736.13 757664
3 1736.13 751059
3 1736.13 748165
3 1736.41 735947
3 1736.41 732778
3 1736.41 731811
3 1736.6 730724
3 1736.6 728344
3 1736.6 724613
3 1736.6 723000
3 1736.8 720630
3 1736.8 718281
3 1736.8 714290
3 1737.63 712043
3 1738 710512
3 1750.12 756308
3 1750.12 753893
3 1750.12 749679
3 1750.12 740799
3 1750.12 732442
3 1750.12 731346
3 1750.12 724143
3 1750.35 718281
3 1750.53 718172
3 1751.32 711281
3 1751.32 711162
3 1752.31 706067
3 1752.49 704352
3 1753.34 697857
2 1760.14 697696
3 1760.32 696809
3 1760.49 696790
3 1760.66 695512
3 1760.66 692764
3 1760.66 690456
3 1763.05 689493
3 1764.13 870672
3 1764.13 849699
3 1764.13 844824
3 1764.13 775827
3 1764.13 775573
3 1764.13 774415
3 1764.13 760049
3 1764.13 756916
3 1764.13 727046
2 1764.13 721085
3 1764.56 714347
3 1764.56 713441
3 1764.56 712927
3 1764.56 712554
3 1764.89 710529
3 1765.17 707047
3 1765.46 707028
2 1767.32 705590
3 1767.32 702718
3 1767.93 700146
3 1767.93 695162
3 1778.03 788876
3 1778.03 782795
3 1778.03 768842
3 1778.03 764854
3 1778.03 761357
3 1778.03 728106
3 1778.03 722942
3 1778.03 716861
3 1778.03 711763
3 1792.23 752773
3 1792.23 734886
3 1792.23 726794
3 1792.23 724169
3 1792.23 717443
3 1792.23 717431
3 1792.23 709654
3 1792.23 707650
3 1792.23 707073
2 1792.91 702566
3 1793.32 702435
2 1794.58 700254
3 1794.58 699388
3 1794.88 699225
3 1794.88 695883
3 1794.88 695348
3 1795.2 691859
3 1795.2 688473
3 1806.24 765141
3 1806.24 761644
2 1807.52 750366
3 1807.52 746547
3 1807.52 736532
3 1807.52 734293
3 1807.75 734266
3 1807.75 729418
3 1807.75 728970
3 1807.95 727848
3 1807.95 726424
3 1808.15 726415
3 1808.15 713850
3 1808.71 711017
3 1808.71 709037
3 1809.32 706303
3 1813.98 705344
3 1813.98 704682
3 1814.32 690931
3 1814.62 689937
3 1820.03 769275
3 1820.03 752749
3 1820.03 742686
3 1820.03 736605
3 1820.39 735313
3 1820.39 731651
2 1821.38 724855
3 1821.38 724279
3 1821.57 721814
3 1821.57 721685
3 1821.82 718856
2 1821.99 715719
3 1821.99 714263
3 1822.18 712784
3 1822.93 711941
3 1824.65 710485
3 1824.98 709339
3 1824.98 705079
3 1834.26 816099
3 1834.26 812321
3 1834.26 812017
3 1834.26 808520
3 1834.26 805747
3 1834.26 787641
3 1834.26 772954
3 1834.26 763525
2 1834.26 760600
3 1834.75 742809
3 1834.75 739718
3 1834.75 734079
3 1834.75 730473
3 1834.75 729387
3 1835.13 729125
3 1835.13 724922
3 1835.13 723735
3 1835.13 723235
3 1835.13 715521
3 1848.12 831519
3 1848.12 823963
3 1848.12 792241
3 1848.12 784149
3 1848.12 780371
3 1848.12 748398
3 1848.12 747542
3 1848.12 730676
3 1848.12 725046
3 1848.62 724462
3 1848.62 719994
3 1848.62 719086
3 1848.62 717400
3 1848.62 716000
3 1848.62 714400
3 1849.21 714251
3 1849.21 713045
3 1849.21 709954
3 1849.39 709844
3 1849.39 707730
2 1850.09 705507
3 1850.25 703991
3 1850.41 702591
2 1852.84 702066
3 1852.84 701791
3 1852.84 698700
3 1852.84 696571
3 1853.06 695343
3 1862.17 764751
3 1862.17 756659
3 1862.17 742905
3 1862.17 742881
3 1862.17 740019
3 1862.17 735338
3 1862.17 732778
3 1862.48 719699
3 1862.48 719168
3 1862.48 718101
3 1862.71 715541
2 1870.39 701418
2 1871.1 700539
3 1871.1 695890
3 1876.19 768178
3 1876.19 743146
2 1876.19 734158
3 1876.19 731067
3 1876.19 729308
3 1876.19 728234
3 1876.19 727330
3 1876.61 727297
3 1876.61 721752
3 1876.61 713713
2 1878.23 703203
3 1878.23 688419
3 1878.23 688041
3 1878.23 681681
3 1878.51 679093
3 1879.62 678438
2 1882.57 675394
3 1890.02 813819
3 1890.02 805545
3 1890.02 797989
3 1890.02 793703
3 1890.02 772630
3 1890.02 772505
3 1890.02 765767
3 1890.02 746750
3 1890.02 734012
3 1890.02 732818
3 1890.02 729791
3 1890.29 723053
3 1904.1 870134
3 1904.1 817570
3 1904.1 795758
3 1904.1 791093
2 1904.1 769110
3 1904.1 761210
3 1904.1 757512
3 1904.1 742929
3 1904.52 739408
3 1904.52 735776
3 1904.52 722332
3 1904.52 721679
3 1904.52 720143
2 1908.68 719241
3 1908.68 717000
3 1908.68 716999
3 1908.68 713402
3 1908.68 711420
3 1909.03 707913
2 1909.03 706084
3 1909.33 699819
3 1918.27 795106
3 1918.27 777415
3 1918.27 769530
3 1918.27 765268
3 1918.27 758434
3 1918.27 754630
3 1918.27 746720
3 1918.27 739706
3 1918.27 732968
3 1918.27 730401
3 1918.69 713546
3 1918.69 710049
2 1918.69 709559
3 1918.69 705676
2 1918.69 705169
3 1919 702078
3 1919.16 701716
3 1919.33 694288
3 1919.33 688207
3 1922.5 688186
3 1922.8 683829
3 1932.17 754434
3 1932.17 736328
3 1932.17 725549
3 1932.17 724012
3 1932.17 723125
3 1932.62 722690
3 1932.62 721721
3 1932.62 721421
3 1932.62 720921
3 1933.66 713786
3 1933.66 705628
3 1934.52 701169
3 1935.09 698327
3 1946.05 805753
3 1946.05 800878
3 1946.05 738956
3 1946.05 731881
3 1946.05 717375
3 1946.27 715067
3 1946.27 713065
3 1960.06 793494
3 1960.06 771612
3 1960.06 770704
3 1960.06 768833
3 1960.06 766453
3 1960.06 765055
3 1960.06 764730
3 1960.06 749197
3 1960.06 747073
3 1960.06 723446
3 1960.48 723016
3 1960.48 722909
3 1960.48 715725
3 1960.48 713083
3 1960.48 704765
3 1960.48 704694
3 1960.48 704373
3 1960.75 703598
3 1960.94 702878
3 1960.94 701570
3 1961.4 701499
2 1967.88 700828
3 1967.88 700507
3 1970.62 699164
3 1970.62 698155
3 1970.92 696041
2 1973.34 695516
3 1973.84 695343
3 1974.01 789835
3 1974.01 771947
3 1974.01 767072
3 1974.01 760435
3 1974.01 748081
3 1974.01 736726
3 1974.26 733087
3 1974.26 732357
3 1974.46 726752
3 1974.46 723668
3 1974.46 718755
3 1974.65 718172
3 1975.73 714124
3 1975.73 713109
3 1976.1 708567
3 1976.1 705132
3 1982.51 697654
3 1988.04 852796
3 1988.04 834581
3 1988.04 818816
3 1988.04 803172
3 1988.04 798627
3 1988.04 752661
3 1988.04 746063
3 1988.42 744527
3 1988.42 735181
3 1988.42 718611
3 1988.42 716274
3 1991.13 713678
3 1991.13 713400
3 1991.13 710201
3 1991.13 709900
3 1991.35 706875
3 1991.35 703097
3 1991.35 700181
3 1991.35 699600
3 2002.11 770614
3 2002.11 749641
3 2002.11 745096
2 2002.11 735266
1 2002.11 733624
3 2002.11 726886
3 2002.11 725933
3 2002.11 722158
3 2002.11 717841
3 2002.11 714385
3 2002.11 714063
2 2002.42 712271
3 2002.42 708677
3 2002.42 707294
3 2002.42 702657
3 2002.42 698879
2 2002.42 697970
3 2002.42 693863
3 2002.66 691224
3 2002.66 686416
3 2002.66 686302
3 2002.66 685306
3 2002.87 684193
3 2002.87 683825
3 2016.02 856346
3 2016.02 838458
3 2016.02 815804
3 2016.02 808248
3 2016.02 792483
3 2016.02 765429
3 2016.02 750590
3 2016.02 743028
3 2016.02 742244
1 2016.3 739652
3 2016.46 733590
3 2016.46 727427
3 2016.64 724126
2 2016.64 719335
3 2016.64 712766
3 2017.61 712074
3 2017.61 708000
2 2020.92 706844
3 2021.56 706336
3 2021.73 702558
3 2021.73 701315
3 2030.08 755872
3 2030.08 749406
3 2030.08 742155
3 2030.08 741358
3 2030.08 741325
3 2030.08 737828
3 2030.08 725673
3 2030.08 725502
3 2030.34 724767
3 2030.34 721210
3 2030.34 717432
3 2030.72 717342
3 2030.88 716318
3 2030.88 715818
3 2031.23 714251
3 2031.39 712927
3 2044.01 753645
3 2044.01 729346
3 2044.01 728438
3 2044.23 724618
3 2044.23 716321
3 2044.41 707481
3 2044.41 707163
3 2044.91 706542
3 2058.27 811113
2 2058.27 801914
3 2058.27 784026
3 2058.27 777342
3 2058.27 760105
3 2058.27 759747
3 2058.62 752875
3 2058.62 737856
3 2058.62 726540
3 2058.62 716246
3 2058.62 710567
3 2058.84 710067
3 2059.68 709665
3 2060.33 708775
3 2072.15 752486
3 2072.15 748989
3 2072.15 746479
3 2072.15 732117
3 2072.15 727310
3 2072.15 725030
3 2072.39 721506
3 2072.39 717700
3 2072.39 715304
3 2072.39 715018
3 2072.39 712667
3 2072.76 710905
3 2072.94 709338
3 2086.05 799450
3 2086.05 787638
3 2086.05 785749
3 2086.05 776726
3 2086.05 771851
3 2086.05 755303
3 2086.05 748312
3 2086.05 747741
3 2086.05 747241
3 2086.34 731326
3 2086.34 726451
3 2086.34 726069
3 2086.53 720370
3 2086.53 718411
3 2091.64 717572
3 2091.64 717072
1 2098.95 704051
3 2100.04 902298
3 2100.04 849734
2 2100.04 826274
3 2100.04 800756
3 2100.04 793200
3 2100.04 766159
3 2100.04 754342
3 2100.04 747332
3 2100.46 743904
3 2100.46 742378
3 2100.46 740934
3 2100.46 734468
3 2100.46 732522
3 2100.79 732460
3 2100.79 726955
3 2100.79 719157
1 2101.64 719012
3 2102.24 716632
3 2102.81 715003
3 2103 712778
2 2105.15 712685
3 2105.32 707753
3 2105.32 707511
3 2105.66 702759
3 2105.66 700906
2 2107.39 698937
3 2107.39 692925
3 2107.39 689147
3 2107.39 683293
3 2107.75 682316
3 2108.57 681585
3 2108.57 680402
2 2114.11 804815
3 2114.11 763202
3 2114.11 759424
3 2114.11 742196
3 2114.11 741912
3 2114.11 740478
3 2114.48 732706
3 2114.48 732193
3 2114.48 728415
3 2114.48 725837
3 2115.59 722502
1 2115.76 718516
3 2115.76 718035
3 2115.76 717535
3 2128.17 863007
3 2128.17 794010
3 2128.17 791575
3 2128.17 773360
3 2128.17 768485
3 2128.17 767615
3 2128.17 759523
3 2128.17 757266
3 2128.17 756766
3 2128.61 739529
3 2128.61 721123
3 2128.61 717925
3 2128.61 716248
3 2142.14 822152
3 2142.14 805833
3 2142.14 791575
3 2142.14 787764
3 2142.14 783986
3 2142.14 766039
3 2142.14 763464
3 2142.41 743241
3 2142.41 741323
3 2142.41 734034
3 2142.41 723153
3 2142.41 719656
3 2142.41 719587
3 2142.41 715163
3 2142.71 713506
3 2142.71 713112
3 2142.71 712612
2 2142.89 709525
3 2156.01 804482
3 2156.01 791746
3 2156.01 787358
3 2156.01 765938
3 2156.01 765897
3 2156.01 762119
3 2156.01 750632
3 2157.48 747548
3 2157.48 739333
3 2157.97 737966
3 2159.54 732933
3 2159.54 727849
3 2159.72 727422
3 2159.72 727398
3 2159.72 723474
3 2159.72 722974
3 2159.93 719860
3 2170.02 758074
3 2170.02 754462
3 2170.22 746734
3 2170.22 738862
3 2170.22 732311
1 2170.44 731786
3 2170.44 728944
3 2170.44 727445
3 2170.44 727129
3 2170.67 724850
3 2170.67 724755
3 2170.67 723748
3 2170.67 723633
3 2171.24 720061
1 2171.24 715541
1 2174.48 711731
3 2174.66 708508
3 2174.89 703983
3 2174.89 702427
3 2174.89 698930
3 2184.16 873122
3 2184.16 820558
3 2184.16 802343
3 2184.16 797468
3 2184.16 794480
3 2184.16 789568
3 2184.16 787513
3 2184.16 785610
3 2184.16 784073
3 2184.16 770092
3 2184.16 768346
3 2184.57 760417
3 2184.57 737693
3 2184.57 729047
3 2184.57 728934
3 2184.57 726999
3 2184.57 722124
3 2184.57 721758
3 2184.82 721258
2 2185.82 718488
3 2185.82 716129
3 2186.01 715763
3 2186.01 707008
3 2186.01 705746
3 2187.17 705197
3 2198.09 772336
3 2198.09 768509
3 2198.09 767924
3 2198.09 750687
3 2198.09 737452
3 2198.09 730053
3 2198.09 724158
3 2198.09 719346
3 2198.09 716070
3 2198.36 712615
3 2198.36 706837
3 2198.36 705844
3 2198.7 702950
3 2198.9 701237
3 2198.9 697596
3 2199.08 697138
3 2199.08 693272
3 2212.11 741257
2 2212.11 739151
3 2212.11 735293
3 2212.11 734377
3 2212.11 733557
3 2212.11 718550
3 2212.11 714772
3 2212.55 714455
3 2212.55 713944
3 2212.55 713864
3 2212.55 713797
2 2214.04 703831
3 2226.27 775795
3 2226.27 774971
3 2226.27 772017
3 2226.27 757076
3 2226.27 750995
3 2226.27 747630
3 2226.27 746106
3 2226.27 734303
3 2226.27 728869
3 2226.27 727565
3 2226.27 726615
3 2226.72 721533
3 2226.72 720009
3 2226.72 716999
3 2227.03 711130
2 2227.03 710430
3 2227.03 700523
3 2227.35 698893
2 2231.91 696578
3 2231.91 695476
3 2231.91 692385
3 2240.04 903054
3 2240.04 884839
3 2240.04 874088
3 2240.04 869213
3 2240.04 851325
3 2240.04 835560
3 2240.04 831782
3 2240.04 779218
3 2240.04 772668
3 2240.04 768003
3 2240.04 765858
3 2240.04 757006
3 2240.04 747319
3 2240.04 743541
3 2240.47 741881
3 2240.75 738353
3 2240.75 735760
3 2240.75 730727
3 2240.75 725411
3 2240.75 723589
3 2240.75 710516
3 2241.1 708509
1 2244.19 708117
3 2244.19 706985
3 2244.5 703927
3 2244.5 703438
3 2244.71 699312
3 2244.71 698893
3 2254.1 771648
3 2254.1 765781
3 2254.1 743057
3 2254.1 738908
3 2254.1 735817
3 2254.1 734403
3 2254.1 731036
3 2254.1 721645
3 2254.1 720169
3 2254.44 714174
3 2261.3 711332
3 2261.3 705472
2 2261.5 704528
3 2261.5 703198
3 2261.67 703119
3 2261.67 700781
3 2262.7 697899
3 2263.31 696619
3 2268.11 838901
3 2268.11 831345
3 2268.11 824607
1 2268.11 790581
3 2268.11 783019
3 2268.11 781575
3 2268.11 756751
3 2268.11 753497
3 2268.45 752528
3 2268.45 751022
3 2268.45 743550
3 2268.45 734482
3 2268.73 730458
3 2268.73 725504
3 2275.38 725319
3 2275.69 723914
3 2276.23 723414
3 2276.7 719993
3 2276.96 719762
3 2277.18 716496
3 2282.11 777093
3 2282.11 772218
3 2282.11 745164
3 2282.11 732673
3 2282.11 725111
3 2282.11 719038
3 2282.11 717555
3 2282.11 713727
3 2282.36 711813
1 2288.22 703788
3 2288.43 702519
3 2288.43 702216
2 2293.07 701475
3 2293.07 701308
3 2296.07 775590
3 2296.07 768243
3 2296.07 759946
3 2296.07 757078
3 2296.07 756578
3 2296.07 749022
3 2296.07 747515
3 2296.07 742970
3 2296.07 722925
3 2296.07 716274
3 2299.33 708141
3 2299.5 707141
3 2299.99 706963
3 2300.15 702860
3 2300.35 698932
3 2310.09 827532
3 2310.09 811213
3 2310.09 804860
3 2310.09 787623
3 2310.09 768826
3 2310.09 758380
3 2310.09 755289
3 2310.09 750776
3 2310.09 747692
3 2310.09 743606
3 2310.09 735559
3 2310.09 732062
3 2310.09 719059
3 2310.53 715163
3 2310.53 714026
3 2310.75 711666
3 2310.96 709251
3 2310.96 708123
3 2311.36 706160
3 2311.57 704619
3 2315.9 700953
3 2324.1 894415
1 2324.1 872642
3 2324.1 845005
3 2324.1 842426
3 2324.1 803393
3 2324.1 791996
3 2324.1 784440
2 2324.1 761144
3 2324.1 745266
3 2324.1 744703
3 2324.1 742665
3 2324.42 728684
3 2324.42 718522
3 2324.42 706985
3 2324.67 706529
3 2324.67 704195
3 2324.67 702671
3 2324.67 698973
3 2324.67 698893
2 2334.12 696251
3 2334.29 695882
3 2334.46 694346
3 2334.46 690849
3 2335.07 686507
3 2335.07 685919
3 2335.24 682860
3 2338 832974
3 2338 807456
3 2338 773405
3 2338 767677
3 2338 760121
3 2338 756875
3 2338 753378
3 2338 745291
3 2338 737199
3 2338.26 731500
2 2338.26 728054
3 2338.26 725004
3 2338.26 724491
2 2338.26 724276
3 2338.47 721591
3 2338.47 718784
3 2338.47 710573
3 2338.72 704492
3 2338.72 702800
3 2338.72 702144
3 2338.72 697269
3 2338.72 693817
3 2339.48 692172
3 2352.06 750794
3 2352.06 739115
3 2352.06 734161
3 2352.06 731070
3 2352.06 727573
3 2352.06 724769
3 2352.06 722567
3 2352.06 721664
3 2352.06 717421
3 2352.45 711643
2 2352.69 710683
3 2366.27 820522
3 2366.27 818461
3 2366.27 815803
3 2366.27 763239
3 2366.27 740117
3 2366.27 726131
3 2366.66 722651
3 2366.66 721256
3 2366.96 714336
3 2366.96 709511
3 2367.14 706014
3 2367.14 705155
3 2367.14 703041
3 2380.01 755588
3 2380.01 746577
3 2380.01 742397
3 2380.01 741702
3 2380.01 737867
3 2380.01 731181
3 2380.01 725100
3 2380.25 721881
3 2380.25 721525
3 2380.25 710525
3 2380.25 707028
2 2383.03 704525
3 2383.03 704115
3 2383.03 701712
3 2383.03 699777
3 2383.23 699277
3 2394.07 761220
3 2394.07 759629
3 2394.07 749757
3 2394.07 739447
3 2394.07 731891
3 2394.07 724645
3 2394.35 724092
3 2394.35 721148
3 2394.35 718432
3 2394.35 718318
3 2394.59 717714
3 2394.59 716826
3 2394.59 716536
3 2394.59 713897
3 2396.98 711462
3 2408.04 760280
3 2408.04 749359
3 2408.04 739776
3 2408.04 735144
3 2408.04 731211
3 2408.04 728731
3 2408.04 720671
3 2408.31 715017
3 2408.31 711977
3 2408.31 709647
3 2408.31 708909
3 2409.87 704670
3 2412.89 702046
3 2422.14 765130
3 2422.14 738571
3 2422.14 737857
3 2422.14 734766
3 2422.14 733701
1 2422.14 731199
3 2422.14 729200
3 2422.38 724239
3 2423.81 723877
3 2424 715322
3 2424 710368
3 2428.02 709169
3 2428.2 709081
3 2428.2 705990
3 2436.21 751263
3 2436.21 750915
3 2436.21 745652
3 2436.21 730008
3 2436.21 725402
3 2437.32 725133
3 2439.92 724617
3 2440.34 724333
3 2440.34 723403
3 2440.55 722324
3 2450.08 792579
3 2450.08 770482
3 2450.08 769982
3 2450.08 743755
3 2450.08 740641
3 2450.08 733079
3 2450.08 732320
3 2450.48 730721
3 2450.48 730605
3 2450.48 730329
3 2450.48 722757
3 2451.08 721683
3 2451.08 720832
3 2451.08 719822
3 2451.08 718275
3 2451.08 715881
3 2451.08 712970
1 2451.97 710973
3 2451.97 710130
3 2451.97 706562
3 2452.3 705265
3 2452.3 700390
3 2453.4 693548
3 2453.4 693441
3 2453.98 690433
3 2454.77 687360
3 2464.18 790506
3 2464.18 788117
3 2464.18 776937
3 2464.18 774111
3 2464.18 756005
3 2464.18 755505
3 2464.52 742034
3 2464.52 739186
3 2465.2 738665
3 2465.2 738516
3 2465.2 728106
3 2465.2 724153
3 2478.17 751245
3 2478.17 735601
3 2478.17 727509
3 2478.17 718887
3 2478.17 714980
3 2478.53 712806
2 2478.53 710215
3 2478.83 709516
3 2478.83 706437
3 2478.83 703356
3 2478.83 703346
3 2492.1 852276
3 2492.1 844720
3 2492.1 837158
3 2492.1 820474
2 2492.1 800089
3 2492.1 748767
3 2492.1 747769
3 2492.1 740361
3 2492.36 734696
2 2492.53 734667
3 2492.53 729890
3 2492.53 729857
3 2492.73 726360
2 2492.9 725508
3 2493.06 724915
3 2493.06 720943
3 2493.06 720457
3 2493.06 714544
3 2493.06 713678
3 2493.06 709097
2 2493.28 708609
3 2493.45 705885
3 2493.6 704934
3 2493.6 704214
3 2493.93 702107
3 2493.93 702013
3 2494.11 700606
3 2494.11 699698
3 2494.11 697608
3 2494.3 697074
3 2494.3 684776
3 2494.47 684001
3 2506.17 804274
3 2506.17 776618
3 2506.17 766552
3 2506.17 758403
3 2506.17 752920
3 2506.17 747006
3 2506.17 734140
3 2506.17 722038
2 2506.17 718228
3 2506.17 716034
3 2507.81 715688
3 2507.81 710890
3 2507.81 708209
3 2507.81 705265
3 2508.4 704771
3 2508.4 704084
3 2508.4 698913
3 2508.4 697635
3 2520.1 773263
3 2520.1 769559
3 2520.1 753226
3 2520.1 748586
3 2520.1 747360
3 2520.1 741136
3 2520.1 739923
3 2520.1 733872
3 2520.1 732497
3 2520.35 719824
3 2520.35 716178
3 2520.35 709440
3 2520.35 708940
3 2520.89 707487
3 2521.76 704180
3 2521.76 703669
3 2522.07 702416
3 2522.07 698945
3 2522.07 698638
3 2522.07 696782
3 2522.07 695370
3 2522.07 692631
3 2522.76 692585
3 2522.76 690546
3 2534.26 776020
3 2534.26 775069
3 2534.26 759425
3 2534.26 753344
3 2534.26 721937
3 2534.26 721160
3 2534.63 719635
3 2534.63 716388
3 2534.93 715079
2 2534.93 705956
3 2534.93 705303
3 2534.93 701130
3 2535.26 700561
1 2536.36 700069
3 2548.25 793640
3 2548.25 771220
3 2548.25 753332
3 2548.25 742721
3 2548.25 737846
2 2548.25 732813
3 2548.25 729691
3 2548.63 729316
3 2548.85 728480
3 2548.85 726854
3 2549.7 726421
3 2549.93 726412
3 2549.93 725463
3 2549.93 721477
3 2550.22 717980
3 2550.75 711210
3 2562.3 880518
3 2562.3 875629
3 2562.3 846311
3 2562.3 828096
3 2562.3 825730
3 2562.3 811461
3 2562.3 810164
3 2562.3 798627
3 2562.3 797091
3 2562.3 746022
3 2562.85 742244
3 2562.85 725674
3 2562.85 725500
3 2563.17 722371
3 2563.17 715911
3 2563.35 714303
3 2563.35 710806
3 2563.35 710292
3 2563.35 709832
3 2563.35 706304
3 2563.7 702526
3 2576.01 745684
2 2576.01 738318
3 2576.01 738301
3 2576.01 731101
3 2576.01 721057
3 2576.26 716091
2 2578.14 715390
3 2578.14 714900
3 2578.14 713373
3 2578.95 712308
3 2590.13 846979
3 2590.13 829091
3 2590.13 821535
3 2590.13 774269
3 2590.13 767099
3 2590.13 753824
3 2590.13 746268
3 2590.13 743832
3 2590.54 733346
3 2590.54 728210
3 2590.54 726107
3 2590.86 719206
3 2590.86 718706
3 2592.11 716417
3 2592.11 716162
3 2592.11 708992
3 2592.3 705413
3 2592.3 704586
3 2595.78 697980
2 2600.98 695509
3 2600.98 694995
3 2601.38 694692
3 2601.38 691134
3 2601.38 687356
3 2604.15 770913
3 2604.15 766038
3 2604.15 764152
3 2604.15 756810
3 2604.15 741817
3 2604.45 740520
3 2604.74 733109
2 2604.74 718236
3 2605.06 699955
3 2618.12 888262
3 2618.12 870374
2 2618.12 846914
3 2618.12 828699
3 2618.12 812934
3 2618.12 792711
3 2618.12 789820
3 2618.12 759594
3 2618.47 754719
3 2618.47 746627
3 2618.47 735627
3 2618.66 730673
2 2619.53 729323
3 2619.53 726564
3 2619.82 723067
3 2619.82 722664
3 2619.82 721026
3 2621 717527
3 2621 714154
3 2621.32 713411
3 2621.9 712306
3 2622.2 709232
3 2623.48 706626
3 2624.29 706002
3 2625.14 704767
3 2625.14 701676
3 2625.14 701127
3 2631.62 700384
3 2631.62 697621
3 2631.62 695622
3 2632.01 769995
3 2632.01 733519
3 2632.01 729640
3 2632.01 728732
3 2632.01 725984
3 2632.01 719276
3 2632.01 717520
3 2632.01 716070
3 2632.01 715678
3 2632.37 715529
3 2632.37 711790
2 2632.6 711350
3 2632.6 708940
3 2634.91 708791
3 2638.93 707484
3 2646.22 858045
3 2646.22 832357
3 2646.22 817785
3 2646.22 799570
3 2646.22 783805
3 2646.22 770310
1 2646.22 766149
3 2646.22 758802
3 2646.56 740696
3 2646.56 739913
3 2646.56 739057
3 2646.56 736749
3 2646.56 736103
3 2646.77 720459
2 2646.77 715924
3 2655.3 715128
3 2655.6 714104
2 2655.6 711119
3 2655.6 708542
3 2655.6 703359
3 2655.95 697022
3 2655.95 692165
3 2655.95 692136
3 2658.05 691359
3 2658.24 688387
3 2660.17 826573
3 2660.17 810808
3 2660.17 803252
3 2660.17 798377
3 2660.17 784450
3 2660.17 778355
3 2660.17 755701
3 2660.17 748139
3 2660.52 734091
3 2660.52 730330
3 2660.52 725297
3 2660.52 724346
3 2660.52 718265
3 2660.75 714998
3 2660.75 712665
3 2660.96 712165
3 2674.1 832275
2 2674.1 822509
3 2674.1 806190
3 2674.1 794011
3 2674.1 741649
3 2674.1 737193
3 2674.1 735940
3 2674.1 729104
3 2674.5 727848
3 2674.5 724150
3 2674.5 721059
3 2674.82 718588
3 2674.82 717562
3 2675.58 716514
2 2676.88 714430
2 2677.7 709451
3 2677.7 707913
3 2677.7 706562
3 2678.54 703744
3 2678.54 702972
2 2684.89 699966
3 2686.02 699625
3 2686.32 692315
3 2686.32 692069
3 2688.01 761635
3 2688.01 760890
3 2688.01 745125
3 2688.01 733801
3 2688.01 724382
3 2688.4 723798
3 2688.61 721866
3 2688.94 719347
3 2688.94 718923
3 2689.16 718820
3 2689.16 715065
3 2689.16 713796
3 2689.38 707791
2 2696.9 707432
3 2702.15 748961
3 2702.15 745045
3 2702.15 742141
3 2702.15 740981
3 2702.15 731208
3 2702.15 728304
3 2702.15 723665
3 2702.15 720748
3 2702.56 716632
3 2702.56 714660
3 2702.56 712394
3 2702.93 702642
3 2716.08 821205
3 2716.08 780543
3 2716.08 772355
3 2716.08 756975
3 2716.08 745019
2 2716.08 744529
3 2716.08 739575
3 2716.08 736484
3 2716.08 723232
3 2716.51 719934
3 2722.66 719634
3 2723.19 717969
3 2730.1 802450
3 2730.1 782857
3 2730.1 777699
3 2730.1 775601
3 2730.1 773850
3 2730.1 768033
3 2730.1 765432
3 2730.39 747358
3 2730.39 719280
3 2730.39 718992
3 2730.39 716603
2 2731.02 707544
2 2732.28 705824
3 2732.28 698339
3 2732.28 698262
3 2744.04 772244
3 2744.04 741207
3 2744.04 736549
3 2744.04 734903
3 2744.04 726011
3 2744.04 719930
3 2745.85 716249
2 2745.85 710763
3 2745.85 710246
3 2745.85 707320
3 2745.85 706433
3 2746.08 704165
2 2753.64 703235
3 2753.85 698360
3 2758.18 854609
3 2758.18 847053
3 2758.18 828838
3 2758.18 823963
3 2758.18 810677
3 2758.56 796922
3 2758.56 789401
3 2758.56 788264
3 2758.56 786209
3 2758.56 769737
3 2758.56 759268
3 2758.56 750615
3 2758.56 750115
3 2758.56 742553
3 2758.56 740543
3 2758.99 730327
3 2758.99 729960
3 2758.99 726069
3 2759.3 721876
3 2762.77 721652
3 2762.77 717857
3 2763.07 715571
3 2772.03 823877
3 2772.03 814806
3 2772.03 806486
3 2772.03 804178
3 2772.03 791273
3 2772.03 784429
3 2772.03 761949
3 2772.03 754387
3 2772.03 753675
3 2772.74 751403
3 2773.05 750319
3 2773.35 749069
3 2773.35 743581
3 2773.35 743470
3 2773.35 724872
3 2786.19 817078
3 2786.19 812533
3 2786.19 785866
3 2786.19 777774
3 2786.19 759668
3 2786.19 749838
3 2786.19 746747
3 2786.19 725715
3 2786.19 723292
3 2786.63 716941
3 2786.93 715856
3 2787.74 715031
3 2787.74 712917
3 2788.03 711219
3 2788.58 706819
3 2791.66 705723
3 2791.66 705629
3 2791.66 703041
1 2792.78 699612
3 2792.78 699179
3 2793.11 697311
2 2793.11 697189
3 2793.11 695039
3 2794.29 694389
3 2794.59 693889
query_times: 59
Score = 697961
