    Blocking waiting for file lock on package cache
    Blocking waiting for file lock on package cache
    Blocking waiting for file lock on package cache
    Finished release [optimized] target(s) in 0.07s
     Running `target/release/tester ../a.out 0006`
3 5.391 972557
3 5.391 941364
3 5.391 936936
3 5.391 930623
3 5.391 917629
3 5.813 913630
3 5.813 906968
3 6.067 899969
3 6.067 899742
3 6.067 894732
3 6.067 892270
3 6.067 889474
3 14.233 1023851
3 14.233 1009301
3 14.233 1008580
3 14.233 989784
3 14.233 988250
3 14.233 967990
3 14.233 967619
3 14.233 963254
3 14.233 956549
3 14.233 941622
3 14.233 940006
3 14.233 920815
3 14.692 905590
3 14.692 901225
3 14.692 900491
3 14.692 896927
3 14.692 895747
3 14.692 893687
3 15.047 884202
3 15.047 882220
3 15.047 877505
3 15.047 870106
3 15.564 868221
3 15.796 865354
3 28.167 946586
3 28.167 945065
3 28.167 911680
3 28.167 906546
3 28.467 904281
3 28.467 898015
3 28.467 890850
3 28.467 882263
3 28.467 882253
3 28.977 876840
3 28.977 876737
3 29.673 874367
3 42.014 1048301
3 42.014 1029028
3 42.014 990509
3 42.014 987713
3 42.014 984999
3 42.014 962316
3 42.014 945024
3 42.014 936437
3 42.014 935777
3 42.014 933972
3 42.014 912173
3 42.014 906549
3 42.617 905391
3 42.617 899531
3 43.045 896959
3 43.045 895166
3 43.855 891953
3 44.258 891312
3 56.269 1038298
3 56.269 1035502
3 56.269 1021126
3 56.269 1005473
3 56.269 960634
3 56.269 959366
3 56.269 956502
3 56.269 953135
3 56.269 947908
3 56.269 947333
3 56.269 946632
3 56.269 941008
3 56.269 938472
3 56.911 938344
3 56.911 931419
3 57.208 922237
3 57.208 908525
3 57.208 891541
3 57.463 890451
3 57.463 887176
3 57.714 884559
3 57.714 883704
3 57.714 879306
3 57.714 878694
3 57.714 877518
3 58.051 877339
3 61.098 876430
3 61.599 874929
3 62.102 874296
3 67.359 873232
3 67.593 870759
3 68.67 870672
3 70.213 988181
3 70.213 984968
3 70.213 960627
3 70.213 951701
3 70.213 931046
3 70.501 929239
3 70.501 926766
3 70.501 924884
3 70.501 917575
3 70.501 915947
3 70.82 911773
3 70.82 910697
3 74.115 896349
3 74.902 884746
3 84.362 937378
3 84.362 924871
3 84.362 905188
3 84.362 904684
3 84.817 901327
3 85.082 900443
3 85.082 884063
3 86.058 880633
3 86.058 879777
3 86.407 878833
3 86.651 878486
3 86.651 876547
3 91.687 875603
3 91.687 874877
3 91.687 874772
3 98.161 989679
3 98.161 985314
3 98.161 941395
3 98.161 938599
3 98.161 927673
3 98.161 925028
3 98.161 924818
3 98.161 920694
3 98.161 913295
3 98.729 910534
3 99.148 908487
3 99.148 906850
3 99.573 906819
3 99.573 902485
3 99.573 898186
3 100.012 890787
3 100.012 885011
3 100.475 882359
3 103.357 880579
1 103.357 879041
3 103.357 878258
3 104.342 876236
3 112.328 978354
3 112.328 950127
3 112.328 929968
3 112.328 922436
3 112.328 918071
3 112.328 915601
3 112.328 914671
3 112.328 911875
3 112.836 899618
3 112.836 898292
3 114.815 896287
3 115.215 894843
3 115.215 887637
3 115.215 884841
3 115.644 883272
3 126.105 936412
3 126.105 928533
3 126.105 927825
3 126.845 921985
3 126.845 914676
3 126.845 913708
3 127.113 912158
3 128.5 906903
3 128.5 905738
3 128.5 905470
3 138.182 902492
3 138.481 897925
3 138.481 895837
3 138.913 895786
3 138.913 893078
3 138.913 892370
3 140.203 961930
3 140.203 947349
3 140.203 941500
3 140.203 939422
3 140.203 937135
3 140.203 933798
3 140.203 931021
3 140.203 925094
3 140.753 916793
3 140.753 914676
3 140.753 910275
3 140.753 909666
3 140.753 905626
3 141.215 901824
3 154.18 969666
3 154.18 958155
3 154.18 947784
3 154.18 944332
3 154.18 939380
3 154.18 931386
3 154.18 926934
3 154.18 920461
3 154.18 915847
3 154.18 913844
3 154.18 908237
3 154.18 897549
3 154.553 896904
3 154.553 895346
3 154.553 893815
3 154.553 892946
3 154.553 890150
3 155.06 882913
3 155.06 881833
3 155.06 870317
3 155.06 864413
3 155.495 864310
3 155.878 864216
3 168.032 1053534
3 168.032 1044947
3 168.032 1031527
3 168.032 1028721
3 168.032 1010189
3 168.032 970488
3 168.032 964864
3 168.032 953801
3 168.554 945119
3 168.554 941299
3 168.554 939584
3 168.554 929582
3 169.046 914906
3 169.046 911123
3 169.046 905586
3 169.495 905003
3 169.495 902790
3 169.495 896466
3 169.495 894146
3 169.495 891507
3 169.495 888201
3 169.985 884202
3 169.985 878227
3 169.985 872603
3 170.418 871627
3 170.418 871511
3 170.418 869322
3 170.418 868742
3 170.418 868134
3 170.88 865210
3 172.04 864338
3 182.066 1000819
3 182.066 988893
3 182.066 962506
3 182.066 959442
3 182.066 953333
3 182.547 948968
3 182.547 942659
3 182.547 937035
3 182.547 933036
3 182.547 928488
3 183.086 915215
3 183.086 912931
3 183.086 911925
3 183.086 910458
3 183.086 907662
3 184.19 895808
3 184.19 895251
3 184.779 892455
3 196.045 959626
3 196.045 957520
3 196.045 949809
3 196.045 942236
3 196.045 919251
3 196.045 916138
3 196.558 904701
3 196.558 896114
3 196.979 890694
3 196.979 884027
3 196.979 883295
3 197.424 867809
3 210.161 975636
3 210.161 970680
3 210.161 968237
3 210.161 966461
3 210.161 953266
3 210.161 942220
3 210.161 941909
1 210.161 938603
3 210.492 935622
3 211.028 932849
3 211.441 928794
3 212.284 922853
3 212.284 922727
3 212.703 916545
3 213.112 916354
3 213.523 913558
3 215.099 913387
3 215.099 906467
3 224.069 1011119
3 224.069 1007120
3 224.069 995658
3 224.069 994624
3 224.069 986037
3 224.069 947518
3 224.069 942076
3 224.671 930271
3 224.671 906283
3 224.671 898944
3 225.119 898478
3 225.119 889755
3 226.129 887664
3 226.129 883609
3 226.409 880207
3 226.65 874747
3 227.477 871620
3 238.044 1018040
3 238.044 1011187
3 238.044 1010256
3 238.044 970602
3 238.044 955402
3 238.044 954627
3 238.044 948003
3 238.461 947707
3 238.461 928217
3 238.461 920818
3 238.461 916630
3 238.77 914900
3 238.77 901854
3 238.77 901348
3 239.065 896952
3 239.065 888243
3 239.065 886495
3 239.328 880097
3 239.567 875732
3 240.957 875480
3 241.55 874734
3 252.025 1019779
3 252.025 985452
3 252.025 979835
3 252.025 970259
3 252.025 955380
3 252.025 935630
3 252.025 927481
3 252.025 908562
3 252.025 904197
3 252.025 895828
3 252.395 890818
3 252.395 890731
3 252.395 889560
3 252.674 886864
3 253.199 884716
3 266.117 1012958
3 266.117 997751
3 266.117 969520
3 266.117 961800
3 266.117 957435
3 266.47 948759
3 266.47 932141
3 266.47 929954
3 266.47 926768
3 266.78 921846
3 267.035 921759
3 269.537 919993
3 269.797 899106
3 269.797 898662
3 280.09 945715
3 280.09 934572
3 280.09 919707
3 280.09 914100
3 280.09 913107
3 280.56 911627
3 280.56 911183
3 280.56 904686
3 280.56 902790
3 280.56 902778
3 280.56 895379
3 280.56 892583
3 281.093 888716
3 281.093 884661
3 281.093 878711
3 294.112 985298
3 294.112 982928
3 294.112 980132
3 294.112 958346
3 294.112 947300
3 294.112 941150
3 294.112 936140
3 294.112 928831
3 294.482 923935
3 294.482 901373
3 294.482 897318
3 294.753 894522
3 294.753 891056
3 297.74 883634
3 297.74 875047
3 305.998 874281
3 308.336 1011830
3 308.336 991173
3 308.336 974201
3 308.336 970927
3 308.336 968722
3 308.336 963712
3 308.336 949978
3 308.336 942579
3 308.336 933180
3 308.336 926926
3 308.336 921526
3 308.902 918825
3 308.902 911241
3 308.902 894365
3 309.295 889475
3 309.295 887183
3 309.545 886966
3 309.545 886856
3 309.787 883958
3 309.787 882742
3 311.141 882170
3 311.141 877909
3 311.141 874771
3 311.544 872298
3 314.096 871909
3 322.347 965974
3 322.347 942420
3 322.347 911425
3 322.347 910758
3 322.347 909827
3 322.347 904307
3 322.347 899297
3 322.347 897662
3 322.347 888316
3 322.347 888058
3 322.347 885328
3 323.071 883320
3 323.576 880274
3 336.031 1022710
3 336.031 1011354
3 336.031 1007670
3 336.031 984191
3 336.031 979084
3 336.031 965701
3 336.031 961912
3 336.031 939170
3 336.031 937281
3 336.031 934993
3 336.031 926406
3 336.031 923742
3 336.031 922159
3 336.031 916159
3 336.619 914581
3 336.619 906524
3 336.619 905306
3 336.619 900900
3 336.619 898961
3 336.619 897709
3 336.914 892085
3 337.301 889029
3 337.301 885646
3 337.301 879940
3 337.301 873504
3 337.301 873451
3 337.745 870218
3 337.745 869396
3 338.958 868687
3 350.043 1004216
3 350.043 998880
3 350.043 984057
3 350.043 954155
3 350.043 951912
3 350.043 948107
3 350.457 933557
3 350.457 922954
3 350.457 921709
3 350.457 918161
3 350.457 910762
3 350.732 905313
3 350.732 889755
3 351.664 887664
3 351.664 882706
3 351.919 880646
3 351.919 880338
3 352.166 879466
3 364.155 954773
3 364.155 945019
3 364.155 939588
3 364.155 933463
3 364.155 932402
3 364.677 931889
3 364.677 931798
3 364.677 926937
3 365.127 923227
3 365.127 920591
3 365.127 911440
3 365.127 911150
3 365.568 908514
3 365.568 905258
3 365.568 903944
3 366.13 899579
3 378.256 1041169
3 378.256 1038373
3 378.256 1032533
3 378.256 1022531
3 378.256 1015524
3 378.256 1012093
3 378.577 974374
1 378.577 958899
3 378.577 948940
3 378.577 938968
3 378.577 938678
3 378.577 936598
3 378.577 933692
3 378.577 930896
3 379.105 921108
3 379.105 920459
3 379.105 898571
3 379.536 894491
3 379.536 893651
3 379.942 892391
3 380.359 890126
3 380.359 883150
3 380.359 879818
3 381.136 878783
3 382.29 873982
3 382.584 865395
3 392.013 980023
3 392.013 976390
3 392.013 965493
3 392.013 963001
3 392.013 951405
3 392.013 939044
3 392.013 936855
3 392.013 929178
3 392.013 927002
3 392.013 919603
3 392.013 912877
3 392.455 912555
3 392.455 902875
3 392.455 897827
3 392.455 895740
3 392.805 894047
3 392.805 891849
3 393.208 888624
3 393.208 884544
3 393.208 881748
3 393.535 881671
3 393.535 879995
3 393.535 879209
3 406.017 980721
3 406.017 933043
3 406.017 922257
3 406.017 921484
3 406.017 911042
3 406.017 909930
3 406.32 908634
3 406.32 892156
3 406.564 885250
3 406.564 880885
3 410.728 873495
3 410.728 872689
3 410.728 872010
3 410.993 869862
3 411.235 869042
3 411.235 867908
3 412.077 864041
3 412.077 863683
3 412.349 861643
3 420.334 989752
3 420.334 988583
3 420.334 979504
3 420.334 975637
3 420.334 966070
3 420.334 959705
3 420.334 955340
3 420.334 951159
3 420.334 949382
3 420.875 946623
3 420.875 946586
3 420.875 930933
1 420.875 921413
3 420.875 919263
3 420.875 918381
1 420.875 918005
3 420.875 917402
3 420.875 912392
3 420.875 907371
3 421.411 901492
3 421.411 894173
3 421.411 890268
3 421.411 888238
3 421.861 885765
3 421.861 885645
3 421.861 871095
3 423.055 867351
3 434.09 933408
3 434.09 930612
3 434.09 925614
3 434.09 925188
3 434.09 924810
3 434.465 915133
3 434.465 910768
3 434.465 906680
3 434.799 906172
3 434.799 902449
3 434.799 901762
3 435.127 900489
3 435.127 893005
3 435.127 887755
3 435.611 884573
3 435.611 880023
3 435.857 879868
3 435.857 878794
3 437.538 876723
3 437.538 875928
3 437.538 875690
3 437.538 874193
3 438.181 872955
3 438.467 872901
3 438.467 869999
3 448.167 943483
3 448.167 937859
3 448.167 926905
3 448.167 925338
3 448.167 915294
3 448.167 894912
3 448.67 891988
3 448.67 883534
3 448.67 881080
3 449.106 878284
3 462.123 973645
3 462.123 962599
3 462.123 954889
3 462.123 950524
3 462.123 944066
3 462.123 941131
3 462.123 936179
3 462.123 936133
3 462.123 934064
3 462.123 930758
3 462.58 924469
3 462.58 924207
3 462.58 916075
3 462.58 906731
3 462.58 901721
3 462.58 899248
3 462.58 894625
3 462.975 892160
3 462.975 892110
3 463.366 889601
3 463.366 887745
3 464.121 884439
3 466.114 882899
3 466.908 882152
3 466.908 879672
3 467.345 875257
3 467.755 872275
3 467.755 871951
3 468.589 870040
3 468.589 868873
3 476.204 991065
3 476.204 984256
3 476.204 975354
3 476.204 942474
3 476.204 942280
3 476.204 934485
3 476.204 929170
3 476.204 907403
3 476.538 901773
3 476.538 892720
3 476.538 892159
3 476.538 892106
3 476.538 887190
3 476.87 882983
3 481.735 881929
3 481.735 877930
3 482.153 875491
3 482.153 868482
3 490.08 1120844
3 490.08 1076433
3 490.08 1066431
3 490.08 1060810
3 490.08 1025876
3 490.08 1001888
3 490.08 993301
3 490.08 984126
3 490.08 965425
3 490.08 962629
3 490.497 952035
3 490.497 950394
3 490.497 940679
3 490.497 930677
3 490.497 918411
3 490.928 916325
3 490.928 916033
3 490.928 914671
3 491.371 913491
3 491.371 912776
3 491.371 910695
3 491.371 905296
3 491.811 904331
3 491.811 901801
3 504.096 991166
3 504.096 990454
3 504.096 982164
3 504.096 961085
3 504.096 958289
3 504.096 931690
3 504.588 922122
3 504.588 912120
3 504.588 912033
3 504.588 903355
3 504.588 899388
3 504.588 899009
3 505.093 891989
3 505.093 886277
3 505.093 883804
3 505.093 880998
3 506.678 879940
3 518.213 979416
3 518.213 953031
3 518.213 951668
3 518.213 937118
3 518.213 923072
3 518.213 898665
3 518.662 898652
3 518.662 892484
3 518.662 892276
3 518.662 890874
3 518.662 887808
3 518.662 884064
3 519.139 879263
3 519.139 870676
3 532.041 1041378
3 532.041 1002048
3 532.041 997734
3 532.041 963790
3 532.041 958874
3 532.041 944324
3 532.041 931153
3 532.368 926094
3 532.368 923629
3 532.368 918677
3 532.368 908331
3 532.827 907350
3 533.25 902860
3 534.062 894582
3 534.062 894123
3 534.062 889758
3 537.422 888318
3 540.72 887897
3 540.72 885678
3 546.188 1081522
3 546.188 1065869
3 546.188 1025118
3 546.188 993027
3 546.188 989859
3 546.188 970516
3 546.188 963117
3 546.188 959904
3 546.188 929545
3 546.188 926541
3 546.556 924394
3 546.556 921598
3 546.556 918026
3 546.556 914446
3 546.836 912831
3 546.836 902705
3 546.836 898682
3 546.836 898281
3 547.094 883681
3 547.094 878162
3 547.561 878057
3 547.561 875343
3 547.561 874107
3 547.845 869933
3 547.845 869276
3 547.845 864309
3 548.105 864152
3 550.27 863061
3 560.186 971975
3 560.186 942151
3 560.186 933605
3 560.186 930891
3 560.186 927603
3 560.186 925270
3 560.186 924807
3 560.186 924062
3 560.186 920063
3 560.752 910808
3 560.752 910486
3 560.752 908424
3 560.752 903244
3 560.752 902552
3 561.282 896254
3 561.282 893772
3 561.282 881530
3 571.999 881004
3 571.999 880164
3 574.166 1035463
3 574.166 1020257
3 574.166 977444
3 574.166 953456
3 574.166 950468
3 574.166 934574
3 574.166 930761
3 574.166 926943
3 574.166 926762
3 574.166 913395
3 574.166 899568
3 574.166 899271
3 574.713 898192
3 574.713 893058
3 574.713 888243
3 575.029 883699
3 575.318 883233
3 575.318 880843
3 576.413 880760
3 576.829 880280
3 576.829 871800
3 577.586 869717
3 577.913 868195
3 577.913 867054
3 588.021 977174
3 588.021 952754
1 588.021 946536
3 588.021 931631
3 588.021 929019
3 588.021 927267
3 588.336 918946
3 588.336 914850
3 588.336 913960
3 588.601 909904
3 588.601 904636
3 588.601 903068
3 588.601 902160
3 588.601 900932
3 588.961 898193
3 588.961 892345
3 602.02 989030
3 602.02 965042
3 602.02 963966
3 602.02 961170
3 602.02 959532
3 602.02 951797
3 602.02 939933
3 602.02 936144
3 602.02 906858
3 602.02 899459
3 602.696 895944
3 602.696 893835
3 602.696 885942
3 602.696 883146
3 603.338 876430
3 603.338 874011
3 603.65 873072
3 603.955 872531
3 604.474 871549
3 616.018 1108277
3 616.018 1082563
3 616.018 1042136
3 616.018 1041802
3 616.018 1033215
3 616.018 994696
3 616.018 979043
3 616.018 978376
3 616.018 975345
3 616.018 970793
3 616.018 946805
3 616.018 909699
3 616.497 901175
3 616.497 900764
3 616.497 900558
3 616.497 900090
3 617.313 884094
3 617.783 878422
3 626.547 876574
3 626.991 876375
3 627.217 874152
3 630.198 945707
3 630.198 941991
3 630.198 922718
3 630.198 913139
3 630.198 887425
3 630.198 882238
3 630.507 879242
3 630.755 871198
3 630.755 869734
3 630.755 869231
3 630.755 867988
3 631.271 866441
3 631.515 863620
3 631.751 862475
3 631.751 861147
3 644.138 1000248
3 644.138 985256
3 644.138 982899
3 644.138 979056
3 644.138 969054
3 644.138 955510
3 644.138 946987
3 644.138 935936
3 644.138 933471
3 644.5 923469
3 644.5 922012
3 644.5 914488
3 644.5 906817
3 644.5 902094
3 644.5 891556
3 645.793 890193
3 658.242 1004594
3 658.242 996707
3 658.242 989398
3 658.242 982409
3 658.242 966756
3 658.242 936034
3 658.242 934376
3 658.242 925983
3 658.242 924758
3 658.242 923547
3 658.242 908114
3 658.242 903104
3 658.822 900631
3 659.233 900318
3 659.233 881131
3 660.803 876433
3 661.192 876330
3 661.192 873471
3 661.192 872647
3 661.609 866919
3 662.751 864123
3 672.115 1008085
3 672.115 1007998
3 672.115 991049
3 672.115 950665
3 672.115 941609
3 672.115 936190
3 672.115 932873
3 672.115 923254
3 672.115 922055
3 672.115 920128
3 672.731 915763
3 672.731 908364
3 672.731 903754
3 672.731 902841
3 672.731 892839
3 672.731 890043
3 673.263 888309
3 673.666 884822
3 673.666 883944
3 678.047 878522
3 678.45 871547
3 678.957 871340
3 678.957 868751
3 681.354 868504
3 681.354 868083
3 686.055 1017422
3 686.055 1013367
3 686.055 1000963
3 686.055 980717
3 686.055 972130
3 686.055 965921
3 686.055 956978
3 686.055 948039
3 686.055 927402
3 686.055 924606
3 686.055 916510
3 686.422 915901
3 686.422 915434
3 686.422 910424
3 686.422 907951
3 686.422 901052
3 686.422 892893
3 686.422 885942
3 686.422 883146
3 700.121 978052
3 700.121 969465
3 700.121 957808
3 700.121 953443
3 700.121 952913
3 700.121 951558
3 700.424 950170
3 700.424 939451
3 700.424 939055
3 700.424 936635
3 700.424 934584
3 700.424 933839
3 700.424 933818
3 700.424 931392
3 700.751 929596
3 700.751 929426
3 700.751 924416
3 700.751 913685
3 700.751 911751
3 700.751 898992
3 700.751 891519
3 700.751 889697
3 701.053 889050
3 701.053 888282
3 701.053 879470
3 701.053 877679
3 701.311 876761
3 701.311 872939
3 714.201 941480
3 714.201 939007
3 714.201 929534
3 714.201 918089
3 714.201 906988
3 714.201 903918
3 714.544 900361
3 714.544 898051
3 714.544 892438
3 714.544 885909
3 714.544 881544
3 714.913 877577
3 714.913 873212
3 714.913 867588
3 714.913 866421
3 715.3 865752
3 728.09 941312
3 728.09 927963
3 728.09 925123
3 728.09 920113
3 728.09 918588
3 728.09 915462
3 728.414 915064
3 728.414 906186
3 728.73 905050
3 728.73 901470
3 728.73 899426
3 742.226 988310
3 742.226 967564
3 742.226 966255
3 742.226 962156
3 742.226 958292
3 742.226 944983
3 742.226 943897
3 742.226 941378
3 742.226 937762
3 742.226 928740
3 742.226 927144
3 742.659 925565
3 742.659 922779
3 742.659 919930
3 742.659 915844
3 742.659 903676
3 742.942 901203
3 742.942 900195
3 742.942 899731
3 742.942 898800
3 742.942 895957
3 743.312 888558
3 743.312 886622
3 743.574 880998
3 743.808 878556
3 744.431 876553
3 744.823 875789
3 746.728 874954
3 746.728 874722
3 747.136 874453
3 747.58 872188
3 756.188 1004733
3 756.188 968450
3 756.188 966214
3 756.188 961051
3 756.188 952550
3 756.188 944179
3 756.188 942871
3 756.188 937706
3 756.188 933610
3 756.568 916572
3 756.568 893018
3 756.568 885932
3 756.835 881567
3 758.471 881470
3 758.471 880006
3 759.068 873355
3 759.068 871025
3 759.068 870559
3 770.022 954267
3 770.022 945680
3 770.022 936540
3 770.022 929562
3 770.022 929372
3 770.022 919440
3 770.022 904952
3 770.022 904488
3 770.498 900862
3 770.498 900826
3 770.498 896559
3 770.498 892043
3 770.498 890722
3 770.498 887313
3 770.498 872077
3 770.498 870885
3 784.273 972985
3 784.273 968620
3 784.273 947565
3 784.273 941274
3 784.273 940288
3 784.273 931203
3 784.273 926251
3 784.801 911044
3 784.801 907379
3 784.801 907214
3 785.256 897889
3 785.256 896937
3 786.881 894030
3 787.292 892596
3 798.117 970705
3 798.117 964841
3 798.117 946285
3 798.117 929641
3 798.117 927909
3 798.117 921929
3 798.117 919296
3 798.117 914600
3 798.117 906207
3 798.117 905610
3 798.665 899489
3 798.665 892199
3 812.16 997355
3 812.16 975367
3 812.16 939273
3 812.16 923620
3 812.16 909070
3 812.16 892731
3 812.16 888855
3 812.16 884856
3 812.16 879734
3 812.508 879099
3 812.744 877809
3 812.744 874724
3 813.011 869100
3 813.011 868908
3 813.011 867614
3 813.011 865577
3 826.19 979935
3 826.19 977843
3 826.19 969993
3 826.548 959991
3 826.548 959500
3 826.548 944266
3 826.548 938072
3 826.548 934470
3 826.548 900056
3 840.173 940834
3 840.173 919832
3 840.173 917036
3 840.455 914920
3 840.455 897892
3 840.455 894778
3 840.455 890932
3 840.753 879887
3 840.753 877414
3 841.008 876195
3 841.008 875279
3 854.365 1004943
3 854.365 985977
3 854.365 971809
3 854.365 936444
3 854.365 934633
3 854.365 932978
3 854.365 928927
3 854.365 916758
3 854.365 912393
3 854.365 910152
3 854.365 906699
3 854.365 895933
3 855.332 893497
3 855.332 893410
3 855.775 883954
3 868.103 1051417
3 868.103 1029568
3 868.103 1023497
3 868.103 995771
3 868.103 992581
3 868.103 991383
3 868.103 953293
3 868.103 949849
3 868.103 945208
3 868.103 929989
3 868.524 924375
3 868.524 924035
3 868.524 916702
3 868.524 909608
3 868.914 908964
3 868.914 893907
3 869.389 888624
3 869.389 885828
3 869.389 881748
3 871.309 881649
3 871.556 875915
3 872.004 872989
3 872.004 870849
3 872.248 870843
3 872.248 869855
3 872.248 869037
3 872.503 866241
3 882.119 974898
3 882.119 940484
3 882.119 936119
3 882.119 929561
3 882.119 927532
3 882.119 922546
3 882.119 921261
3 882.119 916922
1 882.548 912569
3 882.548 910024
3 882.548 909928
3 882.548 895378
3 882.548 893746
3 882.548 890422
3 882.548 890356
3 882.919 885940
3 882.919 880930
3 882.919 879766
3 883.46 874377
3 896.221 1007809
3 896.221 999222
3 896.221 979949
3 896.221 958061
3 896.221 953247
3 896.221 951598
3 896.221 949013
3 896.221 946217
3 896.221 936967
3 896.768 929219
3 896.768 926965
3 896.768 921684
3 896.768 919566
3 896.768 918700
3 896.768 915681
3 896.768 913431
3 897.213 910958
3 897.213 909612
3 897.213 893310
3 897.213 886058
3 897.213 884912
3 897.213 883815
3 897.213 878861
3 901.492 878805
3 901.945 872671
3 903.7 871967
3 903.7 866820
3 904.159 864992
3 910.066 1002540
3 910.066 978552
3 910.066 978344
3 910.066 963787
3 910.066 948708
3 910.066 948580
3 910.066 946107
3 910.066 937662
3 910.066 934544
3 910.066 931588
3 910.066 928470
3 910.066 927242
3 910.658 924815
3 910.658 917416
3 911.099 913051
3 911.509 909082
3 911.509 903116
3 911.944 891058
3 911.944 889809
3 912.414 889311
3 912.414 884799
3 912.414 884320
3 912.667 873723
3 912.667 871895
3 913.119 869358
3 924.056 1021830
3 924.056 1003968
3 924.056 979980
3 924.056 947409
3 924.056 945619
3 924.056 929133
3 924.366 924612
3 924.366 917213
3 924.622 906923
3 924.898 904458
3 924.898 898834
3 925.315 888002
3 925.315 887736
3 926.924 882820
3 931.758 880789
3 931.758 877504
3 938.157 977690
3 938.157 971658
3 938.157 963071
3 938.157 943798
3 938.157 939433
3 938.463 939346
3 938.71 937282
3 938.71 936000
3 938.71 926840
3 939.484 920701
3 939.484 919858
3 939.484 916193
3 939.484 914702
3 939.767 906755
3 939.767 899049
3 949.605 898962
3 952.124 1058589
3 952.124 1044039
3 952.124 1017269
3 952.124 991675
3 952.124 953156
3 952.124 950471
3 952.124 947742
3 952.124 908713
3 952.447 905659
3 952.447 902859
3 952.447 900851
3 952.447 898711
3 953.28 897356
3 954.197 897316
3 954.477 894894
3 954.477 893933
3 954.477 891565
3 954.742 891460
3 954.742 888769
3 966.119 1008690
3 966.119 1003680
3 966.119 961600
3 966.119 958804
3 966.119 958503
3 966.119 957970
3 966.119 952239
3 966.119 944352
3 966.119 939644
3 966.119 937774
3 966.119 936866
3 966.581 932501
3 966.581 921137
3 966.839 905470
3 980.225 961708
3 980.225 954309
3 980.225 952226
3 980.225 936527
3 980.225 934453
3 980.225 931605
3 980.225 925459
3 980.758 912878
3 980.758 910437
3 980.758 904978
3 981.997 902134
3 981.997 900600
3 982.424 894976
3 982.424 894580
3 982.85 893932
3 982.85 887690
3 982.85 884894
3 983.288 884387
3 983.288 883930
3 994.193 983255
3 994.193 975856
3 994.193 955235
3 994.193 952217
3 994.193 937024
3 994.193 930465
3 994.193 928195
3 994.735 917244
3 994.735 901591
3 994.735 890526
3 994.735 886471
3 995.181 885709
3 995.181 884833
3 995.95 882442
3 995.95 881134
3 995.95 880468
3 996.364 880155
3 996.364 869057
3 996.364 867426
3 996.782 863433
3 996.782 863061
3 1008.18 1040145
3 1008.18 1031558
3 1008.18 1023564
3 1008.18 1020768
3 1008.18 998259
3 1008.18 957875
3 1008.18 943325
3 1008.18 913106
3 1008.18 910633
3 1008.62 903955
3 1008.62 901911
3 1008.92 898968
3 1008.92 894603
3 1009.16 891682
3 1009.16 887133
3 1009.16 885728
3 1009.16 878346
3 1009.16 876676
3 1009.47 872087
3 1009.47 868637
3 1009.47 868604
3 1009.73 868517
3 1009.73 864152
3 1022.16 944912
3 1022.16 943629
3 1022.16 942006
3 1022.16 936633
3 1022.16 933815
3 1022.65 927027
3 1022.65 925345
3 1022.65 925311
3 1022.65 917278
3 1023.12 905571
3 1023.12 902775
3 1023.12 890621
3 1023.48 888071
3 1023.48 887293
3 1024.26 887218
3 1024.26 886018
3 1024.26 884756
3 1026.18 883222
3 1036.12 979135
3 1036.12 978430
3 1036.12 954010
3 1036.12 950824
3 1036.12 943243
3 1036.12 933121
3 1036.12 919032
3 1036.12 914492
3 1036.54 909916
3 1036.54 909837
3 1036.54 909403
3 1036.54 906174
3 1036.54 900339
3 1036.95 899892
3 1036.95 893710
3 1037.95 889975
3 1038.6 887145
3 1039.19 886340
3 1039.66 885940
3 1039.9 879464
3 1039.9 873840
3 1039.9 871444
3 1040.17 866441
3 1050.35 969266
3 1050.35 936178
3 1050.35 925852
3 1050.35 923612
3 1050.35 916741
3 1050.35 913469
3 1050.35 910102
3 1050.35 905180
3 1050.35 903629
3 1050.35 899643
3 1050.93 898956
3 1050.93 890769
3 1050.93 890193
3 1052.01 887334
3 1052.01 883288
3 1052.46 883003
3 1052.46 882794
3 1052.87 881365
3 1052.87 878429
3 1064.12 1010809
3 1064.12 1002720
3 1064.12 961171
3 1064.12 956573
3 1064.12 934441
3 1064.12 900609
3 1064.12 898753
3 1064.12 896244
3 1064.61 894365
3 1064.98 889475
3 1064.98 886966
3 1066.34 881334
3 1067.13 880063
3 1067.13 878573
3 1078.25 1028502
3 1078.25 989983
3 1078.25 969733
3 1078.25 969712
3 1078.25 954475
3 1078.25 953229
3 1078.25 951115
3 1078.25 920773
3 1078.25 919261
3 1078.25 911192
3 1078.78 908719
3 1078.78 905795
3 1078.78 902934
3 1078.78 901931
3 1078.78 894599
3 1078.78 894512
3 1079.22 893380
3 1079.46 887240
3 1079.69 886721
3 1079.69 884305
3 1079.69 882224
3 1079.94 877241
3 1079.94 873161
3 1080.23 870877
3 1082.58 868379
3 1092.35 986781
3 1092.35 976602
3 1092.35 968931
3 1092.35 958605
3 1092.35 951125
3 1092.35 947019
3 1092.35 943348
3 1092.35 935058
3 1092.35 926471
3 1092.35 923792
3 1092.35 923004
3 1092.35 915109
3 1092.35 908454
3 1092.35 892676
3 1092.97 892233
3 1092.97 888178
3 1092.97 887413
3 1093.4 887172
3 1093.4 883481
3 1093.4 882569
3 1093.77 879773
3 1094.15 876300
3 1096.3 876188
3 1096.57 875155
3 1102.77 863215
3 1106.32 965602
3 1106.32 931229
3 1106.32 917212
3 1106.32 915843
3 1106.32 915320
3 1106.32 908444
3 1106.82 907690
3 1106.82 899103
3 1106.82 885848
3 1107.3 885199
3 1107.3 881200
3 1108 879809
3 1108 875945
3 1108 870736
3 1109.43 868830
3 1109.87 867546
3 1120.15 996758
3 1120.15 976708
3 1120.15 952720
3 1120.15 937067
3 1120.15 936967
3 1120.15 935559
3 1120.15 933236
3 1120.15 910399
3 1120.15 908180
3 1120.15 890562
3 1120.8 885765
3 1120.8 880250
3 1120.8 875514
3 1120.8 873052
3 1121.15 869396
3 1134.14 1053791
3 1134.14 1047977
3 1134.14 1038023
3 1134.14 1033014
3 1134.14 1017832
3 1134.14 1015036
3 1134.14 989959
3 1134.14 988794
3 1134.14 984654
3 1134.14 977354
3 1134.14 972402
3 1134.14 963806
3 1134.14 959441
3 1134.14 957852
3 1134.14 956968
3 1134.14 944234
3 1134.14 942212
3 1134.14 938416
3 1134.14 936223
3 1134.73 935398
3 1134.73 934248
3 1134.73 911160
3 1134.73 898921
3 1135.08 898834
3 1136.7 897940
3 1146.87 894606
3 1146.87 894340
3 1147.35 889424
3 1147.59 888030
3 1147.59 887185
3 1147.59 882820
3 1148.09 983510
3 1148.09 959346
3 1148.09 953387
3 1148.09 945502
3 1148.09 939898
3 1148.09 899514
3 1148.09 897568
3 1148.09 897426
3 1148.42 886746
3 1148.88 885159
3 1149.13 883099
3 1149.13 876572
3 1149.6 875384
3 1149.85 874512
3 1162.06 1014067
3 1162.06 1009208
3 1162.06 979653
3 1162.06 970150
3 1162.06 957398
3 1162.06 940839
3 1162.06 921758
3 1162.06 914811
3 1162.4 898944
3 1162.64 894641
3 1162.64 892421
3 1162.64 891482
3 1176.4 962789
3 1176.4 957870
3 1176.4 920952
3 1176.4 917486
3 1176.4 917119
3 1176.4 912766
3 1176.4 908875
3 1176.4 906402
1 1176.4 904204
3 1176.98 899909
3 1177.4 893845
3 1177.4 891752
3 1177.86 890723
3 1177.86 890343
3 1177.86 888205
3 1178.33 888118
3 1178.33 881548
3 1178.33 880636
3 1178.33 879862
3 1190.05 1019984
3 1190.05 1015619
3 1190.05 982335
3 1190.05 977946
3 1190.05 950220
3 1190.05 949690
3 1190.05 944066
3 1190.05 924309
3 1190.38 922302
3 1190.38 910158
3 1190.38 908668
3 1190.38 907696
3 1190.68 900297
3 1191.18 897824
3 1204.33 941911
3 1204.33 940067
3 1204.33 935902
3 1204.33 935430
3 1204.33 928455
3 1204.33 922879
3 1204.33 921629
3 1204.74 901471
3 1204.74 898315
3 1204.74 898202
3 1204.74 883765
3 1205.09 882423
3 1205.7 881715
3 1205.7 880639
3 1205.7 878084
3 1206.05 877843
3 1214.81 875785
3 1214.81 873763
3 1215.07 871391
3 1218.13 1022343
3 1218.13 1014944
3 1218.13 1010579
3 1218.13 1008106
3 1218.13 1000083
3 1218.13 998104
3 1218.13 992352
3 1218.13 963862
3 1218.13 963468
3 1218.13 952018
1 1218.13 947963
3 1218.13 937316
3 1218.72 935380
3 1218.72 934854
3 1218.72 922201
3 1218.72 916541
3 1218.72 914653
3 1218.72 907906
3 1218.72 902371
3 1218.72 894748
3 1219.24 885679
3 1219.24 884174
3 1219.24 874644
3 1219.95 870026
3 1232.04 1033789
3 1232.04 1033418
3 1232.04 1015754
3 1232.04 1011389
3 1232.04 999462
3 1232.04 975474
3 1232.04 975103
3 1232.04 939670
3 1232.04 935347
3 1232.04 922374
3 1232.04 907824
3 1232.41 900309
3 1232.41 897836
3 1232.41 894617
3 1232.41 892260
3 1232.67 891925
3 1232.67 891812
3 1232.91 889464
3 1233.15 887829
3 1233.15 885356
3 1233.15 884930
3 1233.15 877452
3 1233.42 876968
3 1233.42 870843
3 1233.42 870789
3 1233.42 869723
3 1233.68 868667
3 1233.68 866927
3 1246.2 1057805
3 1246.2 1054870
3 1246.2 1016351
3 1246.2 1004571
3 1246.2 991560
3 1246.2 982973
3 1246.2 968063
3 1246.2 967989
3 1246.2 961843
3 1246.2 957478
3 1246.2 956420
3 1246.2 950342
3 1246.2 948019
3 1246.2 944806
3 1246.2 922021
3 1246.2 921023
3 1246.61 913970
3 1246.61 894697
3 1246.61 892742
3 1246.61 889946
3 1246.9 882228
3 1246.9 880980
3 1247.13 879904
3 1247.13 878742
3 1247.6 874105
3 1247.6 870106
3 1247.91 869662
3 1248.14 868150
3 1248.36 867883
3 1248.59 867826
3 1248.59 867770
3 1248.83 865354
3 1260.07 1013147
3 1260.07 1006348
3 1260.07 980707
3 1260.07 980451
3 1260.07 974827
3 1260.07 955165
3 1260.07 950800
3 1260.07 949740
3 1260.07 949219
3 1260.6 916185
3 1260.6 910414
3 1260.6 907329
3 1261.02 904818
3 1261.28 902957
3 1261.28 902185
3 1261.28 899158
3 1261.89 896561
3 1263.09 896368
3 1263.09 894134
3 1263.09 891286
3 1263.09 891099
3 1263.55 887471
3 1263.55 887437
3 1263.55 883438
3 1270.07 882482
3 1274.2 998723
3 1274.2 954804
3 1274.2 946217
3 1274.2 931667
3 1274.2 929987
3 1274.2 922818
3 1274.2 920466
3 1274.2 911523
3 1274.2 900508
3 1274.2 900161
3 1274.56 898493
3 1274.56 891768
3 1274.56 889764
3 1274.56 889338
3 1274.56 886968
3 1274.96 882253
3 1275.58 881766
3 1275.93 878186
3 1275.93 877496
3 1276.36 874369
3 1276.36 868150
3 1276.36 867826
3 1276.78 867770
3 1277.18 865354
3 1288.21 1015762
3 1288.21 1006501
3 1288.21 966117
3 1288.21 961669
3 1288.21 958519
3 1288.21 954698
3 1288.21 948701
3 1288.21 945905
3 1288.21 934942
3 1288.65 910424
3 1288.65 908717
3 1288.65 907951
3 1288.65 906642
3 1288.65 905828
3 1288.65 899102
3 1289.03 897739
3 1289.03 896131
3 1289.03 892891
3 1289.03 891703
3 1289.37 887670
3 1289.37 885680
3 1289.37 883310
3 1301.19 881131
3 1301.19 876756
3 1302 876737
3 1302.4 980289
3 1302.4 962609
3 1302.4 947453
3 1302.4 941947
3 1302.4 940014
3 1302.4 939151
3 1302.4 930711
3 1302.4 924021
3 1302.4 902577
3 1302.94 902292
3 1302.94 884790
3 1302.94 884077
3 1304.53 883990
3 1304.99 881296
3 1305.24 879196
3 1305.24 876594
3 1305.24 874329
3 1316.19 984910
3 1316.19 980378
3 1316.19 955958
3 1316.19 935337
3 1316.19 930407
3 1316.19 924606
3 1316.19 918111
3 1316.19 913159
3 1316.19 909985
3 1316.19 905901
3 1316.54 893902
3 1316.54 893510
3 1316.54 893500
3 1316.54 889875
3 1316.99 885892
3 1317.24 884143
3 1317.24 880366
3 1317.24 879007
3 1317.24 878634
3 1323.83 877768
3 1324.52 876106
3 1330.17 967548
3 1330.17 967238
3 1330.17 963239
3 1330.17 942990
3 1330.17 941504
3 1330.17 938708
3 1330.17 934897
3 1330.17 933824
3 1330.17 931607
3 1330.17 928200
3 1330.17 926259
3 1330.64 920561
3 1330.64 916633
3 1330.64 913025
3 1330.64 912849
3 1330.64 905300
3 1330.64 901228
3 1332.38 895813
3 1332.38 895642
3 1344.13 1024401
3 1344.13 989987
3 1344.13 985960
3 1344.13 972858
3 1344.13 963570
3 1344.13 957946
3 1344.13 956694
3 1344.13 949295
3 1344.13 935502
3 1344.13 929606
3 1344.13 928876
3 1344.13 922778
3 1344.13 921730
3 1344.13 900529
3 1344.13 900108
3 1344.13 895674
3 1344.61 892750
3 1344.61 890106
3 1358.19 974938
3 1358.19 970536
3 1358.19 963137
3 1358.19 958613
3 1358.19 953668
3 1358.19 948987
3 1358.19 948983
3 1358.19 947750
3 1358.73 939275
3 1358.73 939225
3 1358.73 939063
3 1358.73 930476
3 1358.73 929161
3 1359.04 929039
3 1359.04 926185
3 1359.04 922186
3 1359.04 921521
3 1359.04 916182
3 1359.04 914292
3 1359.34 914034
3 1359.59 911238
3 1359.59 910294
3 1359.85 907681
3 1360.8 903766
3 1360.8 903312
3 1361.3 899852
3 1372.2 932644
3 1372.2 924316
3 1372.2 921520
3 1372.2 917712
3 1372.2 912361
3 1372.2 897481
3 1372.2 893116
3 1373.21 892155
3 1373.67 891907
3 1373.67 891695
3 1374.51 881450
3 1374.51 879219
3 1374.93 877560
3 1375.17 877440
3 1375.42 871384
3 1377.17 871143
3 1377.17 870632
3 1386.05 956303
3 1386.05 948904
3 1386.05 933335
3 1386.05 925622
3 1386.64 920119
3 1386.64 915620
3 1386.64 910610
3 1386.64 910439
3 1386.64 903040
3 1387.13 902776
3 1387.13 879841
3 1387.13 878550
3 1387.13 878200
3 1387.13 875492
3 1387.59 874838
3 1388.01 874748
3 1388.01 873638
3 1400.01 953809
3 1400.01 946910
3 1400.01 940392
3 1400.01 932188
3 1400.01 930722
3 1400.01 930285
3 1400.01 924661
3 1400.01 919699
3 1400.33 914762
3 1400.33 912300
3 1400.33 904901
3 1400.58 899979
3 1401.55 895073
3 1402.01 890565
3 1402.24 889460
3 1402.24 883004
3 1402.48 881211
3 1402.48 880768
3 1403.7 873837
3 1403.7 873588
3 1403.7 872375
3 1414.2 1006966
3 1414.2 982546
3 1414.2 963273
3 1414.2 960477
3 1414.2 912799
3 1414.49 907609
3 1414.49 904968
3 1414.73 895314
3 1414.73 893593
3 1414.99 892001
3 1415.23 890925
3 1415.23 888256
3 1415.23 883891
3 1415.7 883255
3 1419.86 882890
3 1428.19 968121
3 1428.19 952265
3 1428.19 947413
3 1428.19 942959
3 1428.19 941365
3 1428.19 938441
3 1428.19 926821
3 1428.19 920620
3 1428.19 917488
3 1428.55 909952
3 1428.55 908717
3 1428.55 903495
3 1428.55 890718
3 1428.55 888253
3 1428.55 884222
3 1429.92 877541
3 1429.92 877454
3 1430.15 875494
3 1430.15 874416
3 1430.4 872531
3 1430.4 869226
3 1430.66 869042
3 1442.36 998895
3 1442.36 982601
3 1442.36 981323
3 1442.36 978274
3 1442.83 963250
3 1442.83 962830
3 1442.83 958504
3 1442.83 933289
3 1442.83 928958
3 1442.83 928181
3 1443.26 923871
3 1443.52 917373
3 1443.87 911228
3 1443.87 910454
3 1443.87 908929
3 1443.87 906614
3 1443.87 902615
3 1444.2 888464
3 1444.43 885216
3 1444.79 884201
3 1456.21 1023684
3 1456.21 1016145
3 1456.21 995364
3 1456.21 981814
3 1456.21 980455
3 1456.21 973331
3 1456.21 971868
3 1456.21 963639
3 1456.21 953171
3 1456.21 949259
3 1456.21 946463
3 1456.21 940220
3 1456.21 918136
3 1456.58 915840
3 1456.58 911865
3 1457.07 910904
3 1457.07 908836
3 1457.07 904728
3 1457.07 903212
3 1457.54 897852
3 1457.54 896287
3 1457.54 891277
3 1458.07 887850
3 1458.84 886626
3 1458.84 885357
3 1458.84 885272
3 1459.65 883472
3 1461.69 882884
3 1463.55 882191
3 1470.1 919304
3 1470.1 916508
3 1470.1 911625
3 1470.1 908146
3 1470.58 905199
3 1470.58 900845
3 1470.58 900626
3 1470.58 899636
3 1470.98 897973
3 1470.98 897541
3 1470.98 895177
3 1471.26 891886
3 1471.26 890174
3 1471.26 888070
3 1471.26 887050
3 1484.09 940370
3 1484.09 923794
3 1484.09 922033
3 1484.09 919888
3 1484.09 915422
3 1484.09 901029
3 1484.59 891405
3 1484.59 888352
3 1484.59 888044
3 1484.59 887958
3 1485.05 880498
3 1485.05 866199
3 1485.05 861189
3 1498.28 1009274
3 1498.28 991963
3 1498.28 990448
3 1498.28 968058
3 1498.28 960659
3 1498.28 950095
3 1498.28 941508
3 1498.68 934384
3 1498.68 929387
3 1498.68 921896
3 1498.68 921809
3 1498.68 907259
3 1498.68 902894
3 1498.68 901857
3 1499 898149
3 1499 893784
3 1499 888917
3 1499 884375
3 1499.28 883806
3 1499.28 881953
3 1499.28 881579
3 1499.76 878380
3 1499.76 876378
3 1500.13 874180
3 1512.07 983716
3 1512.07 939797
3 1512.07 928316
3 1512.07 926085
3 1512.07 925817
3 1512.07 925664
3 1512.07 921129
3 1512.07 900661
3 1512.07 890605
3 1512.07 886913
3 1512.07 886550
3 1512.07 885129
3 1512.66 883031
3 1512.66 877107
3 1512.66 873052
3 1512.66 869952
3 1513.14 869396
3 1526.14 974441
3 1526.14 973059
3 1526.14 967499
3 1526.14 947108
3 1526.14 946475
3 1526.14 939709
3 1526.14 939338
3 1526.14 933876
3 1526.14 933694
3 1526.14 930898
3 1526.14 917779
3 1526.72 914332
3 1526.72 912568
3 1526.72 909532
3 1526.72 907059
3 1526.72 901622
3 1527.22 894962
3 1527.65 887434
3 1540.12 989060
3 1540.12 986264
3 1540.12 981187
3 1540.12 972706
3 1540.12 944554
3 1540.12 935967
3 1540.12 934295
3 1540.12 926019
3 1540.46 906275
3 1540.46 897799
3 1540.46 893717
3 1542.33 891908
3 1542.33 890562
3 1542.33 887643
3 1542.33 887543
3 1542.78 886204
3 1542.78 882940
3 1543.58 880580
3 1545.16 880144
3 1550.45 876919
3 1550.82 873919
3 1554.05 994626
3 1554.05 972090
3 1554.05 968847
3 1554.05 963147
3 1554.05 954679
1 1554.05 948597
3 1554.05 941198
3 1554.05 934503
3 1554.05 933672
3 1554.05 932837
3 1554.05 923230
3 1554.57 918287
3 1554.57 918243
3 1554.57 914244
3 1554.57 910724
3 1554.57 910322
3 1554.57 909279
3 1554.57 903411
3 1554.94 902223
3 1554.94 899270
3 1554.94 896049
3 1554.94 894759
3 1555.27 894588
3 1555.27 888964
3 1568.21 963216
3 1568.21 951096
3 1568.21 936928
3 1568.21 926926
3 1568.21 922004
3 1568.21 915569
3 1568.21 905227
3 1568.73 901845
3 1569.18 901495
3 1569.18 895871
3 1578.34 886699
3 1578.74 882113
3 1578.74 879954
3 1578.74 873481
3 1582.31 1032592
1 1582.31 998511
3 1582.31 963821
3 1582.31 943200
3 1582.31 931781
3 1582.31 931519
3 1582.31 929958
3 1582.31 922559
3 1582.31 918219
3 1582.31 913953
3 1582.31 913297
3 1583.26 910404
3 1583.26 908217
3 1583.68 905952
3 1584.09 905421
3 1584.09 902672
3 1584.09 896927
3 1584.09 893598
3 1584.53 891133
3 1584.93 885509
3 1596 1014299
3 1596 1005896
3 1596 1003100
3 1596 992712
3 1596 986602
3 1596 952188
3 1596 946564
1 1596.51 945202
3 1597 931605
3 1597 930897
3 1597 926950
3 1597 925675
3 1597.47 923588
3 1597.47 920194
3 1597.89 897847
3 1597.89 897335
3 1597.89 892095
3 1598.38 889622
3 1598.38 883998
3 1610.14 978480
3 1610.14 962234
3 1610.14 941410
3 1610.14 937035
3 1610.14 925524
3 1610.14 923441
3 1610.14 920968
3 1610.14 918172
3 1610.14 904485
3 1610.56 893511
3 1610.56 890698
3 1610.56 888501
3 1610.56 879989
3 1624.37 990124
3 1624.37 986278
3 1624.37 985202
3 1624.37 962394
3 1624.37 957384
3 1624.8 944292
3 1624.8 922970
3 1624.8 918409
3 1624.8 917753
3 1625.09 914957
3 1625.34 914760
3 1625.34 914577
3 1628.18 893263
3 1629 892187
3 1629.3 891624
3 1629.3 891515
3 1629.3 887034
3 1630.24 886851
1 1634.94 881682
3 1636.12 878689
3 1636.12 873258
3 1636.12 873165
3 1636.43 869053
3 1637.12 868893
3 1638.09 1082651
3 1638.09 1061183
3 1638.09 1056231
3 1638.09 1015847
3 1638.09 1013051
3 1638.09 998501
3 1638.09 974513
3 1638.09 935118
3 1638.09 913268
3 1638.49 905698
3 1638.49 903592
3 1638.49 901147
3 1638.49 899200
3 1638.76 898521
3 1638.76 894466
3 1638.76 887589
3 1639.25 881775
3 1639.25 880071
3 1639.25 879774
3 1639.94 879033
3 1639.94 875377
3 1652.19 989611
3 1652.19 958832
3 1652.19 953210
3 1652.19 950414
3 1652.19 941249
3 1652.19 926712
3 1652.19 919439
3 1652.19 915747
3 1652.53 912951
3 1652.53 902089
3 1652.53 895333
3 1652.79 892398
3 1652.79 888712
3 1652.79 881142
3 1662.21 880964
3 1662.21 875514
3 1666.07 979526
3 1666.07 975949
3 1666.07 951961
3 1666.07 947232
3 1666.07 943662
3 1666.07 932531
3 1666.07 928317
3 1666.07 926271
3 1666.07 913848
3 1666.58 912100
3 1666.58 907123
3 1666.58 904698
3 1666.58 904611
3 1667.01 897131
3 1667.63 882010
3 1667.63 880964
3 1667.88 880297
3 1667.88 880159
3 1667.88 876510
3 1680.15 1036077
3 1680.15 1030603
3 1680.15 1016053
3 1680.15 1012822
3 1680.15 1004235
3 1680.15 1003101
3 1680.15 1001439
3 1680.15 995214
3 1680.15 971226
3 1680.15 967449
3 1680.15 922536
3 1680.15 910514
3 1680.53 905740
3 1680.53 899671
3 1680.79 888365
3 1680.79 882421
3 1681.04 879605
3 1682.39 878861
3 1682.63 877701
3 1683.09 875524
3 1683.09 870559
3 1685.23 870305
3 1694.25 987087
3 1694.25 985758
3 1694.25 984120
3 1694.25 979755
3 1694.25 966756
3 1694.25 943720
3 1694.25 938942
3 1694.25 937695
3 1694.85 927693
3 1694.85 923623
3 1694.85 921967
3 1694.85 919300
3 1694.85 911421
3 1694.85 908032
3 1694.85 900633
3 1694.85 899926
3 1699.8 895871
3 1706.78 894255
3 1708.17 987355
3 1708.17 951819
3 1708.17 940501
3 1708.17 927188
3 1708.17 922823
3 1708.17 917711
3 1708.17 915513
3 1708.17 912442
3 1708.69 900681
3 1708.69 898968
3 1708.69 889635
3 1708.69 888378
3 1708.69 887679
3 1709.19 884883
3 1709.63 880226
3 1722.02 953402
3 1722.02 949037
3 1722.02 914710
3 1722.02 906221
3 1722.02 904976
3 1722.49 904121
3 1722.49 900427
3 1722.49 897984
3 1722.92 897615
3 1722.92 893653
3 1723.34 892605
3 1723.34 890857
3 1724.13 887629
3 1724.13 884165
3 1724.13 879800
3 1724.13 878756
3 1725.38 868314
3 1736.08 1021967
3 1736.08 1019494
3 1736.08 1002167
3 1736.08 997802
3 1736.08 983633
3 1736.08 980996
3 1736.08 980810
3 1736.08 980044
3 1736.08 974952
3 1736.08 944557
3 1736.08 931789
3 1736.64 928993
3 1736.64 925763
3 1736.64 924219
3 1736.64 904890
3 1736.64 899266
3 1737.1 897764
3 1737.1 891174
3 1737.1 888378
3 1737.54 888220
3 1738.32 884221
1 1747.62 882025
3 1750.15 953849
3 1750.15 936382
3 1750.15 933909
3 1750.15 928899
3 1750.15 923784
3 1750.46 919499
3 1750.46 907516
3 1750.46 904429
3 1750.46 901507
3 1750.88 900979
3 1750.88 899723
3 1751.97 896763
3 1751.97 893967
3 1751.97 891494
3 1752.48 886864
3 1752.48 879495
3 1752.48 877002
3 1753.24 872637
3 1760.5 872314
3 1764.35 1035502
3 1764.35 1024093
3 1764.35 979300
3 1764.35 973116
3 1764.35 946736
3 1764.35 941208
3 1764.35 935385
3 1764.9 932730
3 1764.9 927986
3 1764.9 920278
3 1764.9 917666
3 1764.9 903116
3 1764.9 901621
3 1764.9 880909
3 1764.9 880308
3 1765.54 877462
3 1765.54 874666
3 1765.54 864856
3 1766.05 861346
3 1778.01 953909
3 1778.01 951696
3 1778.01 948970
3 1778.01 938115
3 1778.01 930031
3 1778.01 927235
3 1778.32 919529
3 1778.32 918649
3 1778.32 918135
3 1778.6 915116
3 1778.6 904988
3 1778.6 902192
3 1778.6 897827
3 1779.58 891365
3 1779.58 885715
3 1779.87 882778
3 1781.04 882030
3 1781.04 881867
3 1781.3 879086
3 1781.53 878581
3 1792.22 956320
3 1792.22 952940
3 1792.22 939247
3 1792.22 927982
3 1792.22 927641
3 1792.22 916683
3 1792.53 913980
3 1792.53 904087
3 1792.53 896647
3 1792.53 895483
3 1793.8 893172
3 1793.8 893102
3 1793.8 890904
3 1794.61 890640
3 1806.21 1007829
3 1806.21 991782
3 1806.21 988963
3 1806.21 981564
3 1806.21 967645
3 1806.21 964658
3 1806.21 954861
3 1806.21 953582
3 1806.21 952346
3 1806.21 950806
3 1806.21 948333
3 1806.21 945641
3 1806.21 939597
3 1806.21 938625
3 1806.21 935501
3 1806.85 913654
3 1806.85 898419
3 1806.85 897289
3 1806.85 891343
3 1806.85 891146
3 1806.85 888702
3 1807.33 883944
3 1808.13 883366
3 1808.53 880893
3 1808.53 878792
3 1808.53 874404
3 1809.7 872580
3 1809.7 870743
3 1809.7 868336
3 1820.11 950500
3 1820.11 939820
3 1820.11 920751
3 1820.11 920547
3 1820.11 919637
3 1820.11 912435
3 1820.11 909970
3 1820.58 900584
3 1820.58 898320
3 1820.58 897700
3 1820.58 897660
3 1820.58 892036
3 1820.94 890301
3 1821.73 886511
3 1821.73 884179
3 1822 877790
3 1822 874177
3 1823.83 870545
3 1824.07 866490
3 1834.02 974707
3 1834.02 973273
3 1834.02 965602
3 1834.02 942366
3 1834.02 941352
3 1834.02 933779
3 1834.02 918291
3 1834.02 916234
3 1834.02 911869
3 1834.52 910419
3 1834.52 903282
3 1834.52 902635
3 1835.7 899787
3 1837.64 895769
3 1837.64 895609
3 1837.64 879474
3 1837.64 873401
3 1848.09 980351
3 1848.09 979420
3 1848.09 937162
3 1848.09 926874
3 1848.09 926144
3 1848.09 920947
3 1848.09 917508
3 1848.09 914712
3 1848.09 905833
3 1848.53 900211
3 1848.53 891708
3 1848.53 889732
3 1848.53 886936
3 1849.51 884222
3 1859.41 883146
3 1859.92 881592
3 1859.92 875968
3 1861.04 875373
3 1862.31 999815
3 1862.31 984162
3 1862.31 980572
3 1862.31 977776
3 1862.31 972839
3 1862.31 967215
3 1862.31 963012
3 1862.31 962303
3 1862.31 948801
3 1862.31 943116
3 1862.31 935657
3 1862.31 934117
3 1862.31 930200
3 1862.31 925835
3 1862.92 922455
3 1863.36 919242
1 1875.26 915528
3 1875.68 912266
3 1875.68 906642
3 1875.68 903429
3 1876.08 972558
3 1876.08 949457
3 1876.08 940378
3 1876.08 920583
3 1876.08 904063
3 1876.08 888295
3 1876.39 886383
3 1876.63 880265
3 1876.63 876388
3 1876.63 872219
3 1876.88 871515
3 1876.88 870174
3 1876.88 869042
3 1877.62 868820
3 1877.86 866003
3 1877.86 865861
3 1878.09 865776
3 1878.37 863338
3 1878.81 863196
3 1890.17 955480
3 1890.17 950366
3 1890.17 948297
3 1890.17 946088
3 1890.17 943904
3 1890.17 942754
3 1890.17 931231
3 1890.17 931170
3 1890.17 922644
3 1890.17 907395
3 1890.71 905232
3 1891.43 904840
3 1891.43 896550
3 1891.7 895746
3 1891.7 893754
3 1904.16 926467
3 1904.16 922813
3 1904.16 919705
3 1904.16 913692
3 1904.16 897195
3 1904.54 896043
3 1904.86 891963
3 1905.41 889659
3 1905.84 888608
3 1911.63 885021
3 1911.63 883043
3 1911.9 881307
3 1911.9 879660
3 1913.69 877122
3 1918.25 948453
3 1918.25 944088
3 1918.25 929108
3 1918.25 925109
3 1918.25 919930
3 1918.25 919927
3 1918.25 918182
3 1918.25 911143
3 1918.25 908956
3 1918.78 902430
3 1918.78 886114
3 1918.78 884219
3 1919.25 883768
3 1919.65 876820
3 1932.05 1038373
3 1932.05 1017176
3 1932.05 978616
3 1932.05 972215
3 1932.05 962247
3 1932.05 955666
3 1932.05 952177
3 1932.05 947482
3 1932.05 932932
3 1932.6 929040
3 1932.6 928877
3 1932.6 926244
3 1933.02 921421
3 1933.02 910578
3 1933.42 903179
3 1933.8 900410
3 1933.8 894611
3 1933.8 894447
3 1934.7 893401
3 1946.15 979329
3 1946.15 976533
3 1946.15 957194
3 1946.15 949134
3 1946.15 942412
3 1946.15 935790
3 1946.15 934119
3 1946.67 931323
3 1947.51 926264
3 1947.51 924827
3 1947.51 919203
1 1951.21 918912
3 1951.21 916116
3 1960.11 960200
3 1960.11 959504
3 1960.11 945134
3 1960.11 941135
3 1960.11 935010
3 1960.11 923964
3 1960.61 921753
3 1961.03 919693
3 1961.03 918543
3 1961.46 908541
3 1961.46 907890
3 1961.46 905606
3 1961.91 905094
3 1961.91 895142
3 1962.34 890528
3 1962.34 888577
3 1962.76 887810
3 1962.76 885014
3 1965.24 881708
3 1965.24 881037
3 1965.24 878640
3 1965.24 878112
3 1965.24 876842
3 1965.24 873172
3 1965.56 871470
3 1965.8 871299
3 1966.26 868508
3 1966.26 865271
3 1966.26 863467
3 1966.57 860804
3 1966.57 860587
3 1967.03 858008
3 1974.2 983425
3 1974.2 968276
3 1974.2 964776
3 1974.2 963324
3 1974.2 954868
3 1974.2 937536
3 1974.2 937405
3 1974.2 937324
3 1974.2 932526
3 1974.7 926001
3 1974.7 923528
3 1974.7 919689
3 1974.7 917684
3 1975.04 907745
3 1975.35 899158
3 1975.35 884558
3 1975.35 883256
3 1975.35 880783
3 1975.35 870716
3 1975.7 870490
3 1975.7 869398
3 1975.7 867125
3 1976.02 864309
3 1984.47 864152
3 1988.17 1086380
3 1988.17 1058476
3 1988.17 1039899
3 1988.17 1024232
3 1988.17 1008469
3 1988.17 993919
3 1988.17 980243
3 1988.17 970906
3 1988.17 932387
3 1988.52 920186
3 1988.52 913502
3 1988.52 907670
3 1988.52 904425
3 1988.79 900570
3 1988.79 897774
3 1988.79 894164
3 1989.06 887332
3 1989.06 885564
3 1989.06 882913
3 1989.06 880998
3 1992.04 880841
3 1992.04 875217
3 2002.14 980245
3 2002.14 947170
3 2002.14 945748
3 2002.14 943171
3 2002.14 932876
3 2002.64 931159
1 2002.64 924463
3 2002.64 921815
3 2002.64 914913
3 2002.64 911712
3 2002.64 910548
3 2003.12 904320
3 2003.53 900082
3 2003.93 898512
3 2003.93 894147
3 2004.35 893436
3 2005.13 890425
3 2016.15 955409
3 2016.15 949072
3 2016.15 947763
3 2016.15 933213
3 2016.15 926932
3 2016.15 917334
3 2016.15 906686
3 2016.15 904179
3 2016.15 889610
3 2016.69 884600
3 2016.69 881055
3 2018.33 872488
3 2018.56 868667
3 2018.56 866927
3 2030.29 1042007
3 2030.29 998088
3 2030.29 959569
3 2030.29 954821
3 2030.29 944757
3 2030.29 939732
3 2030.29 918833
3 2030.68 910934
3 2030.68 909307
3 2030.68 900282
3 2030.68 893652
3 2032.28 886253
3 2044.19 1077906
1 2044.19 1048889
3 2044.19 1046380
3 2044.19 1033646
3 2044.19 1014578
3 2044.19 981196
3 2044.19 970505
3 2044.19 957642
3 2044.19 954718
3 2044.19 951232
3 2044.76 939384
3 2044.76 929901
3 2044.76 927428
3 2044.76 925540
3 2045.14 908778
3 2045.59 900935
3 2046.41 897732
3 2046.41 897402
3 2058.04 964275
3 2058.04 959910
3 2058.04 951517
3 2058.04 947063
3 2058.04 923646
3 2058.04 923475
3 2058.04 922703
3 2058.37 920647
3 2058.37 920230
3 2058.37 909910
3 2058.37 909206
3 2058.37 907531
3 2059.6 897529
3 2072.01 960600
3 2072.01 956601
3 2072.01 953680
3 2072.01 950300
3 2072.01 947980
3 2072.52 937357
3 2073.37 935272
3 2073.37 924037
3 2073.8 923431
3 2073.8 900474
3 2073.8 899779
3 2074.26 896682
3 2074.26 896374
3 2075.2 889309
3 2075.2 886513
3 2075.2 884294
3 2075.2 879929
3 2077.03 879609
3 2077.33 878664
3 2077.33 877506
3 2077.33 877456
3 2086.35 1006403
3 2086.35 1005147
3 2086.35 1003607
3 2086.35 987954
3 2086.35 976391
3 2086.35 972051
3 2086.35 952127
3 2086.35 947523
3 2086.35 937891
3 2086.35 935426
3 2086.35 934256
3 2086.35 919337
3 2086.35 905169
3 2086.95 898082
3 2086.95 895158
3 2086.95 890793
3 2086.95 888275
3 2087.33 884411
3 2087.33 882421
3 2087.33 878946
3 2087.57 878859
3 2087.57 878138
3 2087.8 874154
3 2088.03 870272
3 2088.03 870108
3 2088.03 861042
3 2088.33 859062
3 2100.05 996858
3 2100.05 984283
3 2100.05 981487
3 2100.05 954732
3 2100.05 939079
3 2100.05 934772
3 2100.05 929436
3 2100.05 927315
3 2100.05 910868
3 2100.05 906503
3 2100.05 884283
3 2100.64 880389
3 2100.64 878947
3 2102.18 878777
3 2114.14 1021016
3 2114.14 969793
3 2114.14 964871
3 2114.14 938101
3 2114.14 921393
3 2114.14 911495
3 2114.14 910347
3 2114.46 908560
3 2114.46 906095
3 2114.46 900471
3 2114.46 899066
3 2116.57 898390
3 2116.57 896463
3 2117.48 893329
3 2117.84 891584
3 2117.84 886619
3 2118.17 881534
3 2118.17 880118
3 2118.48 878716
3 2118.8 878601
3 2118.8 877550
3 2119.13 875805
3 2119.13 875192
3 2119.13 873343
3 2120.05 871387
3 2120.28 869575
3 2120.51 868914
3 2120.91 866002
3 2121.31 865763
3 2121.31 865389
3 2121.31 865139
3 2121.31 863290
3 2128.1 991442
3 2128.1 971283
3 2128.1 951818
3 2128.1 948261
3 2128.1 912926
3 2128.38 907478
3 2128.38 890369
3 2128.38 887573
3 2128.38 884950
3 2129.07 884351
3 2129.3 883557
3 2129.54 880309
3 2129.54 879480
3 2129.8 877395
3 2130.26 874163
3 2130.26 873522
3 2142.2 936630
3 2142.2 905099
3 2142.2 899309
3 2142.2 898097
3 2142.2 893732
3 2142.2 892743
3 2142.2 882472
3 2142.2 878858
3 2142.2 872762
3 2142.2 869642
3 2142.2 865277
3 2142.75 861278
3 2142.75 860088
3 2149.76 859934
3 2156.06 942310
3 2156.06 935976
3 2156.06 924643
3 2156.06 923243
3 2156.06 920030
3 2156.06 919264
3 2156.53 912171
3 2156.53 911305
3 2156.53 908002
3 2156.92 904311
3 2156.92 903308
3 2157.23 898785
3 2157.23 894918
3 2157.8 893892
3 2158.04 892526
3 2158.04 892100
3 2158.29 888977
3 2158.29 886899
3 2158.29 884891
3 2158.77 884103
3 2159.17 883797
3 2159.17 880814
3 2159.6 879881
3 2170.29 1060687
3 2170.29 1041456
3 2170.29 1023110
3 2170.29 1018732
3 2170.29 1011506
3 2170.29 987518
3 2170.29 972968
3 2170.94 965942
3 2170.94 958284
3 2170.94 921555
3 2170.94 914372
3 2170.94 910317
3 2170.94 899073
3 2170.94 896836
3 2171.55 894363
3 2171.55 892751
3 2171.55 891769
3 2171.55 889682
3 2172.09 882431
3 2172.09 879947
3 2172.09 878335
3 2173.01 877992
3 2173.01 874217
3 2173.26 868371
3 2174.57 867495
3 2174.84 865970
3 2184.2 990748
3 2184.2 980751
3 2184.2 965871
3 2184.2 965578
3 2184.2 951641
3 2184.2 951046
3 2184.2 946001
3 2184.2 943205
3 2184.2 922198
3 2184.2 919965
3 2184.61 911378
3 2185.32 911291
3 2186.51 908974
3 2186.51 903964
3 2186.51 896829
3 2186.51 895215
3 2187.18 894522
3 2187.18 893372
3 2187.18 884979
3 2187.18 879323
3 2198.15 1056658
3 2198.15 1046574
3 2198.15 1021783
3 2198.15 1006130
3 2198.15 1003743
3 2198.15 1001768
3 2198.15 996324
3 2198.15 984157
3 2198.15 979235
3 2198.15 966656
3 2198.15 959885
3 2198.15 952078
3 2198.15 950659
3 2198.15 947274
1 2198.75 943194
3 2198.75 918032
3 2198.75 904675
3 2199.57 902204
3 2199.57 901935
3 2199.98 897464
3 2199.98 894536
3 2206.41 893605
3 2207.12 893098
3 2207.12 890302
3 2207.12 886933
3 2207.12 886303
3 2207.4 885269
3 2207.4 885173
3 2207.64 881440
3 2207.64 881331
3 2208.08 879340
3 2208.62 877914
3 2208.62 877740
3 2208.88 875852
3 2209.11 875441
3 2212.09 1023091
3 2212.09 992197
3 2212.09 990652
3 2212.09 989112
3 2212.09 965124
3 2212.09 962651
1 2212.09 961380
3 2212.09 936192
3 2212.09 922754
3 2212.09 921244
3 2212.09 918066
3 2212.67 917497
3 2212.67 917409
3 2212.67 915182
3 2213.52 914613
3 2215.95 911694
3 2215.95 907329
3 2215.95 905609
3 2216.39 900204
3 2216.39 900066
3 2216.39 899689
3 2216.39 897354
3 2219.5 894558
3 2219.9 890193
3 2226.14 997478
3 2226.14 993113
3 2226.14 982067
3 2226.14 967830
3 2226.14 920152
3 2226.14 918025
3 2226.14 916124
3 2226.44 911866
3 2226.44 907307
3 2227.02 905440
3 2227.02 901360
3 2227.44 898691
3 2227.44 896414
3 2227.44 896287
3 2227.44 893618
3 2228.28 891863
3 2228.28 891277
3 2231.77 890783
3 2232.58 890367
3 2232.58 889067
3 2232.98 888021
3 2232.98 878817
3 2232.98 870714
3 2232.98 868999
3 2233.41 868648
3 2238.45 866786
3 2238.45 863004
3 2240.34 942464
3 2240.34 924000
3 2240.34 921843
3 2240.34 918376
3 2240.34 916634
3 2240.34 915371
3 2240.84 912851
3 2240.84 910055
3 2240.84 909442
3 2241.68 899810
3 2241.68 882761
3 2242.49 874174
3 2254.16 954117
3 2254.16 946347
3 2254.16 938421
3 2254.16 932561
3 2254.16 925162
3 2254.46 915598
3 2254.94 907994
3 2254.94 907973
3 2255.18 906553
3 2255.18 902472
3 2255.18 902366
3 2255.18 900279
3 2255.18 877829
3 2255.46 872819
3 2255.46 870573
3 2268.08 1022029
3 2268.08 1020897
3 2268.08 1016898
3 2268.08 982571
3 2268.08 982484
3 2268.08 980983
3 2268.08 976618
3 2268.08 959284
3 2268.08 955997
3 2268.08 950189
3 2268.81 944244
3 2269.35 919390
3 2269.35 919303
3 2269.35 904892
3 2269.35 898933
3 2269.35 898568
3 2269.35 890409
3 2269.35 890331
3 2270 888621
3 2270 885111
3 2270 884707
3 2270.55 883940
3 2271.35 875386
3 2271.75 873503
3 2271.75 871030
3 2274.5 870399
3 2274.5 868905
3 2274.92 867632
3 2282.11 999453
3 2282.11 996073
3 2282.11 949984
3 2282.11 945619
3 2282.11 941631
3 2282.11 933044
3 2282.43 931495
3 2282.43 919566
3 2282.43 907764
3 2282.7 907067
3 2282.95 906184
3 2283.65 904206
3 2283.65 902739
3 2284.08 900823
3 2284.08 899453
3 2284.08 895813
3 2286.07 895454
3 2296.05 947374
3 2296.05 945848
3 2296.05 935846
3 2296.05 927259
3 2296.05 922287
3 2296.05 917277
3 2296.05 914558
3 2296.62 911653
3 2296.89 907870
3 2296.89 900424
3 2297.67 897864
3 2297.97 897858
3 2299.81 892777
3 2299.81 888412
3 2308.01 886960
3 2308.01 885059
3 2308.5 883196
3 2308.76 881581
3 2308.76 880723
3 2310.22 1013781
3 2310.22 1004766
3 2310.22 997654
3 2310.22 952185
3 2310.22 948130
3 2310.22 944615
3 2310.61 939451
3 2310.61 927509
3 2310.61 926027
3 2310.61 909947
3 2310.61 898596
3 2310.94 893613
3 2310.94 891355
3 2311.22 889404
3 2311.68 885400
3 2324.05 941054
3 2324.05 930460
3 2324.05 929549
3 2324.05 928833
3 2324.51 920283
3 2324.51 918820
3 2324.51 915935
3 2324.51 913626
3 2324.51 909261
3 2325.37 909084
3 2326.16 907761
3 2326.16 906436
3 2326.16 903640
3 2326.59 902751
3 2326.59 897548
3 2326.59 897401
3 2326.59 893070
3 2326.59 892889
3 2327.05 890054
3 2327.05 887391
3 2327.05 887258
3 2327.05 886995
3 2338.11 980224
3 2338.11 967523
3 2338.11 960124
3 2338.11 945557
3 2338.11 943535
3 2338.11 936718
3 2338.42 933533
3 2338.42 923669
3 2338.42 913227
3 2338.42 910536
3 2338.42 904912
3 2338.42 902608
3 2338.96 896043
3 2338.96 894417
3 2339.22 893813
3 2339.22 893536
3 2339.22 892606
3 2340.74 886041
3 2352.21 1031505
3 2352.21 1006842
3 2352.21 982854
3 2352.21 974267
3 2352.21 961711
3 2352.21 958011
3 2352.21 946712
3 2352.54 946058
3 2352.54 941827
3 2352.54 930520
3 2352.54 901339
3 2352.54 899883
3 2352.54 896019
3 2352.54 895057
3 2352.84 892514
3 2352.84 887602
3 2352.84 886890
3 2352.84 883774
3 2352.84 878979
3 2352.84 876620
3 2353.16 875885
3 2353.16 871149
3 2366.04 998936
3 2366.04 989125
3 2366.04 967497
3 2366.04 965571
3 2366.04 961206
3 2366.35 952044
3 2366.35 937989
3 2366.6 918716
3 2366.6 917267
3 2367.08 916738
3 2367.08 911274
3 2367.08 910551
3 2367.36 908478
3 2367.36 906601
3 2367.6 906296
1 2369.18 903361
3 2369.18 900452
3 2369.18 900234
3 2369.45 896601
3 2369.45 896274
3 2369.45 894828
3 2380.16 988182
3 2380.16 971496
3 2380.16 960250
3 2380.16 940208
3 2380.16 940091
3 2380.16 931621
3 2380.16 926794
3 2380.16 925092
3 2380.7 924929
3 2380.7 912580
3 2380.7 903341
3 2380.7 900868
3 2381.14 892981
3 2381.14 888097
3 2381.14 887640
3 2381.14 885121
3 2381.42 882325
3 2394.03 1004373
3 2394.03 995786
3 2394.03 982840
3 2394.03 961153
3 2394.03 933874
3 2394.03 929068
3 2394.03 925303
3 2394.03 919200
3 2394.03 916727
3 2394.37 915568
3 2394.37 915269
3 2394.37 912772
3 2394.37 906466
3 2394.37 904185
3 2394.37 899183
3 2394.76 890048
3 2394.76 888256
3 2394.76 885449
3 2395.19 884392
3 2395.19 880027
3 2397.48 875443
3 2397.48 874011
3 2398.43 872455
3 2398.43 872273
3 2398.43 870361
3 2399.89 869993
3 2408.07 959876
3 2408.07 958299
3 2408.07 951393
3 2408.07 918457
3 2408.07 917781
3 2408.07 914429
3 2408.07 913416
3 2408.07 909663
3 2409.12 907201
3 2412.12 901076
3 2412.12 895063
3 2412.46 894710
3 2413.09 894112
3 2413.48 892358
3 2414.66 888261
3 2415.2 886621
3 2422.17 934492
3 2422.17 910471
3 2422.17 907076
3 2422.17 903212
3 2422.17 897547
3 2422.46 893867
3 2422.46 888384
3 2422.46 883661
3 2422.46 879552
3 2422.46 877845
3 2422.73 877574
3 2422.73 873981
3 2436.16 1037172
3 2436.16 1034376
3 2436.16 993992
3 2436.16 970004
3 2436.16 932281
3 2436.16 931485
3 2436.16 917327
3 2436.16 915004
3 2436.51 910639
3 2436.51 874107
3 2436.51 871923
3 2436.51 863061
3 2450.2 967328
3 2450.2 963327
3 2450.2 948090
3 2450.2 942754
3 2450.2 936597
3 2450.2 924374
3 2450.2 920009
3 2450.56 917213
3 2450.56 911952
3 2450.56 910412
3 2450.56 909090
3 2450.84 908182
3 2451.06 902669
3 2451.06 898670
3 2451.33 898224
3 2451.33 897158
3 2451.58 893214
3 2451.58 892793
1 2463.07 889608
3 2464.19 953085
3 2464.19 949638
3 2464.19 947461
3 2464.19 945574
3 2464.19 943384
3 2464.19 914369
3 2464.19 909706
3 2464.19 906970
3 2464.7 904363
3 2464.7 892971
3 2465.62 892911
3 2465.62 891649
3 2465.62 889176
3 2478.18 1080429
3 2478.18 1080058
3 2478.18 1077262
3 2478.18 1062712
3 2478.18 1038724
3 2478.18 998340
3 2478.18 997809
3 2478.18 988306
3 2478.18 961915
3 2478.18 949293
3 2478.18 943773
3 2478.18 943669
3 2478.76 938350
3 2478.76 936328
3 2478.76 903128
3 2478.76 900588
3 2479.22 900332
3 2480.8 885854
3 2481.2 880401
3 2481.96 879209
3 2492.23 967865
3 2492.23 962536
3 2492.23 959278
3 2492.23 956286
3 2492.23 921192
3 2492.23 920747
3 2492.23 919839
3 2492.23 917125
3 2492.23 909256
3 2492.78 908786
3 2492.78 898150
3 2493.19 897979
3 2493.99 895514
3 2493.99 894600
3 2493.99 893751
3 2493.99 891958
3 2494.44 891166
3 2494.83 890253
3 2495.15 886352
3 2495.15 880965
3 2495.15 879042
3 2495.41 877178
3 2495.41 874705
3 2495.64 873468
3 2495.64 872298
3 2495.87 871909
3 2506.16 968151
3 2506.16 962708
3 2506.16 952706
3 2506.16 947161
3 2506.16 942334
3 2506.16 906028
3 2506.16 903544
3 2506.16 896235
3 2506.16 895320
3 2506.16 893816
3 2506.16 890368
3 2506.57 889451
3 2507.51 888118
3 2507.51 884063
3 2507.98 882052
3 2520.17 994262
3 2520.17 987574
3 2520.17 963586
3 2520.17 947933
3 2520.17 929369
3 2520.17 925314
3 2520.17 916727
3 2520.17 915554
3 2520.71 914862
3 2520.71 910139
3 2520.71 903788
3 2520.71 884085
3 2520.71 881854
3 2521.17 877107
3 2521.17 873052
3 2521.57 871207
3 2521.57 869396
3 2525.65 868687
3 2534.02 1051165
3 2534.02 1036667
3 2534.02 1019753
3 2534.02 986446
3 2534.02 971896
3 2534.02 964819
3 2534.02 962460
3 2534.02 938472
3 2534.53 912725
3 2534.53 910878
3 2534.53 910206
3 2534.53 905871
3 2534.82 903000
3 2534.82 901957
3 2535.06 900349
3 2535.29 900204
3 2535.54 893564
3 2535.54 891780
3 2535.79 885443
3 2535.79 883188
3 2536.08 878159
3 2536.32 876819
3 2538.48 873913
3 2539.25 870721
3 2548.1 990251
3 2548.1 987455
3 2548.1 968823
3 2548.1 960598
3 2548.1 951468
3 2548.1 945259
3 2548.1 942881
3 2548.45 937928
3 2548.45 935080
3 2548.45 926882
3 2548.75 917360
3 2549.12 913512
3 2550.4 901097
3 2550.65 898962
3 2555.39 897294
3 2555.39 884306
3 2555.39 880580
3 2555.84 878822
3 2556.25 877971
1 2561.36 876795
3 2561.36 876358
3 2561.64 873999
3 2561.64 872383
3 2562.15 1054128
3 2562.15 1016925
3 2562.15 991352
3 2562.15 986691
3 2562.15 976836
3 2562.15 972471
3 2562.15 963206
3 2562.15 959385
3 2562.49 956001
3 2562.49 947414
3 2562.49 941946
3 2562.49 939473
3 2562.49 933473
3 2562.49 932396
3 2562.49 926728
3 2562.49 922673
3 2562.8 922410
3 2562.8 918411
3 2562.8 917899
3 2562.8 917570
3 2562.8 917236
3 2562.8 913237
3 2563.21 902156
3 2563.21 900794
3 2563.64 898559
3 2564.03 897660
3 2564.03 896086
3 2564.03 893295
3 2564.03 891100
3 2564.4 888180
3 2564.4 874022
3 2576.06 998247
3 2576.06 993916
3 2576.06 993055
3 2576.06 992639
3 2576.06 987629
3 2576.06 970644
3 2576.06 963397
3 2576.57 948172
3 2576.57 945095
3 2576.57 944959
3 2576.57 943639
3 2576.57 941254
3 2576.57 940904
3 2576.57 940176
3 2576.57 935180
3 2576.57 934576
3 2577.09 926746
3 2577.09 919279
3 2577.09 918353
3 2577.09 908748
3 2577.55 907461
3 2577.55 905952
3 2577.55 897863
3 2578.79 879103
3 2580.77 878515
3 2590.22 990987
3 2590.22 986065
3 2590.22 926031
3 2590.22 923033
3 2590.22 915634
3 2590.22 911269
3 2590.22 900088
3 2590.22 899066
3 2590.22 890673
3 2590.78 889646
3 2590.78 888200
3 2591.59 888007
3 2593.59 874276
3 2594 870671
3 2594 870495
3 2594 869633
3 2594 866849
3 2594.85 864376
3 2604.12 941726
3 2604.12 915079
3 2604.12 896914
3 2604.12 893677
3 2604.12 889889
3 2604.12 888879
3 2604.46 888420
3 2604.46 887687
3 2604.46 886503
3 2604.83 877254
3 2604.83 874659
3 2604.83 873144
3 2604.83 869131
3 2604.83 868885
3 2606.09 868147
3 2606.09 867293
3 2606.09 865841
3 2606.52 865152
3 2606.52 863970
3 2609.19 863349
3 2618.12 999643
3 2618.12 976757
3 2618.12 958937
3 2618.12 955579
3 2618.12 954503
3 2618.12 915984
3 2618.53 903583
3 2618.53 899218
1 2625.53 895463
3 2625.79 889177
3 2625.79 888759
3 2626.04 888614
3 2626.04 887571
3 2626.29 883135
3 2626.29 882309
3 2626.29 881148
3 2626.29 879178
3 2626.55 875059
3 2626.55 872961
3 2626.55 870694
3 2626.55 870165
3 2632.11 1054546
3 2632.11 1044544
3 2632.11 1025271
3 2632.11 981352
3 2632.11 974941
3 2632.11 948813
3 2632.11 938998
3 2632.11 934076
3 2632.11 927902
3 2632.11 907135
3 2632.11 899958
3 2632.11 895903
3 2632.11 888504
3 2632.11 884139
3 2632.11 879685
3 2632.6 879129
3 2632.6 875235
3 2632.6 874507
3 2633.78 871800
3 2636.47 868687
3 2646.14 1037524
3 2646.14 1030384
3 2646.14 986465
3 2646.14 946081
3 2646.14 928864
3 2646.14 915626
3 2646.14 914986
3 2646.14 907869
3 2646.14 904558
3 2646.14 903249
3 2646.14 901550
3 2646.14 900799
3 2646.14 896967
3 2646.74 894494
3 2646.74 894085
3 2646.74 893874
3 2646.74 891422
3 2646.74 891078
3 2647.21 885972
3 2647.6 885918
3 2647.6 885831
3 2648.8 883146
3 2660.2 1029976
3 2660.2 1015066
3 2660.2 1003330
3 2660.2 1002399
3 2660.2 986746
3 2660.2 977182
3 2660.2 975019
3 2660.2 967994
3 2660.2 966742
3 2660.2 938391
3 2660.2 936383
3 2660.2 927774
3 2660.2 921676
3 2660.2 909958
3 2660.96 908016
3 2660.96 905220
3 2660.96 904269
3 2661.36 903374
3 2661.36 900783
3 2661.36 897847
3 2661.36 895374
3 2661.65 893384
3 2661.65 891864
3 2661.96 889750
3 2662.2 889188
3 2662.64 887058
3 2662.87 886826
3 2663.34 882962
3 2674.04 1041150
3 2674.04 985838
3 2674.04 975836
3 2674.04 973040
3 2674.04 956157
3 2674.04 954413
3 2674.35 945125
3 2674.35 939501
3 2674.35 928288
3 2674.35 915091
3 2674.35 911872
3 2674.35 909755
3 2674.92 886176
3 2674.92 881333
3 2674.92 879823
3 2675.2 878777
3 2688.34 1033872
3 2688.34 1032563
3 2688.34 1017325
3 2688.34 1005814
3 2688.34 1001449
3 2688.34 991579
3 2688.34 967591
1 2688.34 966834
3 2688.34 964656
3 2688.34 960923
3 2688.34 947842
3 2688.34 939255
3 2688.34 930648
3 2688.34 924705
3 2688.97 907280
3 2688.97 894882
3 2688.97 894394
3 2688.97 892081
3 2689.43 887627
3 2689.43 883726
3 2689.84 882467
3 2689.84 882235
3 2689.84 881443
3 2689.84 876433
3 2690.28 876330
3 2691.05 876166
3 2691.05 873960
3 2702.16 1041601
3 2702.16 1024748
3 2702.16 1021442
3 2702.16 997454
3 2702.16 953279
3 2702.16 950394
3 2702.16 939534
3 2702.16 925236
3 2702.16 911875
3 2702.48 909750
3 2702.48 893409
3 2702.48 892337
3 2702.74 892064
3 2702.74 890439
3 2703.09 888478
3 2703.09 887643
3 2703.77 887185
3 2703.77 882820
3 2707.48 877504
3 2716.16 1022759
3 2716.16 1018088
3 2716.16 983674
3 2716.16 979309
3 2716.16 973538
3 2716.16 971076
3 2716.16 946068
3 2716.16 945355
3 2716.16 937507
3 2716.16 932691
3 2716.16 907112
3 2716.16 900554
3 2716.85 895963
3 2716.85 889552
3 2716.85 889528
3 2716.85 886732
3 2726.41 886075
3 2730.23 984156
3 2730.23 984120
3 2730.23 984057
3 2730.23 976703
3 2730.23 961050
3 2730.23 946500
3 2730.23 936498
3 2730.23 914932
3 2730.56 904701
3 2730.56 899241
3 2730.56 896114
3 2730.56 896027
3 2730.84 895763
3 2731.54 893175
3 2731.54 883682
3 2731.54 876095
3 2731.8 874380
3 2732.03 871171
3 2732.27 867513
3 2732.5 863148
3 2733.62 861433
3 2733.85 860298
3 2734.29 859149
3 2744.25 1025905
3 2744.25 986204
3 2744.25 971654
3 2744.25 956001
3 2744.25 950377
3 2744.25 941470
3 2744.25 935544
3 2744.25 902379
3 2744.85 899917
3 2744.85 893792
3 2744.85 866911
3 2744.85 864744
3 2745.31 864407
3 2745.31 862209
3 2745.31 860139
3 2758.12 1038404
3 2758.12 1029817
3 2758.12 1015267
3 2758.12 979401
3 2758.12 955413
3 2758.12 951935
3 2758.12 946250
3 2758.12 935885
3 2758.12 934041
3 2758.12 933451
3 2758.12 929086
3 2758.12 914354
3 2759.54 911916
3 2759.54 907789
3 2759.8 903731
3 2761.08 898746
3 2761.08 898040
3 2761.08 895950
3 2761.08 894569
3 2761.08 893437
3 2761.08 887363
3 2761.74 886196
3 2765.86 883160
3 2765.86 881912
3 2766.11 881629
3 2766.11 881541
3 2766.11 880698
3 2766.36 873556
3 2766.81 873359
3 2772.08 1036304
3 2772.08 1029367
3 2772.08 990848
3 2772.08 959126
3 2772.08 956330
3 2772.08 947743
3 2772.08 928740
3 2772.08 928470
3 2772.41 928151
3 2772.41 926106
3 2772.41 922107
3 2772.69 919311
3 2772.69 918451
3 2772.69 916719
3 2772.95 913070
3 2772.95 898910
3 2773.54 896114
3 2773.94 893173
3 2774.32 892616
3 2775.46 888919
3 2776.11 880294
3 2776.61 878475
3 2776.61 877498
3 2777.25 876572
3 2777.25 876195
3 2777.25 873418
3 2786.09 980804
3 2786.09 972217
3 2786.09 956564
3 2786.09 918045
3 2786.09 912990
3 2786.4 911206
3 2786.4 910130
3 2786.4 905765
3 2786.4 904818
3 2786.4 902419
3 2786.69 902213
3 2786.69 900226
3 2786.69 895038
3 2786.69 893794
3 2786.69 893570
3 2787.7 889795
3 2788.31 880713
3 2791.17 876282
3 2791.57 875373
query_times: 120
Score = 861964
