    Blocking waiting for file lock on package cache
    Blocking waiting for file lock on package cache
    Finished `release` profile [optimized] target(s) in 0.06s
     Running `target/release/tester ../a.out 0008`
3 0.021 1028631
3 0.021 1027030
3 0.021 1025089
3 0.021 1006551
3 0.021 1000179
3 0.021 1000044
3 0.54 989375
3 0.54 989230
3 0.54 986379
3 0.54 985282
3 0.54 983457
3 0.54 983172
3 0.54 981450
3 0.897 979387
3 0.897 970368
3 0.897 967403
3 0.897 965578
3 0.897 962659
3 0.897 959808
3 1.259 958071
3 1.259 957667
3 1.516 957415
3 14.086 1085984
3 14.086 1078412
3 14.086 1069787
3 14.086 1050333
3 14.086 1047615
3 14.086 1037741
3 14.086 1034090
3 14.086 1033062
3 14.086 1032406
3 14.086 1018924
3 14.499 1017491
3 14.499 1010248
3 14.499 1009678
3 14.499 1007624
3 14.499 996838
3 14.818 996386
3 14.818 994332
3 14.818 987627
3 15.114 982255
3 15.114 981818
3 15.414 980340
3 15.414 971485
3 15.414 970927
3 15.414 965493
3 15.947 963858
3 16.191 960401
3 20.511 958372
3 20.511 956750
3 20.511 956094
3 28.191 1019094
3 28.191 1017065
3 28.191 1010073
3 28.191 1008707
3 28.191 1001749
3 28.191 999781
3 28.545 984267
3 28.545 979356
3 28.545 974767
3 28.545 970299
3 29.072 966166
3 29.072 950382
3 42.112 1061435
3 42.112 1058855
3 42.112 1052252
3 42.112 1038522
3 42.112 1022773
3 42.112 1022753
3 42.112 1009650
3 42.112 998977
3 42.112 992990
3 42.112 986413
3 42.491 983479
3 42.491 979695
3 42.963 961815
3 42.963 955827
3 43.219 952228
3 43.219 947414
3 43.711 947182
3 56.119 1123738
3 56.119 1058299
3 56.119 1035041
3 56.119 1024087
3 56.119 1005263
3 56.119 1000709
3 56.119 995321
3 56.119 992274
3 56.119 990220
3 56.119 986706
3 56.714 984178
3 56.714 983522
3 56.714 974540
3 57.083 969524
3 57.083 966059
3 57.432 962735
3 57.432 961817
3 57.432 955872
3 70.259 1099275
3 70.259 1075116
3 70.259 1045611
3 70.259 1027512
3 70.259 1023308
3 70.259 1022736
3 70.259 1010132
3 70.259 1003601
3 70.259 987817
3 70.259 986636
3 70.259 978823
3 70.997 978631
3 70.997 977771
3 70.997 969436
3 70.997 962545
3 70.997 960017
3 84.31 1048375
3 84.31 1021991
3 84.31 1020205
3 84.31 1010355
3 84.778 1005887
3 84.778 991926
3 84.778 986117
3 84.778 981016
1 85.58 973769
3 85.58 972415
3 85.972 963930
3 86.284 963132
3 86.284 961175
3 86.284 960519
3 86.284 957325
3 86.284 952857
3 86.692 948529
3 86.692 946001
3 89.625 939914
3 89.625 935323
3 89.625 934667
3 89.625 932757
3 98.15 1113306
3 98.15 1101781
3 98.15 1071680
3 98.15 1064108
3 98.15 1050378
3 98.15 1048324
3 98.15 1047899
3 98.15 1020850
3 98.15 1018322
3 98.15 1008343
3 98.937 1005662
3 98.937 992615
3 98.937 989627
3 98.937 988980
3 98.937 988324
3 98.937 981919
3 99.62 978489
3 99.62 973521
3 99.62 971767
3 99.62 970356
3 99.62 967667
3 100.65 964058
3 100.65 963741
3 104.921 963557
3 104.921 962823
3 104.921 962224
3 105.445 946979
3 105.891 946888
3 105.891 946232
3 112.158 1053626
3 112.158 1051781
3 112.158 1012330
3 112.158 1004299
3 112.158 985261
3 112.158 984534
3 112.158 974837
3 112.158 965919
3 112.838 954174
1 119.738 953949
3 119.738 953546
3 119.738 948140
3 120.262 940961
3 126.284 1072468
3 126.284 1051844
3 126.284 1038114
3 126.284 1023022
3 126.284 1018358
3 126.284 1014177
3 126.284 1006860
3 126.284 1002756
3 127.036 989274
3 127.036 988115
3 127.036 983817
3 127.036 978865
3 127.611 977040
3 127.611 975240
3 128.078 968587
3 128.078 967678
3 128.078 964484
3 128.078 963984
3 128.597 963656
3 128.597 960016
3 130.636 953766
3 131.467 953110
3 140.11 1032295
3 140.11 1030241
3 140.11 1020979
3 140.11 1007307
3 140.11 1007254
3 140.11 1002241
3 140.598 1000731
3 140.598 997987
3 140.598 985118
3 140.991 982368
3 141.312 980650
3 141.312 979298
3 141.312 978078
3 142.27 975997
3 142.588 971040
3 142.588 969302
3 142.588 968986
3 154.259 1079742
3 154.259 1068449
3 154.259 1049961
3 154.259 1034478
3 154.259 1033124
3 154.259 1032444
3 154.259 1022460
3 154.259 1011491
3 154.259 1009859
3 154.259 1008197
3 154.259 1001917
3 154.259 1001876
3 154.259 988187
3 154.941 976465
3 154.941 971370
3 155.36 969133
3 155.36 959062
3 155.36 956592
3 155.36 956566
3 168.078 1107115
3 168.078 1099115
3 168.078 1099085
3 168.078 1092052
3 168.078 1076960
3 168.078 1071151
3 168.078 1057749
3 168.078 1043634
3 168.078 1040424
3 168.078 1037896
3 168.078 1036868
3 168.078 1033108
3 168.753 1026363
3 168.753 1006720
3 168.753 1003662
3 168.753 1003202
3 168.753 997393
3 168.753 994466
3 168.753 981178
3 169.463 979128
3 169.946 971350
3 169.946 970224
3 169.946 969293
3 169.946 965673
3 171.392 964758
3 171.392 964102
3 171.392 963478
3 171.924 961535
3 172.392 957664
3 172.392 957204
3 172.392 956580
3 175.052 956390
3 175.052 950581
3 182.203 1107895
3 182.203 1100588
3 182.203 1086058
3 182.203 1083652
3 182.203 1059084
3 182.203 1057030
3 182.203 1037682
3 182.203 1034831
3 182.954 1018453
3 182.954 1008305
3 182.954 989688
3 182.954 985463
3 182.954 981336
3 183.56 979282
3 183.56 976774
3 183.56 975070
3 183.56 970211
3 183.56 965724
3 184.185 964408
3 184.185 963407
3 184.185 957634
3 184.742 954938
3 184.742 953857
3 184.742 953156
3 186.609 952032
3 186.609 949157
3 196.254 1047374
3 196.254 1044846
3 196.254 1027570
3 196.254 1013822
3 196.254 989926
3 196.68 984472
3 196.68 981425
3 197.027 981128
3 197.027 975078
3 197.027 974422
3 197.027 972368
3 197.383 972350
3 197.711 972309
3 197.711 971560
3 198.101 969704
3 198.101 965811
3 198.101 961014
3 198.485 959581
3 198.796 958367
3 198.796 955575
3 199.18 955524
3 201.976 954154
3 201.976 953922
3 202.307 948711
3 202.307 947915
3 202.648 945971
3 202.976 942751
3 202.976 942645
3 202.976 942367
3 203.351 942261
3 203.351 936558
3 210.097 1049575
3 210.097 1038676
3 210.097 1037517
3 210.097 1036896
3 210.097 1029460
3 210.097 1028442
3 210.097 1019939
3 210.097 1013052
3 210.097 1010188
3 210.724 1009329
3 210.724 1006787
3 210.724 1000896
3 211.122 984664
3 211.122 979430
3 211.122 977752
3 211.122 963974
3 211.544 963754
3 211.544 960768
3 211.911 960112
3 212.783 959569
3 212.783 955033
3 212.783 954227
3 214.864 953285
3 216.956 952173
3 224.122 1004922
3 224.122 993653
3 224.122 992997
3 224.122 986990
3 224.122 986009
3 224.122 982524
3 224.786 981177
3 227.519 979095
3 227.995 966917
3 227.995 966156
3 227.995 961684
3 228.534 961028
3 229.014 959681
3 238.397 1038868
3 238.397 1038212
3 238.397 1036094
3 238.397 1036010
3 238.397 1020890
3 238.397 1001852
3 238.397 996260
3 238.397 995232
3 239.119 992402
3 239.119 986593
3 239.621 982969
3 239.621 980503
3 239.621 964891
3 242.249 963995
3 242.249 960670
3 242.249 959034
3 243.21 954923
3 243.713 953098
3 244.217 952312
3 244.217 951694
3 244.217 949640
3 246.994 948738
3 246.994 946707
3 247.912 943134
3 252.019 1089302
3 252.019 1086024
3 252.019 1072026
3 252.019 1037745
3 252.019 1023816
3 252.019 1018007
3 252.019 1012616
3 252.019 990122
3 252.708 989710
3 252.708 988156
3 252.708 987492
3 252.708 985540
3 253.258 974602
3 253.258 967112
3 253.258 965660
3 253.258 964162
3 253.821 961192
3 254.303 959596
3 254.303 959138
3 256.454 959073
3 256.454 957019
3 256.937 954967
3 256.937 953620
3 259.615 953029
3 266.308 1035132
3 266.308 1032288
3 266.308 1031033
3 266.308 1018454
3 266.308 1008615
3 266.907 1004330
3 266.907 1001043
3 266.907 983922
3 266.907 977689
3 266.907 974153
3 266.907 967957
3 267.514 965883
3 267.514 965528
3 268.01 962379
3 268.01 959851
3 268.01 957884
3 268.01 955614
3 271.164 954093
3 280.173 1038107
3 280.173 1035260
3 280.173 1016791
3 280.173 1011182
3 280.173 1006903
3 280.173 1006436
3 280.173 1004052
3 280.173 1003451
3 280.173 1000527
3 280.173 990636
3 280.927 988895
3 280.927 987875
3 280.927 987219
3 280.927 983735
3 281.518 981681
3 281.518 979438
3 282.423 975799
3 282.423 974452
3 282.423 971405
3 282.423 969351
3 282.423 966823
3 294.083 1093884
3 294.083 1083211
3 294.083 1080683
3 294.083 1073166
3 294.083 1055990
3 294.083 1051107
3 294.083 1040434
3 294.741 1034608
3 294.741 1022618
3 294.741 1006890
3 295.277 1003121
3 295.277 996798
3 295.277 987870
3 295.277 986977
3 295.277 986322
3 295.277 984359
3 295.277 984341
3 295.919 983309
3 295.919 978710
3 296.843 976244
3 296.843 976066
3 298.199 970107
3 298.199 970041
3 298.199 967513
3 298.709 964161
3 298.709 964148
3 299.692 963505
3 300.15 961811
3 301.046 955461
3 301.958 954577
3 302.424 952833
3 302.424 952177
3 308.299 1065489
3 308.299 1064142
3 308.299 1052582
3 308.299 1042743
3 308.299 1007967
3 308.299 1001416
3 308.299 999708
3 308.299 998103
3 308.299 994237
3 308.299 993899
3 308.997 987641
3 308.997 979545
3 308.997 977017
3 308.997 976025
3 309.982 973167
3 310.888 971647
3 310.888 966596
3 310.888 964068
3 310.888 963412
3 311.405 963183
3 314.989 961663
3 314.989 961573
3 322.194 1082162
3 322.194 1070621
3 322.194 1053597
3 322.194 1043613
3 322.194 1038379
3 322.194 1026607
3 322.194 1021506
3 322.839 1017876
3 322.839 1004230
3 323.323 980006
3 323.323 979995
3 323.323 979330
3 323.829 977793
3 324.33 973257
3 324.33 955195
3 324.806 954952
3 325.283 954160
3 336.129 1089883
3 336.129 1076749
3 336.129 1063297
3 336.129 1063267
3 336.129 1058990
3 336.129 1039569
3 336.129 1028812
3 336.129 1012307
3 336.129 1010279
3 336.129 1007751
3 336.129 1000891
3 336.915 995467
3 336.915 994811
3 336.915 994004
3 336.915 993319
3 336.915 990440
3 337.492 987912
3 337.939 987256
3 337.939 986160
3 337.939 985689
3 337.939 984591
3 337.939 981113
3 338.514 978364
3 338.514 975760
3 338.514 973232
3 338.514 967423
3 338.514 965369
3 339.529 963666
3 339.979 963383
3 350.364 1086481
3 350.364 1075798
3 350.364 1073270
3 350.364 1070384
3 350.364 1017679
3 350.364 1007862
3 350.364 999210
3 350.364 995548
3 351.044 995311
3 351.044 991660
3 351.044 985851
3 351.044 984766
3 351.044 983279
3 351.044 982722
3 351.044 973566
3 351.699 967757
3 351.699 967101
3 351.699 962335
3 351.699 961013
3 351.699 955204
3 352.297 948396
3 364.31 1005163
3 364.31 1003579
3 364.31 992625
3 364.31 980608
3 364.884 977582
3 364.884 969651
3 364.884 961990
3 364.884 960558
3 365.465 957775
3 365.465 956428
3 378.117 1078067
3 378.117 1058913
3 378.117 1035112
3 378.117 1024632
3 378.117 1013678
3 378.117 1010858
3 378.117 1008966
1 378.117 1004771
3 378.117 998417
3 378.117 991540
3 378.867 991072
3 378.867 982536
3 378.867 980798
3 379.388 976343
3 379.388 973815
3 379.388 972870
3 379.388 972214
3 379.926 968982
3 379.926 966450
3 379.926 964653
3 380.431 961410
3 381.302 960624
3 381.302 958844
3 381.302 956144
3 381.837 950534
3 382.282 949878
3 391.083 945124
3 392.303 1063251
3 392.303 1054496
3 392.303 1050845
3 392.303 1049498
3 392.303 1041530
3 392.303 1038679
3 392.303 1037856
3 392.303 1035313
3 392.303 1034696
3 392.303 1034372
3 393.048 1030212
3 393.048 1029095
3 393.048 1017196
3 393.048 1010776
3 393.642 1010120
3 394.092 998342
3 394.092 996912
3 394.092 985557
3 394.092 985166
3 394.092 984128
3 394.684 977895
3 394.684 976495
3 394.684 975839
3 395.632 972817
3 396.08 971610
3 396.08 958563
3 403.148 958409
3 403.148 953941
3 404.043 950489
3 404.495 949833
3 406.195 1112589
3 406.195 1093293
3 406.195 1045200
3 406.195 1036258
3 406.195 1034828
3 406.195 1033795
3 406.195 1018011
3 406.195 998283
3 406.195 995775
3 406.886 994768
3 406.886 991917
3 406.886 990710
3 407.489 973534
3 407.489 972202
3 407.965 972100
3 408.414 970961
3 408.414 970305
3 414.014 969453
3 420.17 1046234
3 420.17 1041043
3 420.17 1016491
3 420.17 1001797
3 420.17 987396
3 420.17 984814
3 420.17 983575
3 420.808 981047
3 420.808 978162
3 421.277 977250
3 421.742 976815
3 423.027 973880
3 423.027 965529
3 423.027 959331
3 434.237 1133666
3 434.237 1131915
1 434.237 1087497
3 434.237 1077114
3 434.237 1054516
3 434.237 1038060
3 434.237 1037240
3 434.237 1036739
3 434.237 1010912
3 434.949 1003166
3 435.428 991845
3 435.428 985890
3 435.428 980322
3 435.428 979503
3 435.963 968984
3 435.963 968906
3 435.963 966852
3 436.475 964355
3 436.475 963171
3 437.391 961665
3 437.831 960849
3 438.265 959410
3 438.723 957698
3 438.723 955025
3 438.723 952608
3 438.723 951865
3 438.723 949337
3 439.311 947478
3 448.011 1030475
3 448.011 1027624
3 448.011 1020398
3 448.011 1006205
3 448.564 995442
3 449.031 987953
3 449.031 986203
3 449.031 985425
3 449.031 982897
3 449.584 972993
3 451.71 972603
3 456.403 972354
3 456.403 969503
3 456.403 965973
3 456.403 961711
3 456.403 960164
3 456.961 960073
3 457.443 956384
3 457.443 955728
3 457.905 955471
3 458.334 955114
3 458.334 953567
3 458.334 951549
3 459.245 951039
3 459.245 947604
3 459.245 947350
3 462.1 1041560
3 462.1 1028664
3 462.1 1026610
3 462.1 1012080
3 462.1 1011521
3 462.1 1003529
3 462.1 1000937
3 462.1 997893
3 462.1 993970
3 462.1 971806
3 462.803 970895
3 462.803 966955
3 462.803 961146
3 462.803 957725
3 462.803 957503
3 462.803 946750
3 463.841 946269
3 463.841 944071
3 476.384 1028040
3 476.384 1020148
3 476.384 1017101
3 476.384 1013361
3 476.384 1011277
3 476.384 997547
3 476.384 997135
3 476.384 995310
3 477.076 993725
3 477.543 981961
3 477.543 974315
3 477.543 961471
3 479.323 958321
3 479.323 954555
3 479.323 950047
3 479.323 944751
3 479.814 944699
3 490.184 1061229
3 490.184 1055420
3 490.184 1054073
3 490.184 1051222
3 490.184 1031579
3 490.184 1025234
3 490.184 1014555
3 490.184 1003152
3 490.184 993385
3 490.184 991326
3 490.75 989714
3 490.75 982255
3 491.106 979413
3 491.106 978066
3 491.106 977648
1 492.046 975180
3 492.046 971019
3 492.046 969937
3 492.394 959073
3 492.394 958260
3 492.967 953201
3 492.967 952549
3 493.812 951329
3 493.812 951005
3 494.174 950349
3 494.47 950184
3 494.768 948544
3 496.1 942735
3 497.015 942612
3 498.265 942043
3 499.516 941605
3 499.516 939551
3 504.036 1053685
3 504.036 1047245
3 504.036 1015357
3 504.036 1012972
3 504.036 1008504
3 504.036 1005867
3 504.036 999786
3 504.655 997258
3 504.655 991328
3 504.655 989672
3 504.655 983842
3 505.628 979493
3 506.074 974003
3 518.033 1081109
3 518.033 1048278
3 518.033 1031513
3 518.033 1021467
3 518.033 993173
3 518.033 990808
3 518.033 986196
3 519.122 984301
3 519.122 977721
3 519.122 973347
3 519.122 968672
3 519.122 966139
3 519.122 965021
3 520.149 961556
3 520.626 956225
3 520.626 954397
3 521.11 953050
3 525.873 946221
3 526.337 944480
3 526.337 940249
3 526.819 940018
3 526.819 938671
3 532.136 1075904
3 532.136 1064099
3 532.136 1061900
3 532.136 1058678
3 532.136 1048694
3 532.136 1029070
3 532.136 1027908
3 532.136 1021498
3 532.136 1015926
3 532.85 1012028
3 532.85 997340
3 532.85 993617
3 532.85 993520
3 532.85 990034
3 532.85 989378
3 533.457 979272
3 533.457 977300
3 533.95 973463
3 533.95 967040
3 534.446 964512
3 534.882 963251
3 536.132 962790
1 537.432 957341
3 538.341 955229
3 538.341 953133
3 538.824 949769
3 546.261 1114795
3 546.261 1101065
3 546.261 1098300
3 546.261 1078657
3 546.261 1047867
1 546.261 1044517
3 546.261 1044402
3 546.261 1042598
3 546.261 1020000
3 546.817 1018281
3 546.817 1003276
3 546.817 1002071
3 546.817 1000017
3 547.225 997895
3 547.225 993846
3 547.225 978548
3 547.225 978252
3 547.629 974299
3 548.477 971745
3 550.418 969779
3 550.727 958825
3 551.029 956297
3 552.393 955011
3 552.69 954102
3 560.22 1051878
3 560.22 1044929
3 560.22 1039120
3 560.22 1029045
3 560.22 1018088
3 560.22 1017411
3 560.22 1012673
3 560.699 1009974
3 560.699 1000741
3 560.699 996730
3 560.699 992698
3 560.699 991784
3 560.699 991128
3 560.699 971485
3 561.195 971278
3 562.315 963985
3 563.755 953459
3 564.06 949455
3 574.171 1124161
3 574.171 1120379
3 574.171 1088797
3 574.171 1074892
3 574.171 1053980
3 574.171 1051013
3 574.171 1050357
3 574.171 1036724
3 574.171 1004361
3 574.171 999754
3 574.171 996789
3 574.171 989533
3 574.171 987479
3 574.171 986823
3 574.171 984753
3 574.855 970586
3 574.855 967918
3 575.209 964511
3 575.209 963680
3 575.209 960829
3 575.609 946931
3 575.609 945584
3 575.956 944778
3 575.956 944521
3 588.093 1037229
3 588.093 1035175
3 588.093 1018649
1 588.093 1012331
3 588.093 999069
3 588.093 995769
3 588.093 994601
3 588.093 994243
3 588.596 988665
3 588.596 988009
3 588.596 987614
3 588.973 978346
3 588.973 968928
3 588.973 964867
3 589.328 956784
3 589.328 954730
3 589.666 940319
3 602.212 1068359
3 602.212 1059604
3 602.212 1058420
3 602.212 1052802
3 602.212 1036663
3 602.212 1019387
3 602.212 1012827
3 602.716 1009102
3 602.716 1006200
3 602.716 999828
3 602.716 995651
3 602.716 994666
3 602.716 990000
3 602.716 984412
3 603.205 984306
3 603.205 980501
3 603.205 970503
3 603.582 969156
3 603.923 962497
3 603.923 957102
3 604.789 953767
3 604.789 952678
3 609.372 946292
3 610.782 938981
3 610.782 935548
3 610.782 934030
3 611.12 931784
3 616.218 1138542
3 616.218 1119246
3 616.218 1053807
3 616.218 1053531
3 616.218 1048183
3 616.218 1040611
3 616.218 1039404
3 616.218 1024470
3 616.218 1003586
3 616.218 1000463
3 616.218 1000449
3 616.804 996172
3 616.804 984042
3 616.804 980947
3 616.804 978893
3 617.189 978237
3 617.189 977870
3 617.189 971489
3 617.56 960186
3 617.56 959558
3 617.899 949254
3 617.899 949224
3 618.24 947608
3 630.214 1089663
3 630.214 1079854
3 630.214 1049730
3 630.214 1045172
3 630.214 1039190
3 630.214 1035976
3 630.214 1034369
3 630.214 1019219
3 630.214 1019189
3 630.214 998031
3 630.794 976970
3 630.794 976389
3 630.794 974138
3 630.794 972944
3 630.794 969037
3 631.228 967716
3 631.228 959551
3 631.228 957500
3 631.592 957023
3 631.592 956651
3 631.939 947871
3 632.516 947215
3 639.698 946900
3 640.839 941918
3 641.424 937450
3 641.731 935826
3 642.039 935170
3 644.271 1037099
3 644.271 1031290
3 644.271 1019859
3 644.271 1002835
3 644.271 992735
3 644.271 990075
3 644.748 988548
3 644.748 981684
3 644.748 975153
3 645.122 965314
3 645.122 965195
3 645.122 964539
3 645.122 962267
3 645.556 961279
3 647.334 960487
3 647.334 959761
3 658.182 1074474
3 658.182 1053114
3 658.182 1049922
3 658.182 1048575
3 658.182 1042413
3 658.182 1026745
3 658.182 1016978
3 658.182 993006
3 658.182 988419
3 658.182 987763
3 658.182 984716
3 658.182 983200
3 658.805 982897
3 658.805 965825
3 659.158 964559
3 659.158 962281
3 659.158 957116
3 659.158 951812
3 659.515 949090
3 659.515 947036
3 659.515 946820
3 659.515 946008
3 672.014 1034415
3 672.014 1034385
3 672.014 1027005
3 672.014 1016496
3 672.014 1013968
3 672.014 1003759
3 672.014 992977
3 672.014 991241
3 672.014 990650
3 672.014 980666
3 672.606 978612
3 672.606 964426
3 672.606 963333
3 672.97 962682
3 672.97 956873
3 673.309 956695
3 673.309 955526
3 686.055 1019006
3 686.055 1012543
3 686.055 1009692
3 686.055 990049
3 686.055 974180
3 686.495 973998
3 686.495 964697
3 686.854 964041
3 686.854 960118
3 686.854 960026
3 690.76 959253
3 691.633 957168
3 691.933 957009
3 693.562 955011
3 693.562 954355
3 694.961 951839
3 694.961 947329
3 695.303 947260
3 696.245 945275
3 700.053 1128583
3 700.053 1113491
3 700.053 1096166
3 700.053 1019214
3 700.053 1009699
3 700.053 1004453
3 700.053 999949
3 700.053 990287
3 700.053 986917
3 700.053 985570
3 700.551 978542
3 700.859 976014
3 701.424 973131
3 701.72 972683
3 702.02 971034
3 702.02 965960
3 702.344 965501
3 702.344 960845
3 702.344 959244
3 714.017 1049763
3 714.017 1042802
3 714.017 1027710
3 714.017 1022802
3 714.017 1014228
3 714.017 1007307
3 714.017 1002725
3 714.017 1000736
3 714.017 992886
3 714.017 987554
3 714.538 984571
3 714.538 982043
3 714.538 980693
3 714.899 975403
3 715.229 974591
3 716.333 952475
3 716.333 952126
3 716.637 951745
3 720.947 949900
3 728.119 1069422
3 728.119 1043738
3 728.119 1033929
3 728.119 1033924
3 728.119 1016037
3 728.119 1007396
3 728.119 1005483
3 728.119 1003860
3 728.119 991800
3 728.643 987999
3 728.643 987628
3 728.643 986413
3 729.071 976875
3 729.071 974053
3 729.071 970402
3 729.478 970175
3 729.82 970133
3 729.82 966874
3 729.82 955614
3 730.185 949917
3 737.431 949446
3 737.431 943335
3 737.431 943157
3 737.431 939066
3 737.431 937189
3 741.591 934759
3 742.155 1108865
3 742.155 1098203
3 742.155 1087649
3 742.155 1082676
3 742.155 1073309
3 742.155 1059827
3 742.155 1052793
3 742.155 1046984
3 742.155 1042551
3 742.693 1041839
3 742.693 1036767
3 742.693 1025375
3 742.693 1023619
3 742.693 1022554
3 742.693 1021886
3 742.693 1010468
3 742.693 1008022
3 743.272 1003537
3 743.272 1002213
3 743.272 1000191
3 743.783 999761
3 743.783 997707
3 743.783 991898
3 743.783 987164
3 744.31 976993
3 744.31 965430
3 744.801 963376
3 744.801 958398
3 756.237 1073755
3 756.237 1055291
3 756.237 1034576
3 756.237 1031972
3 756.237 1020915
3 756.868 1011581
1 756.868 1006652
3 756.868 1003964
3 756.868 994372
3 756.868 990234
3 756.868 988320
3 756.868 986915
3 757.541 984634
3 757.541 977441
3 757.541 970522
3 758.509 968741
3 759.369 967602
3 764.407 961917
3 770.296 1068623
3 770.296 1049469
3 770.296 1044368
3 770.296 1001596
3 770.296 987256
3 770.89 984914
3 771.346 982093
3 771.346 975487
3 771.346 970763
3 771.346 967721
3 771.346 966720
3 771.917 956881
3 771.917 952078
3 784.034 1043119
3 784.034 1009866
3 784.034 997933
3 784.034 990730
3 784.034 985757
3 784.628 980228
3 784.628 977767
3 784.628 974792
3 784.628 972264
3 785.176 970917
3 785.626 968863
3 785.626 967627
3 785.626 962556
3 786.148 962099
3 786.59 960752
3 787.437 959992
3 787.437 955524
3 798.385 1044704
3 798.385 1039639
3 798.385 1016374
3 798.385 1012502
3 798.385 1003910
3 798.961 999967
3 798.961 998608
3 798.961 985399
3 799.5 982614
3 799.951 975337
3 799.951 974251
3 800.443 974036
3 800.893 972008
3 800.893 969954
3 800.893 967500
3 800.893 958239
3 800.893 957413
3 801.455 955359
3 801.455 954436
3 801.917 949809
3 801.917 949153
3 801.917 947946
3 802.801 947262
3 802.801 946684
3 802.801 946013
3 802.801 945821
3 803.351 944474
3 803.351 943643
3 803.351 943254
3 804.311 942836
3 804.311 941288
3 804.311 940454
3 812.283 1022629
3 812.283 1015198
3 812.283 1004392
3 812.283 989656
3 812.283 976402
3 812.283 972361
3 812.283 964789
3 813.737 963786
3 813.737 961095
3 814.626 956195
3 814.626 950386
3 826.331 1043760
3 826.331 1037951
3 826.331 991805
3 826.331 987466
3 826.331 987207
3 826.921 984499
3 826.921 978333
3 826.921 969931
3 827.468 960897
3 827.468 953790
3 827.468 943552
3 827.981 942205
3 827.981 940590
3 827.981 940151
1 840.253 1195658
3 840.253 1144613
3 840.253 1125317
3 840.253 1119981
3 840.253 1117453
3 840.253 1109881
3 840.253 1109218
3 840.253 1096399
3 840.253 1090590
3 840.253 1073314
3 841.004 1065755
3 841.004 1061936
3 841.004 1029978
3 842.821 1029839
3 843.273 1029060
3 843.273 1024592
3 844.208 1015063
3 844.208 1013716
3 844.208 1012663
3 844.716 1012341
3 844.716 1012036
3 844.716 1007142
3 845.276 1000224
3 845.276 987449
3 845.774 977015
3 845.774 975851
3 846.287 975550
3 854.111 1126789
3 854.111 1124261
3 854.111 1020661
3 854.111 1007203
3 854.111 1004124
3 854.111 1002383
3 854.111 993628
3 854.762 989756
3 854.762 982892
3 854.762 977010
3 855.298 974977
3 855.298 974721
3 855.787 956636
3 855.787 956028
3 855.787 955683
3 856.73 954331
3 856.73 954108
3 866.127 948777
3 866.587 947520
3 867.842 946864
3 868.285 1071538
3 868.285 1025202
3 868.285 1018865
3 868.285 1018709
3 868.285 1013478
3 868.882 997384
3 869.794 994826
3 869.794 990972
3 869.794 982812
3 869.794 982347
3 870.772 980425
3 870.772 979819
3 873.417 976882
3 873.918 975447
3 874.862 974947
3 874.862 972847
3 874.862 963889
3 876.313 958203
3 876.313 955444
3 876.313 954326
3 876.313 949987
3 876.313 935370
1 878.603 934231
3 879.5 932472
3 880.372 930527
3 880.821 926663
3 882.16 1053261
3 882.16 1047741
3 882.16 1047085
3 882.16 1036085
3 882.16 1035498
3 882.16 1005608
3 882.16 1004372
3 882.16 1003312
3 882.16 1003025
3 882.16 995649
3 882.916 994993
3 882.916 993930
3 882.916 992716
3 883.915 980820
3 883.915 980690
3 884.416 980683
3 884.416 979466
3 884.416 978810
3 884.416 975529
3 884.976 975406
3 884.976 970927
3 885.471 968342
3 885.471 967686
3 885.471 965158
3 896.414 1097060
3 896.414 1090344
3 896.414 1075954
3 896.414 1041328
3 896.414 1038545
3 896.414 1037513
3 896.414 1015863
3 896.414 1014240
3 896.414 1006861
3 896.414 1003286
3 896.414 996877
3 896.414 994349
3 897.218 993871
3 897.218 988062
3 897.72 984722
3 897.72 975924
3 897.72 973396
3 897.72 972964
3 898.311 972923
3 898.784 967114
3 904.957 964484
3 904.957 963508
3 904.957 962402
3 904.957 954743
3 904.957 951858
3 905.531 951448
3 910.131 1017358
3 910.131 1003018
3 910.131 988593
3 910.131 981572
3 910.684 978721
3 911.145 969656
3 911.603 965515
1 924.032 1092254
3 924.032 1065709
3 924.032 1035232
3 924.032 1031175
3 924.032 1000762
3 924.032 1000073
3 924.032 996520
3 924.032 993929
3 924.717 993459
3 924.717 988991
3 927.819 985772
3 928.28 984242
3 928.28 981714
3 928.779 970285
3 930.197 968232
3 938.033 1072631
3 938.033 1055306
3 938.033 1029430
3 938.033 1013198
3 938.033 1010427
3 938.033 1009363
3 938.033 1008302
3 938.694 1007342
3 938.694 1001359
3 939.204 993951
3 939.204 991275
3 939.204 988304
3 939.707 988059
3 939.707 986859
3 939.707 977020
3 940.199 972977
3 940.649 970211
3 940.649 970091
3 940.649 969483
3 941.171 967563
3 941.171 957077
3 941.171 956892
3 941.68 956593
3 942.163 952704
3 946.177 951632
3 946.647 946701
3 946.647 940101
3 947.106 939445
3 952.248 1054404
3 952.248 1049004
3 952.248 1032478
3 952.248 1016246
3 952.248 1014626
3 952.248 1004140
3 952.248 997471
3 952.248 993268
3 952.248 990417
3 952.248 985403
3 953.011 984747
3 953.011 980996
3 953.011 975850
3 953.011 966556
3 953.011 964063
3 953.011 953593
3 954.062 949866
3 954.943 948584
3 954.943 947928
3 966.016 1072382
3 966.016 1054139
3 966.016 1052757
3 966.016 1052739
3 966.016 1035715
3 966.016 1025831
3 966.016 1022945
3 966.016 1018014
3 966.016 1007312
3 966.016 1003173
3 966.016 1001781
3 966.785 1001119
3 966.785 996133
3 966.785 992534
3 966.785 978071
3 966.785 976804
3 966.785 975030
3 967.417 973967
3 967.417 967472
3 967.9 963356
3 967.9 958098
3 967.9 950454
3 967.9 949506
3 968.522 949494
3 968.983 949155
3 976.244 940768
3 977.489 940378
3 977.922 938685
3 978.359 937289
3 980.01 1126830
3 980.01 1096353
3 980.01 1079028
3 980.01 1061049
3 980.01 1029143
3 980.01 1026354
3 980.01 1016209
3 980.01 1008051
3 980.01 1005997
3 980.01 1003908
3 980.01 1000106
3 980.776 991548
3 980.776 976082
3 980.776 974638
3 980.776 971905
3 980.776 969483
3 981.356 965735
3 981.356 963674
3 982.25 959851
3 982.25 957791
3 982.756 957323
3 983.629 957305
3 983.629 957117
3 983.629 956562
3 984.137 956094
3 994.143 1041164
3 994.143 1041134
3 994.143 1041016
3 994.143 1038962
3 994.143 1034601
3 994.143 1033454
3 994.143 1027645
3 994.143 1011624
3 994.143 1002412
3 994.849 994890
3 994.849 994234
3 994.849 976547
3 995.763 971333
3 995.763 969965
3 1008.12 1129636
3 1008.12 1112460
3 1008.12 1093306
3 1008.12 1080932
3 1008.12 1073968
3 1008.12 1060984
3 1008.12 1049559
3 1008.12 1036077
3 1008.12 1026345
3 1008.12 1009771
3 1008.12 1002227
3 1008.12 986807
3 1008.12 981610
3 1008.12 979746
3 1008.12 970555
3 1008.12 969687
3 1009.5 963373
3 1009.95 959783
3 1009.95 954808
3 1010.44 947412
3 1010.44 942531
3 1022.15 1118621
3 1022.15 1113710
3 1022.15 1113520
3 1022.15 1100636
3 1022.15 1094827
3 1022.15 1078649
3 1022.15 1046691
3 1022.81 1046035
3 1022.81 1040149
3 1022.81 1034947
3 1022.81 1032419
3 1022.81 1025009
3 1023.45 1007833
3 1023.93 1007177
3 1024.39 1002651
3 1024.86 1001070
3 1024.86 1000597
3 1036.21 1167572
3 1036.21 1150247
3 1036.21 1139574
3 1036.21 1135297
3 1036.21 1124482
3 1036.21 1115955
3 1036.21 1079114
3 1036.21 1078511
3 1036.21 1072702
3 1036.21 1061748
3 1036.21 1059694
3 1036.21 1045354
3 1036.21 1027467
3 1036.21 1011203
3 1036.21 1011196
3 1037.15 1002467
3 1037.15 985499
3 1037.15 982657
3 1037.69 977675
3 1037.69 975621
3 1037.69 973305
3 1038.65 963479
3 1039.12 961333
3 1040.03 954872
3 1040.03 954040
3 1050.05 1005241
3 1050.05 1001477
3 1050.05 1000281
3 1050.05 1000096
3 1051.52 998287
3 1051.52 987642
3 1051.52 977875
3 1051.52 975156
3 1052.09 973836
3 1052.09 963997
3 1052.59 963854
3 1053.47 962904
3 1053.93 962392
3 1053.93 947980
3 1054.84 946978
3 1054.84 944240
3 1064.33 1005251
3 1064.33 1000944
3 1064.33 986847
3 1064.33 983613
1 1064.33 974319
3 1064.95 974130
3 1064.95 968321
3 1064.95 967127
3 1065.94 966942
3 1070.72 964700
3 1071.66 964044
3 1078.38 1044318
3 1078.38 1041634
3 1078.38 1035825
3 1078.38 1033297
3 1078.38 1026619
3 1078.38 1012462
3 1078.38 1007565
3 1078.38 1003863
3 1079.1 994091
3 1079.1 993325
3 1079.1 987578
3 1079.1 986503
3 1079.1 980857
3 1079.7 970888
3 1079.7 970020
3 1080.62 968765
3 1080.62 968204
3 1081.12 965274
3 1081.12 963781
3 1081.12 963658
3 1081.66 962746
3 1092.06 1052361
3 1092.06 1046577
3 1092.06 1025470
3 1092.06 1006316
3 1092.06 987847
3 1092.06 985812
3 1092.06 985775
3 1092.06 960065
3 1092.78 956948
3 1093.24 953149
3 1093.24 950968
3 1093.24 950741
3 1093.24 947003
3 1106.13 1121456
3 1106.13 1108016
3 1106.13 1077539
3 1106.13 1072438
3 1106.68 1058098
3 1106.68 1055364
3 1106.68 1051727
3 1106.68 1040773
3 1106.68 1020547
3 1107.3 998053
3 1107.3 995520
3 1107.3 976223
3 1107.3 973172
3 1107.3 956927
3 1107.88 955996
1 1116.18 954182
3 1116.63 947542
3 1116.63 943579
3 1120.34 1073416
3 1120.34 1067538
3 1120.34 1040779
3 1120.34 1021123
3 1120.34 1002657
3 1120.34 1000031
3 1120.98 990872
3 1120.98 987401
3 1120.98 982827
3 1120.98 981002
3 1121.53 977806
3 1121.53 977150
3 1123.3 972463
3 1124.18 965653
3 1124.63 962572
3 1125.08 961916
3 1125.93 960107
3 1126.38 959819
3 1126.82 958643
3 1126.82 957579
3 1126.82 948984
3 1134.07 1152463
3 1134.07 1150169
3 1134.07 1132993
3 1134.07 1102869
3 1134.07 1102197
3 1134.07 1071238
3 1134.07 1020193
3 1134.07 984556
3 1134.8 983926
3 1134.8 967532
3 1135.35 965004
3 1137.06 957074
3 1137.51 955808
3 1148.25 1079326
3 1148.25 1065153
3 1148.25 1048192
3 1148.25 1036808
3 1148.25 1028210
3 1148.25 1026312
3 1148.25 1024790
3 1148.88 1009544
3 1148.88 1007614
3 1148.88 998590
3 1149.32 989930
3 1149.32 989239
3 1149.72 982434
3 1149.72 975452
3 1149.72 974603
3 1150.13 967422
3 1150.55 961374
3 1150.55 957666
3 1151.26 954815
3 1151.88 949738
3 1151.88 948807
3 1152.21 944952
3 1152.52 943963
3 1162.06 1069803
3 1162.06 1053571
3 1162.06 1029023
3 1162.06 1010222
3 1162.58 1003181
3 1162.58 997372
3 1162.58 995902
3 1162.58 995000
3 1163.11 992684
3 1163.11 991307
3 1163.11 987043
3 1163.11 978668
3 1163.11 977592
3 1163.11 976166
3 1163.73 971080
3 1163.73 969733
3 1164.23 963361
3 1164.23 961307
3 1164.62 960711
3 1164.94 958267
3 1164.94 955997
3 1165.31 954232
3 1165.31 950868
3 1165.31 948814
3 1165.31 947902
3 1167.9 943169
3 1176.17 1047481
3 1176.17 1041672
3 1176.17 1041016
3 1176.17 994680
3 1176.62 993721
3 1176.62 992152
3 1176.98 987493
3 1176.98 987208
3 1176.98 985166
3 1177.37 984657
3 1177.37 981291
3 1177.37 980635
3 1178.66 977404
3 1181.85 973243
3 1182.77 968142
3 1183.66 967770
3 1183.66 966270
3 1183.66 965614
3 1190.4 1072202
3 1190.4 1040014
3 1190.4 1038667
3 1190.4 1025227
3 1190.4 1019419
3 1190.4 998161
3 1190.4 994262
3 1190.4 991734
3 1190.4 980527
3 1190.4 966909
3 1190.4 966253
3 1194.91 965629
3 1195.8 961594
3 1195.8 959213
3 1195.8 959066
3 1195.8 957081
3 1196.46 942122
3 1204.04 1103720
3 1204.04 1084566
3 1204.04 1063349
3 1204.04 1031011
3 1204.04 1023246
3 1204.04 993122
3 1204.04 981630
3 1204.83 979102
3 1205.16 976098
3 1205.5 964101
3 1205.5 963135
3 1206.15 961350
3 1206.47 958822
1 1206.47 953936
3 1206.47 952589
1 1214.12 945237
3 1214.12 943237
3 1218.08 1073838
3 1218.08 1036404
3 1218.08 1023974
3 1218.08 1018990
3 1218.08 1000023
3 1218.08 998832
3 1218.57 990303
3 1218.57 989647
3 1218.91 985487
3 1218.91 978461
3 1218.91 970660
3 1218.91 970004
3 1219.3 963748
3 1219.3 959424
3 1219.3 956441
3 1219.3 952746
3 1219.3 947753
3 1219.72 947735
3 1219.72 946343
3 1220.31 945830
3 1220.31 945174
3 1232.11 1017834
3 1232.11 1015780
3 1232.11 1013252
3 1232.11 1006760
3 1232.11 1002885
3 1232.11 993078
3 1232.89 991731
3 1232.89 991276
3 1232.89 987530
3 1233.26 973190
3 1234.43 973011
3 1234.43 970483
3 1234.77 956344
3 1234.77 953745
3 1246.05 1110196
3 1246.05 1107534
3 1246.05 1098493
3 1246.05 1084625
3 1246.05 1074362
3 1246.05 1065313
3 1246.05 1040883
3 1246.05 1036415
3 1246.05 1026201
3 1246.05 1024705
3 1246.05 1022764
3 1246.05 1000270
3 1246.05 978734
3 1246.05 978529
3 1246.05 976001
3 1246.95 972502
3 1246.95 968763
3 1247.5 968745
3 1247.5 962927
3 1248.02 961983
3 1248.02 959975
3 1248.02 953459
3 1248.53 947959
3 1248.53 944499
3 1249.41 943534
3 1260.12 1048046
3 1260.12 1038207
3 1260.12 1030521
3 1260.12 1023386
3 1260.12 1009659
3 1260.12 1009047
3 1260.76 986676
3 1260.76 986048
3 1261.29 976225
3 1261.29 968051
3 1261.29 967395
3 1261.87 957433
3 1261.87 956086
3 1261.87 954596
3 1261.87 953451
3 1262.43 947300
3 1262.43 944453
3 1262.43 941925
3 1274.29 1143537
3 1274.29 1078098
3 1274.29 1056778
3 1274.29 1056062
3 1274.29 1046224
3 1274.29 999722
3 1274.29 997194
3 1274.29 994848
3 1274.29 974596
3 1274.29 968591
3 1275.05 964401
3 1275.05 963719
3 1275.05 961873
3 1275.59 955744
3 1276.49 942194
3 1276.49 941937
3 1276.49 940369
3 1276.99 936101
3 1288.11 1096102
3 1288.11 1072769
3 1288.11 1071705
3 1288.11 1052551
3 1288.11 1048203
3 1288.11 1036848
3 1288.11 1033170
3 1288.11 1027117
3 1288.11 1024589
3 1288.11 1023664
3 1288.11 1020400
3 1288.73 1009379
3 1288.73 1004207
3 1289.08 990477
3 1289.08 980557
3 1289.08 965601
3 1291.31 964163
3 1302.1 1060049
3 1302.1 1049687
3 1302.1 1041580
1 1302.1 1040684
3 1302.1 1031144
3 1302.53 1018721
3 1302.53 1010012
3 1302.53 980629
3 1302.9 964956
3 1302.9 964300
3 1302.9 964284
3 1303.57 962230
3 1303.57 958381
3 1303.57 955041
3 1303.57 955034
3 1304.02 949225
1 1314.15 948874
3 1315.3 948332
3 1316.16 1085151
3 1316.16 1060599
3 1316.16 1045219
3 1316.16 1036307
3 1316.16 1033456
3 1316.16 1030830
3 1316.16 1028950
3 1316.16 1022137
3 1316.16 1015001
3 1316.16 1000619
3 1316.16 1000589
3 1316.16 994492
3 1316.79 991885
3 1316.79 977956
3 1317.13 972317
3 1317.13 970970
3 1317.47 966039
3 1317.77 964250
3 1317.77 962258
3 1318.1 957805
3 1318.1 957790
3 1318.1 956959
3 1318.1 955646
3 1318.1 951150
3 1318.77 949380
3 1319.32 948674
3 1319.32 947712
3 1319.71 945017
3 1319.71 944579
3 1330.04 1066744
3 1330.04 1057820
3 1330.04 1051603
3 1330.04 1040649
3 1330.04 1038998
3 1330.04 1030731
3 1330.04 1027697
3 1330.04 1014624
3 1330.04 1007183
3 1330.04 1003222
3 1330.04 1001168
3 1330.04 993771
3 1330.04 992383
3 1330.04 979400
3 1330.73 978053
3 1330.73 972582
3 1331.67 972517
3 1331.67 968434
3 1331.67 954841
3 1335.28 954454
3 1335.28 954113
3 1335.28 953998
3 1335.65 950828
3 1336.22 950172
3 1336.5 949441
3 1337.07 945183
3 1337.07 944812
3 1337.67 941765
3 1337.97 941480
3 1337.97 941389
3 1338.57 941134
3 1344.16 1047161
3 1344.16 1039941
3 1344.16 1037394
3 1344.16 1033601
3 1344.16 1031073
3 1344.16 1017919
3 1344.16 1016260
3 1344.63 1011792
3 1344.63 1011464
3 1344.63 1004092
3 1344.63 979658
3 1345.03 977604
3 1345.03 976535
3 1345.03 968164
3 1345.89 967324
3 1345.89 965166
3 1345.89 965014
3 1345.89 956618
3 1345.89 955161
3 1346.49 952906
3 1346.49 949352
3 1347.39 948611
3 1347.83 940684
3 1358.24 1075189
3 1358.24 1040234
3 1358.24 1038409
3 1358.24 1031351
3 1358.24 1026250
3 1358.24 1020802
3 1358.24 997870
3 1358.24 984736
3 1358.24 979490
3 1358.24 976962
3 1358.95 975462
3 1358.95 968257
3 1359.42 966037
3 1359.86 965670
3 1359.86 960452
3 1360.35 959796
3 1362.05 958777
3 1362.91 958511
3 1363.36 954804
3 1363.82 951370
3 1363.82 950714
3 1372.21 1098490
3 1372.21 1079336
3 1372.21 1068001
3 1372.21 1065180
3 1372.21 1065150
3 1372.21 1062622
3 1372.21 1048892
3 1372.21 1043787
3 1372.21 1033978
3 1372.97 1027565
3 1372.97 1017731
3 1372.97 1012073
3 1372.97 988259
3 1372.97 978769
3 1373.59 976221
3 1373.59 976024
3 1373.59 967115
3 1373.59 963118
3 1374.59 962582
3 1374.59 961926
3 1374.59 961653
3 1374.59 959731
3 1375.6 956350
3 1375.6 952854
3 1376.99 951093
3 1386.29 1106313
3 1386.29 1081628
3 1386.29 1076024
3 1386.29 1069585
3 1386.29 1056716
3 1386.29 1035706
3 1386.29 1030485
3 1386.29 1024023
3 1386.29 1023796
3 1386.29 1023140
3 1386.29 1022961
3 1386.29 1005721
3 1387.16 1005462
3 1387.16 992661
3 1387.16 991033
3 1387.16 987943
3 1387.16 981855
3 1387.76 981199
3 1388.27 979725
3 1388.27 978903
3 1388.27 978401
3 1388.8 976765
3 1389.3 976109
3 1391.49 972610
3 1396.73 972451
3 1397.21 972122
3 1397.21 971705
3 1397.73 969554
3 1398.59 969083
3 1398.59 965012
3 1399 955504
3 1399.69 954084
3 1399.69 953855
3 1400.14 1111686
3 1400.14 1099045
3 1400.14 1096515
3 1400.14 1096194
3 1400.14 1082676
3 1400.14 1068985
3 1400.14 1055503
3 1400.14 1038327
3 1400.14 1035685
3 1400.14 1025950
3 1400.79 1018328
3 1400.79 1001934
3 1400.79 990965
3 1401.18 989380
3 1401.18 983752
3 1401.64 982923
3 1401.64 981152
3 1401.64 980445
3 1402.51 980096
3 1402.51 975165
3 1402.92 972637
1 1404.7 968709
3 1404.7 966035
3 1404.7 965687
3 1404.7 963159
3 1404.7 961812
3 1404.7 957101
3 1405.39 956904
3 1405.8 953857
3 1414.22 1057567
3 1414.22 1054265
3 1414.22 1022707
3 1414.22 1014115
3 1414.22 994401
3 1414.22 987897
3 1414.22 980440
3 1414.22 977875
3 1414.67 973831
3 1414.67 972006
3 1414.67 970959
3 1415.05 968197
3 1415.05 965750
3 1415.52 965500
3 1415.52 964844
3 1415.52 953363
3 1416.36 952131
3 1418.4 951188
3 1418.73 947358
3 1428.14 1083315
3 1428.14 1073331
3 1428.14 1047987
3 1428.14 1042050
3 1428.14 1038626
3 1428.14 1029354
3 1428.14 1022281
3 1428.14 1009217
3 1428.14 1008631
3 1428.14 1007644
3 1428.14 1005355
3 1428.14 1004493
3 1428.85 998230
3 1428.85 993862
3 1428.85 993746
3 1428.85 993261
3 1428.85 990016
3 1428.85 975094
3 1428.85 971936
3 1428.85 967522
3 1429.36 967154
3 1429.36 966498
3 1429.36 962715
3 1429.36 959181
3 1429.36 957974
3 1429.36 955231
3 1429.36 953177
3 1430.43 951609
3 1430.43 951514
3 1433.26 951455
3 1440.84 948157
3 1440.84 947779
3 1441.17 947184
3 1442.27 1145298
3 1442.27 1122700
3 1442.27 1122044
3 1442.27 1108910
3 1442.27 1100538
3 1442.27 1098010
3 1442.27 1056860
3 1442.27 1056556
3 1442.27 1033958
3 1442.27 1003053
3 1442.8 997902
3 1442.8 984420
3 1443.17 984320
3 1443.17 980794
3 1443.17 979625
3 1443.57 977425
3 1443.57 977310
3 1443.57 976656
3 1443.57 963828
3 1443.57 962790
3 1444.6 961833
3 1444.6 959357
3 1445.24 956937
3 1446.39 956575
3 1446.39 955570
3 1446.73 953215
3 1446.73 950779
3 1449.26 948319
3 1456.06 1042129
3 1456.06 1035702
3 1456.06 1029561
3 1456.06 998068
3 1456.06 991807
3 1456.06 987593
3 1456.54 983449
3 1456.54 982546
3 1456.54 981890
3 1456.54 979890
3 1456.54 975806
3 1456.97 974459
3 1456.97 973378
3 1456.97 972722
3 1457.35 971823
3 1457.35 967432
3 1457.35 967061
3 1461.34 960996
3 1461.34 960319
3 1461.68 959305
3 1461.68 957251
3 1462.02 954954
3 1470.26 1078823
3 1470.26 1047946
3 1470.26 1042845
3 1470.26 1039977
3 1470.26 1034948
3 1470.26 1031932
3 1470.26 1018420
3 1470.75 1013904
3 1470.75 1011376
3 1470.75 1001294
3 1470.75 990302
3 1470.75 976820
3 1470.75 971452
3 1470.75 968609
3 1471.22 967883
3 1474.84 966927
3 1476.05 954551
3 1476.95 951411
3 1477.25 950018
3 1484.2 1033269
3 1484.2 1032613
3 1484.2 1017204
3 1484.2 1016858
3 1484.2 1014353
3 1484.2 1005717
3 1484.2 994219
3 1484.2 984229
3 1484.2 981850
3 1484.2 965764
3 1484.2 965485
3 1484.81 965191
3 1484.81 963137
3 1485.18 958515
3 1485.18 957859
3 1485.55 955545
3 1485.85 952838
3 1485.85 948370
3 1485.85 945842
3 1498.14 1075063
3 1498.14 1074901
3 1498.14 1067411
3 1498.14 1013812
3 1498.14 1003802
3 1498.14 1003128
3 1498.14 1000600
3 1498.14 996266
3 1498.14 986455
3 1498.67 983276
3 1498.67 980646
3 1499.01 978185
3 1499.34 972897
3 1499.92 971728
3 1499.92 959649
3 1499.92 952373
3 1500.29 949261
3 1500.6 947478
3 1512.09 1005720
3 1512.09 1003907
3 1512.09 1002534
3 1512.09 988915
3 1512.09 985373
3 1512.09 984257
3 1512.09 979311
3 1512.09 976920
3 1512.09 972457
3 1512.64 968340
3 1512.95 964439
3 1512.95 964005
3 1512.95 959201
3 1513.32 956611
3 1513.32 955955
3 1526.23 1015446
3 1526.23 1001594
3 1526.23 991146
3 1526.23 990490
3 1526.65 981055
3 1526.65 976150
3 1526.65 970359
3 1526.65 969130
3 1527.05 963318
3 1527.05 957817
3 1530.7 956259
3 1531.28 955246
3 1531.58 955216
3 1540.05 1121542
3 1540.05 1115189
3 1540.05 1100997
3 1540.05 1084732
3 1540.05 1048998
3 1540.05 1048497
3 1540.05 1045646
3 1540.05 1026021
3 1540.05 1024045
3 1540.05 1021991
3 1540.05 1002953
3 1540.65 999537
3 1540.65 985800
3 1540.65 984985
3 1540.65 967427
3 1540.65 957989
3 1540.65 954479
3 1541.1 952115
3 1541.41 941838
3 1541.72 941182
3 1554.09 1112821
3 1554.09 1055519
3 1554.09 1038958
3 1554.09 1025783
3 1554.09 1004119
3 1554.09 1003696
3 1554.09 1002349
3 1554.59 985068
3 1554.59 977797
3 1554.95 972344
3 1554.95 968415
3 1554.95 965113
3 1554.95 961113
3 1555.38 952664
3 1555.68 950730
3 1555.68 949771
3 1556.04 946214
3 1556.04 941283
3 1556.04 939152
3 1568.07 1121102
3 1568.07 1088292
3 1568.07 1077681
3 1568.07 1073151
3 1568.07 1063683
3 1568.07 1048328
1 1568.07 1023922
3 1568.07 1018295
3 1568.07 1001297
3 1568.07 991388
3 1568.07 989251
3 1568.07 988637
3 1568.07 983410
3 1568.68 977709
3 1568.68 967992
1 1569.02 962961
3 1569.02 960364
3 1569.35 958684
3 1569.94 955647
3 1569.94 955239
3 1571.1 954690
3 1571.67 954166
3 1571.98 953259
3 1572.83 952824
3 1572.83 947484
3 1572.83 943275
3 1573.16 942836
3 1573.72 941675
3 1574.29 940964
3 1576.71 938126
3 1578.32 936647
3 1578.87 936309
3 1582.06 1069887
3 1582.06 1055248
3 1582.06 1041518
3 1582.06 1039464
3 1582.06 1036613
3 1582.06 1019288
3 1582.06 1011262
3 1582.06 1005349
3 1582.06 1003362
3 1582.06 993523
3 1582.63 991600
3 1582.63 990253
3 1582.63 989648
3 1583 987766
3 1583.3 985246
3 1583.61 984050
3 1584.18 982360
3 1585.04 978532
3 1585.04 966224
3 1585.04 963850
3 1585.43 961322
3 1586.03 961062
3 1587.14 960857
3 1587.14 957034
3 1587.48 953887
3 1587.78 952103
3 1587.78 951833
3 1596.27 1096685
3 1596.27 1057645
3 1596.27 1054103
3 1596.27 1044264
3 1596.27 1026269
3 1596.27 1024371
3 1596.27 1023552
3 1596.27 1006412
3 1596.8 996573
3 1596.8 979625
3 1596.8 979044
3 1596.8 973997
3 1598.88 972369
1 1599.46 959553
3 1599.46 953744
3 1599.46 953088
3 1599.83 952012
3 1600.13 951881
3 1610.04 1127851
3 1610.04 1110663
3 1610.04 1097374
3 1610.04 1086420
3 1610.04 1071358
3 1610.04 1071328
3 1610.04 1065164
3 1610.04 1059355
3 1610.04 1036065
3 1610.04 1022044
3 1610.04 1011490
3 1610.04 999600
3 1610.04 979651
3 1610.04 977694
3 1610.96 973866
3 1610.96 973526
3 1610.96 971588
3 1610.96 970502
3 1610.96 969951
3 1611.6 968307
3 1611.6 963196
3 1611.6 954825
3 1612.13 953975
3 1612.13 952771
3 1614.35 951342
3 1615.24 949261
3 1624.17 1073609
3 1624.17 1063770
3 1624.17 1053987
3 1624.17 1047752
3 1624.17 1029931
3 1624.17 1020164
3 1624.17 1015450
3 1624.17 1001367
3 1624.17 999626
3 1624.17 990792
3 1624.17 988738
3 1624.17 987666
3 1624.81 984549
3 1624.81 984426
3 1624.81 968065
3 1624.81 967150
3 1625.5 966542
3 1625.81 964042
3 1626.12 958100
3 1638.01 1009117
3 1638.01 1002103
3 1638.01 995677
3 1638.01 992940
3 1638.01 984060
3 1638.01 982163
3 1638.01 980374
3 1638.55 977103
3 1638.55 976671
3 1638.92 976447
3 1639.24 968253
3 1639.24 966609
3 1640.45 964514
3 1642.45 960449
3 1652.08 1010119
3 1652.08 1000135
3 1652.08 999418
3 1652.08 996890
3 1652.08 995463
3 1652.55 979355
3 1652.55 975156
3 1652.92 973726
3 1652.92 967814
3 1652.92 967462
3 1652.92 966867
3 1653.32 965101
3 1653.32 964828
3 1653.32 953793
3 1653.7 951197
3 1654.02 950009
3 1654.02 947795
3 1657.16 947368
3 1657.16 945828
3 1666.13 1096876
3 1666.13 1061239
3 1666.13 1057894
3 1666.13 1041138
3 1666.13 1040607
3 1666.13 1038079
3 1666.13 1037426
3 1666.13 1028449
3 1666.13 1012924
3 1666.13 1009622
3 1666.7 1009555
3 1666.7 997999
3 1666.7 991086
3 1666.7 988462
3 1666.7 984776
3 1666.7 980823
3 1667.17 977508
3 1668.06 976556
3 1668.06 968690
3 1668.06 962686
3 1668.06 962325
3 1668.06 961669
3 1680.2 1098625
3 1680.2 1066667
3 1680.2 1053853
3 1680.2 1048044
3 1680.2 1047110
3 1680.2 1029934
3 1680.2 1017386
3 1680.2 1016494
3 1680.2 999122
3 1680.2 994911
3 1680.2 985450
3 1680.2 975470
3 1680.84 968516
3 1681.16 966486
3 1681.16 963404
3 1681.16 962557
3 1681.83 961210
3 1681.83 960554
3 1686.45 954745
3 1686.45 953864
3 1687.37 948982
3 1690.46 948283
3 1694.21 1077078
3 1694.21 1074227
3 1694.21 1062283
3 1694.21 1044799
3 1694.21 1027623
3 1694.21 999738
3 1694.21 997617
3 1694.21 989447
3 1694.21 972394
3 1694.21 966122
3 1694.21 965007
3 1694.83 963800
3 1694.83 963144
3 1694.83 962196
3 1695.26 960989
3 1695.26 957989
3 1708.19 1089152
3 1708.19 1074751
3 1708.19 1048820
3 1708.19 1032552
3 1708.19 1019112
3 1708.19 1017266
3 1708.19 1003321
3 1708.19 983634
3 1708.75 979038
3 1708.75 977401
3 1708.75 971807
3 1708.75 971151
3 1710.08 964196
3 1710.41 963646
3 1710.41 963616
3 1710.76 961088
3 1722.22 1008272
3 1722.22 998560
3 1722.22 997353
3 1722.22 986719
3 1722.22 970852
3 1722.22 970188
3 1722.22 967708
3 1722.68 965654
3 1722.68 961186
3 1723.03 959490
3 1723.03 951918
3 1723.39 946846
3 1723.71 946618
3 1723.71 944341
3 1736.35 1069138
3 1736.35 1062729
3 1736.35 1016393
3 1736.35 1009386
3 1736.35 1004327
3 1736.35 996785
3 1736.35 996129
3 1736.99 996099
3 1737.46 987393
3 1737.46 983015
3 1737.96 981823
3 1737.96 975443
3 1737.96 970559
3 1737.96 966777
3 1737.96 966061
3 1737.96 965095
3 1741.49 964740
3 1741.94 960926
3 1741.94 952661
3 1744.08 949532
3 1747.52 948267
3 1747.52 947999
3 1748.02 947241
3 1748.02 944713
3 1748.02 942659
3 1748.94 941888
3 1749.38 939159
3 1749.83 938133
3 1749.83 936079
3 1750.31 1033075
3 1750.31 1030665
3 1750.31 1020681
3 1750.31 1019004
3 1750.31 1002340
3 1751.33 1001126
3 1752.17 994791
3 1752.64 990557
3 1752.64 985380
3 1752.64 984798
3 1753.59 983249
3 1754.05 982213
3 1754.05 980940
3 1754.54 978412
3 1754.54 977198
3 1755.02 971827
3 1755.02 970480
3 1755.02 967035
3 1755.02 966334
3 1755.02 965732
3 1756.03 964202
3 1756.49 963617
3 1756.49 959522
3 1756.49 958866
3 1757.01 958599
3 1757.46 955902
1 1764.41 1146974
3 1764.41 1137135
3 1764.41 1122043
1 1764.41 1087813
3 1764.41 1072029
3 1764.41 1063169
3 1764.41 1047477
3 1764.41 1044582
3 1764.41 1030826
3 1764.41 1030170
3 1764.41 1029589
3 1764.41 1017973
3 1765.22 1001795
3 1765.22 1001139
3 1765.22 995254
3 1765.22 994450
3 1766.22 994307
3 1766.22 993200
3 1766.22 990350
3 1766.74 982152
3 1766.74 979240
3 1767.23 979022
3 1767.7 976968
3 1767.7 971589
3 1767.7 970033
3 1768.24 970003
3 1769.16 969379
3 1770.5 969081
3 1770.96 966239
3 1770.96 964683
3 1770.96 962858
3 1777.12 959997
3 1777.59 957469
3 1778.05 1050424
3 1778.05 1042411
3 1778.05 1041591
3 1778.05 1040204
3 1778.05 1035502
3 1778.05 1032735
3 1778.05 1013110
3 1778.73 1008592
3 1778.73 1006064
3 1778.73 1003489
3 1778.73 1003178
3 1778.73 1002375
3 1778.73 1002230
3 1779.36 999702
3 1779.36 991792
3 1779.36 990163
3 1779.36 984354
3 1779.36 978069
3 1779.94 969499
3 1780.42 969421
3 1780.88 962850
3 1780.88 962194
3 1781.38 956616
3 1781.38 951076
3 1782.31 950773
3 1792.3 1039988
3 1792.3 1017494
3 1792.3 1017047
3 1792.3 1016587
3 1792.3 1009534
3 1792.3 1008240
3 1792.3 1006232
3 1792.3 999468
3 1793 995520
3 1793 993763
3 1793 991135
3 1793 970197
3 1793 966044
3 1793 965862
3 1793.63 964526
3 1793.63 963421
3 1794.12 962346
3 1794.12 961166
3 1794.12 955846
3 1794.65 953792
3 1794.65 952796
3 1794.65 952140
3 1796.29 951107
3 1806.32 1042550
3 1806.32 1035737
3 1806.32 1027978
3 1806.32 1021561
3 1806.32 1017499
3 1806.32 1004537
3 1806.32 992723
3 1806.32 973080
3 1807.05 971026
3 1807.54 969612
3 1807.54 963803
3 1808.07 952849
3 1808.07 948515
3 1809.43 948510
3 1809.89 948462
3 1810.77 948062
3 1810.77 946836
3 1811.31 946008
3 1816.48 943520
3 1816.48 940141
3 1816.48 939422
3 1816.97 937904
3 1816.97 936992
3 1820.42 1130525
3 1820.42 1127997
3 1820.42 1124554
3 1820.42 1115030
3 1820.42 1066684
3 1820.42 1059293
3 1820.42 1048393
3 1820.42 1031117
3 1820.42 1028420
3 1821.15 1023911
3 1821.15 1018102
3 1821.15 1011133
3 1821.15 1008011
3 1821.71 1006372
3 1821.71 993671
3 1821.71 992090
3 1821.71 979727
3 1822.28 977024
3 1822.28 973704
3 1822.28 964842
3 1823.68 963678
3 1823.68 963375
3 1824.14 953580
3 1824.61 951494
3 1824.61 951434
3 1824.61 950623
3 1824.61 950241
3 1824.61 949058
3 1827.03 946842
3 1834.14 1039459
3 1834.14 1033298
3 1834.14 1031244
3 1834.14 1013960
3 1834.14 1007208
3 1834.14 1005811
3 1834.14 989925
3 1834.79 986003
3 1835.27 983230
3 1835.27 977313
3 1835.27 976921
3 1835.27 974867
3 1835.8 971192
3 1837.09 959536
3 1837.09 957309
3 1837.09 956903
3 1837.6 956653
3 1838.03 956277
3 1838.03 955556
3 1838.51 953600
3 1838.98 953487
3 1838.98 951972
3 1839.47 950625
3 1848.22 1073053
3 1848.22 1071846
3 1848.22 1058936
3 1848.22 1057544
3 1848.22 1049773
3 1848.22 1040491
3 1848.22 1027082
3 1848.22 1019035
3 1848.22 1013757
3 1848.22 1012410
3 1848.96 996653
3 1848.96 986359
3 1848.96 983171
3 1849.49 974546
3 1849.49 974196
3 1849.49 972809
3 1850.03 971925
3 1850.03 968737
3 1850.51 966090
3 1850.51 965434
3 1850.51 964353
3 1862.01 1099748
3 1862.01 1060804
3 1862.01 1060315
3 1862.01 1046806
3 1862.01 1043528
3 1862.01 1042138
3 1862.01 1026052
3 1862.01 1020007
3 1862.01 1016487
3 1862.73 1015140
3 1862.73 1014206
3 1862.73 1007777
3 1862.73 1003309
3 1863.29 999155
3 1863.77 997808
3 1863.77 991108
3 1864.28 990306
3 1864.75 987733
3 1864.75 982541
3 1876.32 1055721
3 1876.32 1053193
3 1876.32 1050553
3 1876.32 1047498
3 1876.32 1045462
3 1876.32 1031924
3 1876.32 1030221
3 1876.99 1025232
3 1876.99 1021055
3 1876.99 1018316
3 1876.99 1018268
3 1877.57 1016772
3 1877.57 1011173
3 1877.57 999748
3 1877.57 997599
3 1877.57 996943
3 1877.57 992475
3 1877.57 991102
3 1877.57 989764
1 1887.53 975637
3 1887.53 975117
3 1887.53 974461
3 1887.53 970651
3 1887.53 967240
3 1888.15 955307
3 1888.15 954306
3 1888.65 952252
3 1890.4 1098191
3 1890.4 1079946
3 1890.4 1072163
3 1890.4 1060791
3 1890.4 1054178
3 1890.4 1047418
3 1890.4 1040653
3 1890.4 1037002
3 1890.4 1029430
3 1890.4 1016296
3 1890.4 1013483
3 1890.4 999485
3 1891.22 998753
3 1891.22 994434
3 1891.22 994416
3 1891.22 994222
3 1891.22 978143
3 1891.22 977487
3 1891.86 973313
3 1891.86 970692
3 1891.86 970426
3 1891.86 969219
3 1892.41 964625
3 1892.41 963970
3 1892.41 962258
3 1892.41 962106
3 1892.41 958765
3 1892.41 956237
3 1893.02 950732
3 1904.16 1049657
3 1904.16 1049001
3 1904.16 1029752
3 1904.16 1021160
3 1904.16 1006721
3 1904.16 1006703
3 1904.83 992727
3 1905.33 978393
3 1905.79 974616
3 1906.65 972422
3 1906.65 969962
3 1907.14 967954
3 1918.01 1082308
3 1918.01 1048027
3 1918.01 1034105
3 1918.01 1029715
3 1918.01 1026613
3 1918.01 1007459
3 1918.01 997816
3 1918.01 982630
3 1918.01 980576
3 1918.77 979369
3 1918.77 969739
3 1918.77 963638
3 1920.21 959482
3 1920.21 955023
3 1920.21 946426
3 1920.75 945954
3 1920.75 945754
3 1920.75 943188
3 1921.27 942892
3 1921.71 942692
3 1921.71 942193
3 1922.21 942036
3 1932.07 1021460
3 1932.07 1012455
3 1932.07 1008804
3 1932.07 1008148
3 1932.07 1006238
3 1932.07 1001931
3 1932.07 1001088
3 1932.75 991977
3 1932.75 991947
3 1932.75 983736
1 1936.72 983385
3 1936.72 982055
3 1938.12 976246
3 1938.12 973482
3 1938.12 969014
3 1938.69 957256
3 1938.69 955347
3 1938.69 950884
3 1938.69 947606
3 1944.19 945363
3 1944.64 945018
3 1944.64 944532
3 1946.32 1047489
3 1946.32 1041273
3 1946.32 1033455
3 1946.32 1032248
3 1946.32 1014245
3 1946.32 990688
3 1946.95 986668
3 1946.95 984140
3 1946.95 979238
3 1947.48 975609
3 1947.48 970218
3 1947.98 967116
3 1950.99 953884
3 1955 953756
3 1960.11 1111714
3 1960.11 1105242
3 1960.11 1086210
3 1960.11 1068934
1 1960.11 1044641
3 1960.11 1033687
3 1960.11 1029853
3 1960.11 1005301
3 1960.82 1002773
3 1960.82 992789
3 1962.61 992239
3 1962.61 987160
3 1962.61 986504
3 1963.14 973635
3 1963.14 973605
3 1963.14 972120
3 1963.65 972083
3 1963.65 969137
3 1966.98 968690
3 1967.55 963372
3 1967.55 963056
3 1968.48 952557
3 1969.83 950518
3 1969.83 945764
3 1971.6 944319
3 1972.05 944066
3 1973.76 942407
3 1974.22 1081269
3 1974.22 1035894
3 1974.22 1028512
3 1974.22 1026458
3 1974.22 1025069
3 1974.22 1006031
3 1974.22 999580
3 1974.22 978004
3 1974.22 970558
3 1974.96 968504
3 1974.96 964495
3 1975.47 963839
3 1975.47 958091
3 1978.08 957699
3 1978.08 957464
3 1978.56 950591
3 1978.56 950155
3 1979.08 949499
3 1988.19 1153875
3 1988.19 1147627
3 1988.19 1146142
3 1988.19 1129748
3 1988.19 1112423
3 1988.19 1081946
3 1988.19 1051161
3 1988.19 1048310
3 1988.19 1028685
3 1988.19 1011397
3 1988.19 1000613
3 1988.98 988706
3 1988.98 985404
3 1988.98 984265
3 1988.98 980530
3 1989.96 965475
3 1990.42 953317
3 1993.91 951865
3 1996.14 945766
3 1997.43 945073
3 1997.43 944665
3 1997.91 943019
3 1997.91 940309
3 1997.91 938616
3 2002.1 1119756
3 2002.1 1108802
3 2002.1 1091477
3 2002.1 1066023
3 2002.68 1042602
3 2002.68 1040548
3 2002.68 1026818
3 2002.68 1024290
3 2002.68 1005252
3 2002.68 1001258
3 2003.32 994599
3 2003.32 986098
3 2003.32 985279
3 2003.32 984277
3 2003.88 983662
3 2003.88 980443
3 2003.88 978418
3 2004.4 977856
3 2004.4 973388
3 2016.32 1054628
1 2016.32 1049214
3 2016.32 1030060
3 2016.32 1009562
3 2016.32 999821
3 2016.32 991732
3 2016.96 987264
3 2016.96 974426
3 2016.96 971575
3 2017.49 965062
3 2017.49 964430
3 2017.49 959501
3 2018 954893
3 2018 952365
3 2018.5 950393
3 2018.5 947897
3 2030.11 1139635
3 2030.11 1122310
3 2030.11 1115133
3 2030.11 1089951
3 2030.11 1089887
3 2030.11 1084078
3 2030.11 1064924
3 2030.11 1055340
3 2030.11 1048244
3 2030.81 1038064
3 2030.81 1021636
3 2030.81 1015461
3 2030.81 992582
3 2030.81 985337
3 2030.81 982809
3 2031.41 972825
3 2031.9 970145
3 2031.9 964088
3 2032.38 961260
3 2032.38 958987
3 2032.38 958761
3 2032.38 954293
3 2032.93 951979
3 2032.93 951323
3 2032.93 950979
3 2033.44 949971
3 2033.44 948624
3 2033.44 947382
3 2044.27 1028054
3 2044.27 1026847
3 2044.27 1025022
3 2044.27 1024202
3 2044.27 1020580
3 2044.27 1010127
3 2044.27 985837
3 2044.27 982372
3 2044.97 977943
3 2044.97 972877
3 2044.97 972134
3 2046.31 964967
3 2046.31 962559
3 2055.63 961807
3 2055.63 961392
3 2055.63 961206
3 2057.36 957222
3 2057.36 955875
3 2058.24 1062492
3 2058.24 1038832
3 2058.24 1036202
3 2058.24 1011769
3 2058.24 996810
3 2058.24 987121
3 2058.71 983650
3 2058.71 982443
3 2058.71 976634
3 2059.09 976024
3 2059.09 975702
3 2059.09 975046
3 2059.09 969141
3 2059.48 955701
3 2059.79 954465
3 2060.1 947101
3 2061.47 946798
3 2072.33 1115764
3 2072.33 1081113
3 2072.33 1075831
3 2072.33 1064587
3 2072.33 1034463
3 2072.33 1027263
3 2072.33 1022196
3 2072.33 1021980
3 2072.33 1021324
3 2072.33 1004148
3 2072.33 999134
3 2072.33 990666
3 2073.11 987815
3 2073.11 987512
3 2073.11 984733
3 2073.11 974979
3 2073.11 972451
3 2073.68 966539
3 2075.33 965287
3 2086.04 1033943
3 2086.04 1032380
3 2086.04 1028994
3 2086.04 1022423
3 2086.04 1018025
3 2086.04 1006078
3 2086.04 1001001
3 2086.04 995743
3 2086.04 995437
3 2086.59 993383
3 2086.59 993166
3 2086.59 990855
3 2086.59 990505
3 2086.59 985060
3 2087 974091
3 2087.57 972676
3 2087.57 969899
3 2087.89 966028
3 2100.2 1074904
3 2100.2 1073697
3 2100.2 1055822
3 2100.2 1054659
3 2100.2 1044868
3 2100.2 1032940
3 2100.2 1010446
3 2100.2 995706
3 2100.2 965130
3 2100.2 959693
3 2100.77 952402
3 2101.08 951855
3 2102.78 950926
3 2102.78 950728
3 2105.28 949275
3 2105.28 948619
3 2105.88 946020
3 2106.44 945388
3 2114.23 1117105
3 2114.23 1071875
3 2114.23 1065338
3 2114.23 1049252
3 2114.23 1047320
3 2114.23 1043359
3 2114.23 1030485
3 2114.23 1022540
3 2114.23 1021193
3 2114.23 1020711
3 2114.23 1001513
3 2114.23 990003
3 2114.23 984902
3 2114.23 982099
3 2114.23 977687
3 2114.23 973948
3 2114.23 973809
3 2114.88 967900
3 2114.88 964845
3 2114.88 953379
3 2114.88 949287
3 2115.28 947799
3 2128.43 1085972
3 2128.43 1051691
3 2128.43 1041882
3 2128.43 1032048
3 2128.43 1027774
3 2128.43 1013203
3 2128.43 979953
3 2128.43 976600
3 2129.18 974072
3 2129.18 964129
3 2129.66 963118
3 2130.1 960820
3 2130.1 959907
3 2130.1 958551
3 2130.63 958375
3 2130.63 954025
3 2130.63 953571
3 2131.14 952678
3 2135.04 945567
3 2135.51 943076
3 2135.51 942900
3 2135.51 936984
3 2136.44 935490
3 2136.89 934675
3 2136.89 931906
3 2136.89 930244
3 2137.4 929588
3 2142.17 1078368
3 2142.17 1073809
3 2142.17 1055759
3 2142.17 1036678
3 2142.17 1030869
3 2142.17 1021907
3 2142.17 1021030
3 2142.17 1010450
3 2142.9 1004550
1 2143.37 997019
3 2143.37 981551
3 2143.37 978528
3 2143.91 977872
3 2144.81 976549
3 2144.81 971974
3 2156.17 1077927
3 2156.17 1064563
3 2156.17 1063861
3 2156.17 1052322
3 2156.17 1037982
3 2156.17 1032173
3 2156.84 1014159
3 2156.84 1011338
3 2156.84 1007843
3 2156.84 991665
3 2156.84 991585
3 2156.84 990033
3 2156.84 980188
3 2156.84 963794
3 2156.84 961003
3 2156.84 955170
3 2156.84 951282
3 2170.32 1067856
3 2170.32 1049275
3 2170.32 1045497
3 2170.89 1037732
3 2170.89 1023956
3 2170.89 1021902
3 2170.89 1018271
3 2170.89 1013876
3 2170.89 1008606
3 2171.59 993532
3 2171.59 980503
3 2171.59 978264
3 2171.59 974547
3 2171.59 961454
3 2172.22 960798
3 2172.22 960554
3 2172.22 955623
3 2172.78 953817
3 2172.78 951317
3 2176.32 949881
3 2176.79 948383
3 2178.08 948231
3 2178.08 947610
3 2178.08 945082
3 2184.17 996271
3 2184.17 992975
3 2184.17 989324
3 2184.17 987640
3 2184.17 986984
3 2184.17 973901
3 2184.82 969433
3 2184.82 966854
3 2185.41 958370
3 2185.41 948531
3 2185.95 945141
3 2186.44 944256
3 2194.15 942848
3 2194.15 939120
3 2195.06 938882
3 2196.03 938226
3 2198.19 1071726
3 2198.19 1062130
3 2198.19 1015794
3 2198.19 1008180
3 2198.19 1001328
3 2198.19 993756
3 2198.19 976716
3 2199.36 972751
3 2199.36 972095
3 2200.29 971615
3 2212.17 1034433
3 2212.64 1032379
3 2212.64 1031032
3 2212.64 1021912
3 2213.18 1021279
3 2213.18 1020618
3 2213.18 1018812
3 2213.18 1016090
3 2213.18 1012590
3 2213.18 1004485
3 2213.18 1001099
3 2213.18 995290
3 2213.84 986194
3 2213.84 985451
3 2214.32 984795
3 2215.19 976170
3 2226.11 1107007
3 2226.11 1076256
3 2226.11 1051672
3 2226.11 1017391
3 2226.11 1015337
3 2226.11 1005707
3 2226.11 1005500
3 2226.11 1004545
3 2226.84 1002491
3 2226.84 1000944
3 2226.84 999597
3 2226.84 996682
3 2227.82 992314
3 2227.82 988919
3 2228.3 984926
3 2228.3 981431
3 2228.3 976621
3 2228.82 973972
3 2228.82 968606
3 2228.82 968538
3 2240.32 1053916
3 2240.32 1045422
3 2240.32 1034401
3 2240.32 1019309
3 2240.32 1005579
3 2240.32 1004762
3 2240.32 1003051
3 2241.02 1000230
3 2241.02 990391
3 2241.02 984857
3 2241.02 983063
3 2241.02 969143
3 2241.66 965787
3 2241.66 963259
3 2243.02 960468
3 2245.23 957936
3 2245.23 957280
3 2247.07 949708
3 2254.32 1008036
3 2254.32 996886
3 2254.32 991421
3 2254.32 985269
3 2254.32 982020
3 2254.94 979921
3 2255.43 978006
3 2255.43 973621
3 2255.43 973544
3 2255.98 969123
3 2255.98 968986
3 2255.98 967985
3 2255.98 967530
3 2255.98 965880
3 2256.57 963870
3 2257.04 954374
3 2257.04 947705
3 2257.04 945624
3 2257.58 944690
3 2257.58 944067
3 2257.58 942719
3 2268.25 1003559
3 2268.25 996104
3 2268.25 993294
3 2268.25 993199
3 2268.25 985271
3 2268.25 982112
3 2268.25 975933
3 2268.95 974586
3 2268.95 971998
3 2268.95 966294
3 2268.95 960485
3 2268.95 959047
3 2269.54 956338
3 2270.04 955862
3 2270.04 955482
3 2270.04 955206
3 2270.04 954044
3 2270.6 951990
3 2282.01 1112943
3 2282.01 1093288
3 2282.01 1090760
3 2282.01 1081949
3 2282.01 1056479
3 2282.01 1046592
3 2282.01 1017840
3 2282.01 1004110
3 2282.01 1004092
3 2282.01 1002398
3 2282.01 1000344
3 2282.01 994500
3 2282.01 993388
3 2282.86 992732
3 2283.36 986837
3 2283.36 981544
3 2283.36 980940
3 2283.36 980888
3 2283.89 976756
3 2283.89 976751
3 2283.89 972313
3 2283.89 970861
3 2284.47 970205
3 2284.47 969813
3 2284.47 969576
3 2284.47 968373
3 2286.04 968288
3 2286.04 965650
3 2286.55 964609
3 2286.55 964303
3 2286.55 963712
3 2287.49 946212
3 2291.31 943416
3 2291.77 942337
3 2296.17 1117086
3 2296.17 1110504
3 2296.17 1094110
3 2296.17 1083556
3 2296.17 1032108
3 2296.17 1021689
3 2296.17 1018361
3 2296.17 1017154
3 2296.17 1000860
3 2296.17 981205
3 2296.87 980589
3 2296.87 969676
3 2296.87 953657
3 2296.87 950997
3 2296.87 950956
3 2296.87 946025
3 2296.87 941737
3 2296.87 941432
3 2310.08 994846
3 2310.08 980068
3 2310.08 976268
3 2310.08 971445
3 2310.08 962614
3 2310.66 961703
3 2310.66 961255
3 2310.66 960550
3 2310.66 960114
3 2311.23 954680
3 2311.7 950977
3 2311.7 948449
3 2311.7 946897
3 2324.25 1086835
3 2324.25 1081799
3 2324.25 1035463
3 2324.25 1011582
3 2324.25 1010989
3 2324.74 991123
3 2324.74 980865
3 2327.73 979397
3 2327.73 976007
3 2327.73 969498
3 2328.12 963689
3 2328.12 958696
3 2328.47 949349
3 2338.11 1099438
3 2338.11 1075224
3 2338.11 1045279
3 2338.11 1028026
3 2338.11 1012934
3 2338.11 1008114
3 2338.11 1005806
3 2338.11 1005776
3 2338.59 1003730
3 2338.59 1003074
3 2338.59 997637
3 2338.59 994287
3 2338.59 990461
3 2338.59 988710
3 2338.59 985957
3 2338.59 981499
3 2338.59 976458
3 2338.59 976191
3 2339.17 975755
3 2339.17 975495
3 2339.17 974839
3 2339.17 972322
3 2339.58 970145
3 2339.58 969296
3 2339.58 968853
3 2339.58 965848
3 2339.97 965683
3 2339.97 959282
3 2340.3 959252
3 2340.3 957785
3 2340.64 957021
3 2340.64 953236
3 2340.98 950708
3 2340.98 945226
1 2350.95 943050
3 2350.95 940210
3 2352.05 1115079
3 2352.05 1056429
3 2352.05 1055418
3 2352.05 1032924
3 2352.05 1024177
3 2352.05 1018238
3 2352.05 1013770
3 2352.05 1011716
3 2352.05 1006117
3 2352.05 1003275
3 2352.62 998174
3 2352.62 992365
3 2352.97 989685
3 2352.97 988423
3 2352.97 977856
3 2353.33 976232
3 2353.33 959856
3 2353.67 956625
3 2353.67 956130
3 2366.1 1046643
3 2366.1 1035438
3 2366.1 1010197
3 2366.1 1004961
3 2366.1 996369
3 2366.1 995401
3 2366.1 976992
3 2366.58 965791
3 2366.58 961757
3 2366.58 961369
3 2366.58 951032
3 2366.58 949835
3 2366.99 949179
3 2367.55 948211
3 2380.05 1104857
3 2380.05 1090743
3 2380.05 1024734
3 2380.05 1020212
3 2380.05 1020153
3 2380.05 1018806
3 2380.05 1012997
3 2380.05 982784
3 2380.05 980138
3 2380.59 972667
3 2380.59 972011
3 2380.59 965379
3 2380.59 961660
3 2381.01 959839
3 2394.21 1053310
3 2394.21 1034156
1 2394.21 1027356
3 2394.21 1019083
3 2394.21 1005545
3 2394.21 1005085
3 2394.21 978089
3 2394.72 976187
3 2394.72 975531
3 2395.6 972450
1 2395.6 971026
3 2395.6 970077
3 2395.6 968028
3 2396.13 966424
3 2396.13 961710
3 2396.13 960778
3 2396.13 949031
3 2397.12 948633
3 2399.54 946503
3 2399.97 945769
3 2408.2 1011595
3 2408.2 1007288
3 2408.2 994154
3 2408.74 993371
3 2408.74 991013
3 2408.74 990809
3 2408.74 989462
3 2408.74 983494
3 2409.33 972940
3 2409.33 972922
1 2409.33 969425
3 2409.84 963340
3 2409.84 961853
3 2422.42 1046216
3 2422.42 1037737
3 2422.42 1037446
3 2422.42 1004116
3 2422.42 1003460
3 2422.42 997349
3 2422.42 997001
3 2423.09 993350
3 2423.09 993278
3 2423.09 991224
3 2423.62 990262
3 2423.62 984218
3 2424.1 978361
3 2424.56 976809
3 2426.27 975050
3 2426.27 973953
3 2426.27 972868
3 2426.27 969773
3 2426.82 968412
3 2426.82 966804
3 2426.82 966148
3 2427.32 961187
3 2427.32 958624
3 2427.32 958265
3 2427.88 957300
3 2427.88 956327
3 2436.21 1026864
3 2436.21 1021055
3 2436.21 1006698
3 2436.21 1005881
3 2436.21 1000072
3 2436.21 993865
3 2436.21 986399
3 2436.21 972347
3 2436.93 962809
3 2436.93 961849
3 2436.93 954824
3 2437.47 953740
3 2437.92 953477
3 2450.18 1022574
3 2450.18 1016880
3 2450.18 1016278
3 2450.18 1003144
3 2450.18 997335
3 2450.18 991468
3 2450.18 986597
3 2450.18 983896
3 2450.72 978927
3 2450.72 976873
3 2450.72 969020
3 2450.72 966981
3 2451.11 949705
3 2451.42 944277
3 2451.72 943647
3 2452.31 940678
3 2464.19 1088973
3 2464.19 1047045
3 2464.19 1035986
3 2464.19 1034229
3 2464.19 1033932
3 2464.19 1014778
3 2464.67 1004944
3 2464.67 999557
3 2464.67 998617
3 2464.67 985232
3 2464.67 983178
3 2464.67 982333
3 2464.67 979758
3 2465.14 977604
3 2465.14 976221
3 2465.14 973136
3 2465.55 962517
3 2466.14 960580
3 2466.73 959731
3 2467.57 949938
3 2467.57 948977
3 2467.57 946543
3 2467.57 945989
3 2467.96 945733
3 2478.21 1171667
3 2478.21 1100417
3 2478.21 1094780
3 2478.21 1089881
3 2478.21 1089863
3 2478.21 1081748
3 2478.21 1075865
3 2478.21 1066098
3 2478.21 1052459
3 2478.21 1049995
3 2478.21 1034173
3 2478.21 1030459
3 2478.21 1002224
3 2478.21 987817
3 2478.21 985992
3 2478.21 984103
3 2478.95 982049
3 2478.95 978297
3 2478.95 974270
3 2485.89 972520
3 2486.2 958471
3 2486.51 957702
3 2486.51 955138
3 2486.51 952088
3 2486.87 951893
3 2488.25 949560
3 2492.05 1129363
3 2492.05 1115923
3 2492.05 1099300
3 2492.05 1083068
3 2492.05 1080247
3 2492.05 1060574
3 2492.05 1032928
3 2492.05 1019446
3 2492.05 1006603
3 2492.05 1004549
3 2492.64 997135
3 2492.64 993354
3 2493.01 979545
3 2493.01 977306
3 2493.35 975058
3 2493.35 963738
3 2493.35 963540
3 2493.71 962576
3 2493.71 961997
3 2493.71 960030
3 2494.07 959731
3 2496.92 945733
3 2506.1 1087355
3 2506.1 1049484
3 2506.1 1046289
3 2506.1 1035735
3 2506.1 1031685
3 2506.1 1025712
3 2506.1 1015794
3 2506.1 1004766
3 2506.1 1001214
3 2506.1 994966
3 2506.1 993300
3 2506.68 992644
3 2506.98 983379
3 2506.98 981049
3 2507.32 975974
3 2508.15 971712
3 2508.73 964563
3 2508.73 964545
3 2508.73 962491
3 2520.02 1120604
3 2520.02 1080293
3 2520.02 1042709
3 2520.02 1025433
3 2520.02 1013929
3 2520.02 1004108
3 2520.02 999768
3 2520.02 991013
3 2520.02 981171
3 2520.02 980094
3 2520.6 976512
3 2520.91 976322
3 2520.91 973794
3 2520.91 973776
3 2521.24 970970
3 2521.24 970021
3 2521.24 969062
3 2521.88 967967
3 2522.46 959078
3 2524.39 958062
3 2524.69 953101
3 2524.69 950098
3 2525.03 949573
3 2525.36 949008
3 2525.66 948705
1 2528.35 948026
3 2534.02 1088475
3 2534.02 1084007
3 2534.02 1071138
3 2534.02 1051807
3 2534.02 1015819
3 2534.02 1004900
3 2534.02 998543
3 2534.02 988406
3 2534.57 981367
3 2534.57 968055
3 2534.57 962576
3 2534.57 961754
3 2534.98 957501
3 2538.31 946443
3 2538.31 945096
3 2538.31 942650
3 2548.1 1049825
3 2548.1 1048910
3 2548.1 1037497
3 2548.1 1032653
3 2548.1 1026814
3 2548.1 1021713
3 2548.57 1020100
3 2548.57 1008757
3 2548.93 1001811
3 2548.93 997409
3 2548.93 994239
3 2548.93 977548
3 2548.93 975059
3 2548.93 967332
3 2549.38 964713
3 2549.97 964481
3 2550.27 962679
3 2550.27 962568
3 2550.27 952247
3 2562.2 1068876
3 2562.2 1043666
3 2562.2 1037857
3 2562.2 1034750
3 2562.2 1027748
3 2562.2 1027171
3 2562.2 1009347
3 2562.2 1004064
3 2562.2 1001142
3 2562.2 991649
3 2562.2 981988
3 2562.76 975076
3 2563.33 972430
3 2563.89 972033
3 2564.19 962049
3 2564.19 959935
3 2564.53 959681
3 2564.53 957881
3 2576.11 1028207
3 2576.11 1011031
3 2576.11 1002406
3 2576.11 983252
3 2576.11 977335
3 2576.11 975233
3 2576.11 974577
3 2576.6 972608
3 2576.6 970636
3 2576.6 969528
3 2576.97 966663
3 2576.97 966118
3 2576.97 964582
3 2577.37 962703
3 2577.69 962054
3 2577.69 960082
3 2577.69 958735
3 2578.62 956946
3 2578.62 954160
3 2578.95 953804
3 2580.93 946588
3 2580.93 944614
3 2590.2 1078696
3 2590.2 1073987
3 2590.2 1072162
3 2590.2 1062652
3 2590.2 1059605
3 2590.2 1046541
3 2590.2 1044013
3 2590.2 1034478
1 2590.2 1033967
3 2590.2 1006352
3 2590.2 1005818
3 2590.2 1004344
3 2590.83 1002997
3 2590.83 1000943
3 2590.83 1000287
3 2591.21 998607
3 2591.21 993514
3 2591.21 991689
3 2591.21 985000
3 2591.21 982472
3 2591.98 982153
3 2591.98 978923
3 2591.98 974152
3 2591.98 971576
3 2591.98 968848
3 2592.42 966794
3 2592.42 965016
3 2592.76 964351
3 2596.87 962291
3 2597.19 959763
3 2597.19 959628
3 2597.54 959592
3 2597.54 959072
3 2597.54 958416
3 2604.03 1077810
3 2604.03 1056857
3 2604.03 1053423
3 2604.03 1050584
3 2604.03 1046439
3 2604.03 1038093
3 2604.03 1020219
3 2604.03 1008111
3 2604.55 1003195
3 2604.55 986174
3 2604.55 985281
3 2604.55 981877
3 2606.92 979192
3 2606.92 962787
3 2618.11 1074855
3 2618.11 1074419
3 2618.11 1060857
3 2618.11 1055048
3 2618.11 1041877
3 2618.11 1041847
3 2618.11 1035107
3 2618.11 1012446
3 2618.11 1007769
3 2618.65 1004874
3 2618.65 987598
3 2618.98 986025
3 2619.3 985198
3 2619.3 973411
3 2619.3 969386
3 2619.69 969356
3 2619.69 965012
3 2619.69 964130
3 2619.69 963476
3 2619.69 958516
3 2619.69 957667
3 2620.15 955421
3 2620.15 955391
3 2620.15 946928
3 2620.82 937362
3 2632.1 1076727
3 2632.1 1056124
3 2632.1 1048552
3 2632.1 1043233
3 2632.1 1029818
3 2632.1 1025350
3 2632.1 1009131
3 2632.1 1004201
1 2632.1 995636
3 2632.65 989889
3 2632.65 988834
3 2632.65 988078
3 2632.65 950506
3 2633.36 945687
3 2646.12 1050575
3 2646.12 1047508
3 2646.12 1039936
3 2646.12 1034127
3 2646.12 1033497
3 2646.12 1017103
3 2646.62 1010404
3 2646.62 997153
3 2646.62 983324
3 2646.62 974110
3 2646.62 972991
3 2647.05 965419
3 2647.05 964763
3 2649.43 961705
3 2649.43 952269
3 2649.43 951613
3 2650.66 949623
3 2650.66 947030
3 2651 946265
3 2651 945609
1 2651.33 945336
3 2660.14 1138787
3 2660.14 1110892
3 2660.14 1094806
3 2660.14 1082329
3 2660.14 1070951
1 2660.14 1051776
3 2660.14 1040091
3 2660.14 1019913
3 2660.89 1010801
3 2660.89 1004231
3 2660.89 988658
3 2660.89 988198
3 2661.49 986465
3 2661.97 985276
3 2663.31 984853
3 2663.31 982295
3 2674.23 1074084
3 2674.23 1061357
3 2674.23 1053331
3 2674.23 1050803
3 2674.23 1040037
3 2674.23 1010735
3 2674.23 1008244
3 2674.23 990968
3 2674.9 988440
3 2674.9 979730
3 2674.9 976283
3 2674.9 975164
3 2675.5 973680
3 2675.5 973220
3 2675.5 968509
3 2676.06 965981
3 2676.83 965290
3 2678.14 963981
3 2678.14 962581
3 2678.64 957159
3 2678.64 952719
3 2678.64 951153
3 2678.64 948251
3 2679.13 946541
3 2679.13 944106
3 2679.13 944091
3 2679.13 943014
3 2679.57 940960
3 2688.1 1058486
3 2688.1 1033520
3 2688.1 1030933
3 2688.1 1022623
3 2688.1 1019017
3 2688.1 1017670
3 2688.64 1013909
3 2688.64 1001399
3 2688.64 989220
3 2688.64 985228
3 2689.08 982021
3 2689.08 977281
3 2689.08 972779
3 2689.08 966929
3 2689.08 959932
3 2690.92 957840
3 2691.6 955363
3 2691.6 953669
3 2692.27 953432
3 2692.62 951420
3 2693.79 950169
3 2702.3 1046671
3 2702.3 1032331
3 2702.3 1016012
3 2702.3 1013111
3 2702.3 997405
3 2702.3 996910
3 2702.86 996254
3 2703.2 962114
3 2716.29 1068375
3 2716.29 1064727
3 2716.29 1062673
3 2716.29 1048333
3 2716.29 1029179
3 2716.29 1012525
3 2716.29 1006911
3 2716.98 1006236
3 2716.98 1002921
3 2716.98 1001667
3 2717.55 999916
3 2717.55 996322
3 2717.55 980379
3 2717.55 980076
3 2717.55 978325
3 2719.01 971162
3 2719.01 958968
3 2719.5 957821
3 2724.58 956070
3 2730.18 1031109
3 2730.18 1015596
3 2730.18 1013784
3 2730.18 996035
3 2730.18 989135
3 2730.18 982798
3 2730.18 976216
3 2730.85 974704
3 2730.85 964937
3 2731.33 951165
3 2731.78 946484
3 2731.78 938488
3 2731.78 936419
3 2732.29 935960
3 2732.29 935683
3 2732.29 933030
3 2744.05 1093948
3 2744.05 1059131
3 2744.05 1057762
3 2744.05 1046808
3 2744.05 1022884
3 2744.05 1017405
3 2744.05 1005831
3 2744.05 998332
3 2744.05 995847
3 2744.05 993518
3 2744.83 990601
3 2744.83 988966
3 2744.83 976801
3 2744.83 976193
3 2744.83 975764
3 2744.83 973677
3 2744.83 972438
3 2745.43 970384
3 2745.88 970223
3 2746.34 966945
3 2746.34 966057
3 2746.83 964823
3 2746.83 962295
3 2746.83 960936
3 2746.83 959326
3 2747.85 954108
3 2748.74 951942
3 2748.74 949888
3 2749.23 947391
3 2749.69 945835
3 2749.69 943878
3 2752.31 942866
3 2758.35 1118564
3 2758.35 1076581
3 2758.35 1060860
3 2758.35 1048358
3 2758.35 1044737
3 2758.35 1034064
3 2759.01 1029276
3 2759.01 1026455
3 2759.01 1019789
3 2759.01 1009950
3 2759.01 1005662
3 2759.63 998230
3 2759.63 992774
3 2760.16 988337
3 2760.16 982698
3 2760.16 982262
3 2760.16 981606
3 2760.16 976558
3 2760.16 970187
3 2760.75 963845
3 2761.21 960921
3 2761.21 960153
3 2761.21 958393
3 2762.56 958375
3 2762.56 956165
3 2763.88 946505
3 2763.88 946305
3 2764.81 944251
3 2765.28 942900
3 2765.28 942018
3 2765.77 941063
3 2765.77 941045
3 2769.71 939369
3 2769.71 939230
3 2772.26 1079799
3 2772.26 1066832
3 2772.26 1051740
3 2772.26 1018080
3 2772.26 1017459
3 2772.87 1016803
3 2772.87 1010994
1 2772.87 1009787
3 2772.87 995482
3 2774.7 995049
3 2774.7 994393
3 2775.21 980253
3 2775.21 977725
3 2776.13 975412
3 2776.58 970966
3 2776.58 970706
3 2777.93 970399
3 2777.93 968178
3 2786.1 1090790
3 2786.1 1077656
3 2786.1 1061730
3 2786.1 1032441
3 2786.1 1021974
3 2786.1 1018622
3 2786.1 1015265
3 2786.73 1007186
3 2786.73 1006413
3 2786.73 1001623
3 2786.73 974802
3 2786.73 970011
3 2787.3 964874
3 2787.76 964101
3 2787.76 963990
3 2788.28 957148
3 2788.72 955094
Score = 950235
