    Blocking waiting for file lock on package cache
    Blocking waiting for file lock on package cache
    Blocking waiting for file lock on package cache
    Blocking waiting for file lock on package cache
    Blocking waiting for file lock on build directory
    Finished release [optimized] target(s) in 0.09s
     Running `target/release/tester ../a.out 0008`
3 0.439 1033446
3 0.439 1027515
3 0.439 1016422
3 0.439 1003066
3 0.439 1001302
3 0.439 978419
3 0.439 968430
3 0.833 962699
3 1.11 953327
3 1.11 952715
3 13.976 951763
3 14.454 1054885
3 14.454 1054723
3 14.454 1008387
3 14.454 1006806
3 14.454 1006459
3 14.454 1002134
3 14.454 1001478
3 14.454 995196
3 15.012 994656
3 15.012 993617
3 15.012 991877
3 15.492 991140
3 15.492 979601
3 15.492 968593
3 15.492 964539
3 15.492 963969
3 16.003 958160
3 17.98 957407
3 17.98 956683
3 18.336 956191
3 18.336 956040
1 20.665 954559
3 20.94 954070
3 22.476 953590
3 22.476 951349
3 22.476 950768
3 28.029 1031779
3 28.029 1021225
3 28.029 1011391
3 28.029 1006675
3 28.029 997227
3 28.568 992231
3 28.568 992046
3 28.568 980942
3 28.568 976635
3 28.568 968010
3 28.568 965430
3 28.568 962788
3 29.105 960336
3 29.105 957107
3 29.596 956451
3 30.468 956434
3 30.9 953906
3 30.9 950226
3 31.253 949005
3 31.959 948505
3 31.959 947849
3 32.302 946166
3 32.621 941698
3 37.943 940984
3 38.383 940790
3 38.383 940579
3 42.055 1066197
3 42.055 1061369
3 42.055 1048709
3 42.055 1046181
3 42.055 1016851
3 42.055 1013587
3 42.055 1010097
3 42.055 1007949
3 42.516 1007860
3 42.516 1007293
3 42.516 1000263
3 42.516 996375
3 42.516 988313
3 43.141 986155
3 43.141 984356
3 43.141 980705
3 43.141 978002
3 43.141 975157
3 43.141 972525
3 43.141 970449
3 43.141 967921
3 43.855 962112
3 43.855 957211
3 44.997 951545
3 48.226 947535
3 48.226 945135
3 48.687 945117
3 48.687 944826
3 48.687 939612
3 48.687 938758
3 49.164 938102
3 49.164 937022
3 56.226 1008314
3 56.226 999166
3 56.226 984354
3 56.226 973929
3 56.226 970555
3 56.226 963251
3 56.226 963237
3 56.226 957169
3 56.795 956513
1 57.661 952201
3 57.661 947270
3 59.77 946155
3 62.861 942578
3 65.103 939879
3 65.103 935891
3 65.594 933732
3 66.046 932558
3 66.046 931994
3 70.379 1071731
3 70.379 1022998
3 70.379 1006712
3 70.379 976761
3 70.379 974233
3 70.379 973577
3 70.883 962425
3 71.172 960898
3 71.172 960751
3 71.172 952479
3 71.172 951590
3 71.172 950490
3 71.657 949834
3 71.657 949793
3 71.657 949734
3 71.657 949587
3 71.951 940663
3 72.211 939895
3 84.036 1074698
3 84.036 1056229
3 84.036 1056127
3 84.036 1026354
3 84.036 1026043
3 84.036 1019712
3 84.036 1018101
3 84.036 1006276
3 84.036 1004700
3 84.036 1002545
3 84.036 998787
3 84.651 994319
3 84.651 991508
3 84.651 978026
3 84.651 976837
3 84.651 972956
3 84.651 970830
3 85.227 964778
3 86.1 961642
3 86.1 957174
3 87.278 954492
3 87.278 954038
3 87.695 953418
3 88.032 952757
3 88.371 951510
3 98.096 1058696
3 98.096 1009359
3 98.096 1006706
3 98.096 998081
3 98.096 973063
3 98.096 972144
3 98.096 966769
3 98.096 966335
3 98.505 965759
1 100.021 964806
3 100.021 964726
3 101.463 964150
3 101.463 954675
3 101.945 952233
3 102.435 951901
3 102.435 951278
3 112.025 1057377
3 112.025 1039187
3 112.025 1037025
3 112.025 1019700
3 112.025 1006547
3 112.025 998031
3 112.025 996518
3 112.025 979842
3 112.025 976875
3 112.025 973074
3 112.626 972840
3 112.626 969858
3 112.947 967330
3 112.947 965102
3 112.947 955381
3 113.234 954002
3 113.234 950198
3 113.234 948851
3 113.756 948827
3 114.018 943896
3 126.081 1103805
3 126.081 1089839
3 126.081 1042742
3 126.081 1020144
3 126.081 1015892
3 126.081 1006665
3 126.081 1001372
3 126.636 999824
3 126.636 996460
3 126.636 986753
3 126.636 972014
3 127.158 971408
3 127.158 970752
3 127.579 970007
3 128.347 968228
3 128.347 967156
3 128.347 956637
3 128.347 952331
3 132.606 949065
3 140.107 1064026
3 140.107 1062795
3 140.107 1059944
3 140.107 1057099
3 140.107 1055734
3 140.107 1039648
3 140.107 1020005
3 140.107 1005204
3 140.107 1001425
3 140.107 991037
3 140.107 988290
3 140.107 987619
3 140.107 976602
3 140.107 968111
3 140.776 966353
3 140.776 955399
3 140.776 954814
3 141.688 953559
3 141.688 953301
3 141.688 952645
3 142.24 951206
3 142.24 947023
3 142.24 946565
3 142.24 944698
3 142.63 944375
3 142.63 943518
3 142.63 943500
3 146.697 942963
3 154.162 1022351
3 154.162 1015638
3 154.162 1006829
3 154.162 968485
3 154.162 964886
3 154.162 959897
3 154.598 959197
3 154.598 957191
3 154.598 949913
3 154.598 947845
3 154.598 946498
3 155.929 945501
3 155.929 945458
3 155.929 945055
3 156.406 944597
3 156.853 942010
3 156.853 940663
3 161.147 940026
3 161.147 937374
3 162.011 936787
3 162.588 929224
3 163.402 927158
3 168.092 990944
3 168.092 989270
3 168.092 985135
3 168.092 982050
3 168.092 980843
3 168.092 980187
3 168.092 977316
3 168.092 974007
3 168.092 956785
3 168.092 941200
3 168.626 940749
3 169.056 940301
3 182.099 1029637
3 182.099 1026792
3 182.099 988569
3 182.099 987449
3 182.099 980063
3 182.099 979407
3 182.099 971177
3 182.099 965368
3 182.505 964651
3 182.505 958568
3 182.505 955231
3 182.505 951929
3 182.505 940573
3 183.109 940522
3 183.109 940484
3 183.418 937880
3 183.418 936751
3 183.418 936146
3 184.568 934454
3 185.02 933887
3 185.02 929080
3 185.499 923903
3 196.088 1085448
3 196.088 1082920
3 196.088 1078474
3 196.088 1025228
3 196.088 1021629
3 196.088 1008978
3 196.088 1003493
3 196.088 998994
3 196.088 995992
3 196.471 992926
3 196.471 985756
3 196.471 983324
3 196.471 981977
3 196.471 973215
3 197.084 969666
3 197.084 961041
3 197.084 956607
3 197.381 956494
3 197.381 952026
3 197.969 950240
3 198.51 947395
3 210.041 1041491
3 210.041 1015554
3 210.041 1005647
3 210.479 999579
3 210.479 996852
3 210.479 987194
3 210.479 985709
3 210.479 971533
3 210.878 967813
3 210.878 964955
3 210.878 954436
3 210.878 951619
3 211.275 949629
3 211.275 948973
3 211.275 941772
3 211.652 936527
3 211.652 930459
3 211.994 927502
3 211.994 924100
3 224.444 1031107
3 224.444 1012069
3 224.444 1005133
3 224.444 999065
3 224.444 998871
3 224.444 995561
3 224.444 991962
3 224.444 985236
3 224.444 980770
3 224.444 966016
3 224.444 964970
3 224.444 964547
3 224.444 961730
3 225.074 960683
3 225.074 958084
3 225.074 955227
3 225.074 938051
3 225.549 937845
3 226.101 937571
3 228.929 937488
3 228.929 937131
3 229.409 934603
3 229.409 931135
3 229.86 930479
3 238.043 1054638
3 238.043 1050377
3 238.043 1036119
3 238.043 1012389
3 238.043 990935
3 238.043 987837
3 238.043 986452
3 238.404 985309
3 238.404 974712
3 238.404 972486
3 238.701 968805
3 238.701 959489
3 239.057 958833
3 242.005 953525
3 242.82 949894
3 245.901 948922
3 249.763 946211
3 250.16 945236
3 250.16 944212
3 250.511 938144
3 250.511 936797
3 250.871 935397
3 252.154 1068959
3 252.154 1037001
3 252.154 1028860
3 252.154 1024494
3 252.154 1011068
1 252.154 1006662
3 252.601 1000792
3 252.601 998264
3 252.601 991287
3 252.601 987651
3 252.601 970627
3 252.997 968676
3 252.997 960843
3 252.997 958315
3 255.554 957981
3 256.078 942669
3 263.599 940957
3 266.179 1009899
3 266.179 995938
3 266.179 995418
3 266.179 987112
3 266.179 986456
3 267.293 975290
3 267.293 975160
3 267.293 973420
3 267.293 968923
3 267.684 967205
3 267.684 963384
3 267.684 960599
3 267.684 960306
3 268.074 953400
3 268.341 950532
3 268.341 949185
3 268.621 947584
3 268.89 947332
1 272.065 939541
3 272.61 938885
3 273.934 934681
3 274.426 933334
3 280.206 1023488
3 280.206 1022708
3 280.206 1020180
3 280.206 994243
3 280.206 987512
3 280.206 986305
3 280.206 977908
3 280.206 975374
3 280.206 972099
3 280.206 971077
3 280.69 970421
3 280.69 969643
3 280.69 960583
3 280.69 954774
3 280.69 953245
3 280.69 952315
3 281.11 946506
3 281.11 944343
3 281.11 942308
3 281.11 941872
3 281.406 937155
3 282.52 935953
3 294.12 1103162
3 294.12 1086138
3 294.12 1054485
3 294.12 1027363
3 294.12 1021554
3 294.12 1019026
3 294.12 1013457
3 294.12 1009575
3 294.12 1009461
3 294.12 1006616
3 294.12 1000077
3 294.12 996265
3 294.521 981173
3 294.521 980856
3 294.853 975514
3 294.853 975444
3 294.853 974788
3 295.202 972602
3 295.202 968071
3 295.202 961495
3 295.202 958193
3 295.202 956630
3 295.522 955638
3 296.58 953990
3 297.057 949198
3 298.297 948542
3 301.232 948439
3 301.232 943371
3 308.103 1016822
3 308.103 1012354
3 308.103 1006470
3 308.103 997329
3 308.103 996088
3 308.103 986191
3 308.654 983949
3 308.654 980382
3 308.654 975808
3 308.654 975692
3 308.654 972829
3 309.178 970573
3 309.178 968482
3 309.178 967020
3 311.913 963128
3 311.913 962119
3 314.192 960369
3 314.192 957736
3 314.192 956981
3 314.192 956142
3 314.192 954718
3 316.94 952518
3 322.053 1110993
3 322.053 1100039
3 322.053 1085117
3 322.053 1082589
1 322.053 1048872
3 322.053 1032280
3 322.053 1016899
3 322.053 1016430
3 322.053 1013110
3 322.053 1009633
3 322.053 1007291
3 322.633 1002302
3 322.633 1000878
3 323.127 982037
3 323.127 976734
3 323.127 974938
3 324.206 974469
3 324.206 966444
3 324.579 961507
3 324.579 951809
3 324.933 947755
3 324.933 943547
3 325.248 942659
3 325.532 942177
3 325.532 941825
3 325.532 933309
3 325.813 932696
3 336.131 1100705
3 336.131 1090151
3 336.131 1073127
3 336.131 1067437
3 336.131 1039272
3 336.131 1038285
3 336.131 1025547
3 336.131 1019820
3 336.131 993851
3 336.131 988765
3 336.131 979503
3 336.747 975035
3 336.747 972507
3 350.184 1079943
3 350.184 1067196
3 350.184 1028232
3 350.184 1024113
3 350.184 1020340
3 350.184 1014531
3 350.184 1014006
1 350.184 1002258
3 350.184 991946
3 350.184 987161
3 350.81 972341
3 350.81 971309
3 351.287 968172
3 351.739 967962
3 351.739 966015
3 351.739 965750
3 351.739 963222
3 351.739 963023
3 351.739 962189
3 351.739 948827
3 352.305 945364
3 352.641 943750
3 352.641 943431
3 355.607 943094
3 358.598 938765
3 359.422 938742
3 364.117 1015684
3 364.117 1001192
3 364.117 996734
3 364.117 996486
3 364.117 979120
3 364.117 977510
3 364.117 974826
3 364.117 973298
3 364.117 972642
3 364.117 962210
3 364.492 961936
3 364.492 958958
3 365.619 957160
3 365.619 950492
3 365.928 947509
3 366.443 944017
3 366.443 943040
3 366.443 941286
3 367.49 936934
3 367.916 934406
3 378.19 1025635
3 378.19 1018670
3 378.19 1018453
3 378.19 1018014
3 378.19 1015760
3 378.19 979048
3 378.19 961458
3 378.19 957342
3 378.883 956686
3 380.258 952466
3 380.258 952299
3 380.258 947219
3 380.258 942629
3 380.752 940825
3 383.159 940405
3 383.159 937255
3 383.436 936566
3 383.436 934987
3 384.212 933925
3 392.07 1011554
3 392.07 1004287
3 392.07 980946
3 392.07 978283
3 392.07 964933
3 392.07 962602
3 392.07 962096
3 392.07 947595
3 392.07 945940
3 392.07 939872
3 392.688 929888
3 406.173 1072158
3 406.173 1041253
3 406.173 1018476
3 406.173 1011287
3 406.655 1003146
3 406.655 999381
3 406.655 989803
3 406.655 987987
3 406.655 965493
3 407.268 965331
3 407.268 962316
3 407.268 960745
3 407.268 950578
3 407.572 949096
3 408.366 948811
3 408.642 946497
3 408.642 944422
3 409.169 943196
3 409.169 942087
3 409.169 936683
3 420.213 1101963
3 420.213 1096154
3 420.213 1089727
3 420.213 1068146
3 420.213 1057811
3 420.213 1054664
3 420.213 1042223
3 420.213 1041795
3 420.213 1020605
3 420.6 1019495
3 420.6 1012737
3 420.6 1010128
3 420.896 1000783
3 420.896 987372
3 420.896 979181
3 420.896 962377
3 420.896 960098
3 421.225 951344
3 421.225 951044
3 421.225 950820
3 421.524 950630
3 421.524 948430
3 432.537 944907
3 432.537 943913
3 432.537 941126
3 432.537 940667
3 434.219 1144811
3 434.219 1127015
3 434.219 1061662
1 434.219 1027015
3 434.219 1026222
3 434.219 1025778
3 434.219 990983
3 434.219 984476
3 434.219 981700
3 434.622 981211
3 434.622 974915
3 434.906 967171
3 434.906 966315
3 434.906 962317
3 434.906 957744
3 435.484 953679
3 435.484 947932
3 435.484 946316
3 437.176 936130
3 437.176 933206
3 437.638 930639
3 438.077 926504
3 438.521 923976
3 439.384 920399
3 448.078 1016313
3 448.078 1010504
3 448.078 991561
3 448.078 987186
3 448.078 977347
3 448.413 976000
3 448.881 969722
3 462.138 1021677
3 462.138 1018307
3 462.138 1014285
3 462.138 1012498
3 462.138 1005009
3 462.138 998522
3 462.138 988843
3 462.138 984397
3 462.723 982850
3 462.723 981386
3 463.21 978743
3 463.21 974384
3 463.21 973051
3 463.694 972042
3 464.151 966949
3 465.956 966099
3 465.956 958719
3 465.956 953800
3 466.441 952453
3 471.269 949806
3 471.867 947794
3 471.867 945047
3 471.867 944637
3 472.48 943111
3 476.19 1102921
3 476.19 1085596
3 476.19 1058490
3 476.19 993137
3 476.19 990292
3 476.19 980086
3 476.19 975968
3 476.19 974874
3 476.771 967818
3 477.108 965270
3 477.108 940665
3 477.108 940283
3 477.482 936705
3 477.482 934177
3 477.482 933287
3 490.192 1092334
3 490.192 1079674
3 490.192 1059006
3 490.192 1039363
3 490.192 1029755
3 490.531 1026091
3 490.531 1022038
3 490.531 984891
3 490.531 978841
3 490.531 973910
3 490.531 972563
3 490.942 969229
3 490.942 967199
3 490.942 966373
3 490.942 964124
3 491.363 963506
3 491.363 962850
3 491.661 960528
3 491.661 958547
3 492.65 948723
3 493.531 946787
3 493.531 944667
3 494.003 942139
3 495.315 939591
3 495.315 935123
3 504.077 1061079
3 504.077 1060423
3 504.077 1057895
3 504.077 1039165
3 504.077 1033415
3 504.077 1027648
3 504.077 1026992
3 504.077 1026191
3 504.077 1025662
3 504.077 1019002
3 504.077 1013723
3 504.685 997456
3 504.685 988532
3 504.685 983841
3 504.685 977293
3 504.685 972878
3 504.685 971484
3 504.685 967206
3 505.304 966601
3 505.304 957626
3 505.304 956970
3 505.304 951942
3 505.627 947041
3 505.627 943291
3 505.902 941176
3 506.699 935042
3 507.255 931493
3 507.803 930796
3 508.146 928974
3 518.218 1082800
3 518.218 1031326
3 518.218 1030112
3 518.218 1029275
3 518.218 1026238
3 518.218 1007200
3 518.218 1004080
3 518.659 995472
3 518.659 988046
3 518.659 987244
3 518.659 986075
3 518.659 983547
3 518.659 977555
3 518.659 974129
3 518.659 967812
3 519.008 961239
3 519.008 956308
3 519.008 955044
3 519.322 954330
3 519.322 953906
3 519.322 952516
3 519.322 952498
3 519.62 951842
3 520.137 949267
3 520.137 948872
3 520.418 948429
3 521.179 947245
3 521.454 946469
3 521.454 945279
3 521.744 944336
3 521.744 942989
3 532.424 1033340
3 532.424 1029632
3 532.424 1025667
3 532.424 1016765
3 532.424 1007535
3 532.424 998930
3 532.424 982844
3 532.424 981525
3 533.003 980759
3 533.003 973556
3 533.003 963488
3 533.555 959020
3 533.555 958424
3 533.555 954335
3 533.991 953679
3 533.991 951342
3 534.338 951271
3 534.822 947037
3 546.149 1053647
3 546.149 1048868
3 546.149 1009664
3 546.149 1007418
3 546.149 1005654
3 546.149 1000805
3 546.149 998135
3 546.149 987616
3 546.149 982113
3 546.642 976045
3 546.911 973517
3 546.911 952717
3 547.491 950919
3 559.807 947337
3 559.807 944048
3 560.106 1043061
3 560.106 1034658
3 560.106 1034470
3 560.106 1017661
3 560.106 1015316
3 560.106 1011588
3 560.106 983135
3 560.106 982059
3 560.448 980463
3 560.448 973701
3 560.448 973045
3 560.881 966588
3 561.692 965972
3 574.048 1010744
3 574.048 1004935
3 574.048 990356
3 574.048 987157
3 574.048 984462
3 574.048 964985
3 574.395 963505
3 574.659 962016
3 575.788 961186
3 576.204 960715
3 576.204 959811
3 576.204 949619
3 576.574 947446
3 576.574 942978
3 576.574 942688
3 576.574 942032
3 588.252 1025803
3 588.252 1022444
3 588.252 1019142
3 588.788 1016831
3 588.788 993701
3 588.788 993025
3 588.788 987219
3 589.311 985556
3 590.206 977606
3 590.712 969580
3 591.895 966159
3 592.182 960955
3 593.235 958133
3 593.503 955605
3 593.503 945959
3 597.843 942347
3 598.347 939376
3 598.347 938029
3 602.193 1032946
3 602.193 1004066
3 602.193 979938
3 602.193 968065
3 602.193 967593
3 602.193 966923
3 602.193 957609
3 602.193 954758
3 602.522 953750
3 602.522 941757
3 603.372 939551
3 603.372 939533
3 616.043 1026405
3 616.043 1020983
3 616.043 1007031
3 616.043 987928
3 616.043 985778
3 616.043 978106
3 616.043 968073
3 616.043 967785
3 616.043 960186
3 616.654 958916
3 616.654 956420
3 616.654 946704
3 617.136 942589
3 617.136 941933
3 619.113 941515
3 630.402 1066209
3 630.402 1059083
3 630.402 1057876
3 630.402 1043240
3 630.402 997244
3 630.402 990987
3 630.402 989619
3 630.402 988111
3 630.402 987455
3 631.096 986248
3 631.511 977353
3 631.511 968103
3 631.511 967447
3 631.511 965230
3 631.511 963247
3 631.511 955335
3 631.511 953011
3 631.511 950404
3 644.278 1056286
3 644.278 1029494
3 644.278 1025898
3 644.278 1019101
3 644.278 1006592
3 644.278 990109
3 644.278 987561
3 644.278 984678
3 644.278 971004
3 644.797 968362
3 644.797 966868
3 645.147 961939
3 645.147 959938
3 645.147 957694
3 645.939 957471
3 645.939 947702
3 645.939 946275
3 646.297 945803
3 647.881 941040
3 647.881 941016
3 648.555 940293
3 648.555 940070
3 649.118 939391
3 649.118 938613
3 649.388 938509
3 656.317 937669
3 657.07 937440
3 657.07 934589
3 658.25 1082612
3 658.25 1069198
3 658.25 1063389
3 658.25 1048586
3 658.25 1044987
3 658.25 1019817
3 658.25 1015010
3 658.25 1008814
3 658.25 1007522
3 658.25 1001800
3 658.635 979405
3 658.635 979306
3 658.918 976016
3 658.918 969055
3 658.918 968819
3 658.918 963116
3 658.918 957806
3 659.257 954789
3 659.257 954155
3 660.034 953071
3 660.034 950671
3 660.034 947161
3 660.347 943172
3 672.109 1082511
3 672.109 1036515
3 672.109 1018656
3 672.109 1016043
3 672.109 1003861
3 672.109 1002475
3 672.109 997544
3 672.109 996075
3 672.496 987201
3 672.496 986536
3 672.496 979629
3 672.496 978973
3 673.069 972905
3 673.35 964520
3 673.35 960785
3 673.35 955213
3 680.807 955013
3 681.087 954608
3 681.087 953654
3 681.418 943745
3 681.418 942154
3 686.09 1100201
3 686.09 1079830
3 686.09 1064738
3 686.09 1063069
3 686.09 1023753
3 686.09 1013914
3 686.09 1006588
3 686.09 989696
3 686.09 988726
3 686.09 986468
3 686.09 983274
3 686.09 981122
3 686.09 975054
3 686.505 973477
3 686.505 972130
3 686.505 968681
3 687.013 963261
3 687.471 961893
3 687.471 961779
3 689.235 961198
3 689.235 960673
3 700.069 1059012
3 700.069 1051072
3 700.069 1048221
3 700.069 1043585
3 700.069 1037776
3 700.069 1012599
3 700.069 1005658
3 700.069 998924
3 700.069 995514
3 700.069 988151
3 700.577 987600
3 700.577 985197
3 700.891 982669
3 700.891 976646
3 700.891 970837
3 700.891 966583
3 700.891 962606
3 701.379 959254
3 701.379 958004
3 701.835 954776
3 702.308 954225
3 703.203 950028
3 703.667 949439
3 704.588 948267
3 707.705 947072
3 707.705 942500
3 708.177 936906
3 708.683 934378
3 714.058 1070664
3 714.058 1053339
3 714.058 1037921
3 714.058 1024486
3 714.058 1024021
3 714.058 1013067
3 714.058 1001319
3 714.681 1000381
3 714.681 995221
3 714.681 994075
3 714.977 988007
3 715.241 985752
3 715.241 979704
3 715.241 979700
3 715.593 976553
3 715.593 975204
3 716.055 974846
3 716.517 974779
3 716.517 972838
3 716.517 972611
3 716.517 965409
3 718.838 964602
3 718.838 962272
3 719.679 960053
3 719.679 957976
3 719.679 955666
3 720.402 954507
3 720.852 953842
3 721.296 952921
3 721.746 949514
3 722.196 949503
3 722.641 949261
3 722.641 941545
3 724.581 938955
3 728.185 1061655
3 728.185 1055587
3 728.185 1023202
3 728.185 1022468
3 728.185 1003999
3 728.185 997931
3 728.185 994444
3 728.185 989814
3 728.185 970686
3 728.185 969507
3 728.868 964877
3 729.134 962027
3 729.134 958143
3 729.408 957164
3 729.408 956508
3 729.841 954005
3 729.841 951834
3 729.841 949792
3 729.841 949592
3 729.841 948936
3 734.566 946091
3 742.195 1067284
3 742.195 1065360
3 742.195 1061216
3 742.195 1051232
3 742.195 1048381
3 742.195 1042665
3 742.195 1026433
3 742.195 1019048
3 742.195 1012718
3 742.195 999213
3 742.195 996192
3 742.195 994346
3 742.614 977601
3 742.614 975256
3 742.614 964206
3 742.614 961058
3 742.614 958141
3 742.931 957958
3 743.452 957867
3 743.973 952300
3 743.973 948028
3 743.973 944365
3 745.015 941337
3 745.015 939959
3 745.015 935224
3 756.31 1007691
3 756.31 993793
3 756.31 987725
3 756.31 974155
3 756.822 956979
3 757.337 951170
3 758.133 949848
3 758.133 947848
3 758.431 943564
3 758.703 942447
3 758.703 940805
3 770.079 1039493
3 770.079 1027625
3 770.079 1024774
3 770.079 1011334
3 770.079 1003559
3 770.079 1003374
3 770.079 978900
3 770.079 974710
3 771.649 974700
3 772.107 970459
3 772.107 964650
3 774.863 957995
3 774.863 957106
3 774.863 956223
3 784.01 1030018
3 784.01 1025078
3 784.01 1014559
3 784.01 1013982
3 784.01 1003605
3 784.01 1001244
3 784.01 997916
3 784.01 995906
3 784.01 982379
3 784.01 972219
3 784.415 967318
3 785.202 950294
3 785.5 948047
3 785.77 943610
3 785.77 937678
3 786.092 937183
3 786.092 937022
1 798.301 1069589
3 798.301 1053503
3 798.301 1037968
3 798.301 1034349
3 798.301 1033865
3 798.301 1031821
3 798.301 1029391
3 798.301 1028222
3 798.301 1019897
3 798.301 1013829
3 799.067 1009011
3 799.067 998092
3 799.067 994190
3 799.067 978597
3 799.067 974662
3 799.067 967871
3 799.067 962940
3 800.034 960246
3 800.034 957401
3 800.034 956448
3 800.377 953858
3 800.635 953202
3 800.635 952287
3 800.915 952219
3 800.915 946706
3 801.731 946106
3 812.252 1031768
3 812.252 1008479
3 812.252 1005888
3 812.252 1002411
3 812.252 991457
3 812.252 989602
3 812.252 970448
3 812.753 961672
3 812.753 960155
3 812.753 956215
3 813.177 954868
3 813.623 952318
3 813.623 951819
3 814.075 940865
3 814.514 940457
3 814.94 935576
3 815.384 934707
3 815.384 932821
3 815.384 931263
3 816.047 929934
3 816.327 926116
3 826.157 1082046
3 826.157 1074020
3 826.157 1066743
3 826.157 1060934
3 826.157 1051095
3 826.157 1039109
3 826.157 1031941
3 826.157 1026640
1 826.157 1005005
3 826.157 1004395
3 826.157 998705
3 826.157 980442
3 827.043 971817
3 827.043 970497
3 827.043 962925
3 827.043 962269
3 827.379 960361
3 827.649 955934
3 827.914 955665
3 827.914 949345
3 828.398 948860
3 828.398 939801
3 828.398 939630
3 828.398 937955
3 829.707 933821
3 840.156 1029872
3 840.156 1026083
3 840.156 1020274
3 840.156 1020033
3 840.156 1004559
3 840.156 998491
3 840.156 976342
3 840.156 968267
3 840.156 965788
3 840.745 963433
3 840.745 962060
3 840.745 959038
3 840.745 956488
3 841.257 956439
3 841.257 950630
3 841.735 939676
3 842.181 938033
3 842.636 937377
3 844.766 936286
3 844.766 931815
3 845.053 929831
3 846.662 929391
3 846.662 928044
3 854.207 1033772
3 854.207 1033748
3 854.207 986631
3 854.207 968441
3 854.207 962373
3 854.73 953706
3 854.73 944969
3 854.73 944616
3 857.333 944610
3 857.333 944110
3 868.034 1055602
3 868.034 1042733
3 868.034 1028138
3 868.034 1024470
3 868.034 1014656
3 868.034 1008847
3 868.034 996511
3 868.034 989430
3 868.034 987749
3 868.498 977213
3 868.498 976786
3 869.025 972753
3 869.597 964426
3 869.597 946835
3 869.597 944788
3 871.626 942688
3 871.626 932955
3 873.205 932148
3 882.297 1046357
3 882.297 1040409
3 882.297 1028094
3 882.297 1020522
3 882.297 1008761
3 882.297 1000611
3 882.297 998967
3 882.297 998368
3 882.297 987655
3 882.297 985285
3 882.297 980384
3 882.902 979882
3 882.902 979321
3 882.902 978789
3 883.379 977533
3 883.379 976877
3 883.841 974961
3 883.841 970030
3 883.841 958794
3 884.306 958195
3 884.306 955667
3 890.93 955251
3 893.123 955085
3 893.571 954912
3 896.3 1108811
3 896.3 1095329
3 896.3 1031888
3 896.3 1029250
3 896.3 1017927
3 896.3 1014727
3 896.3 1012199
3 896.3 1000754
3 896.803 992233
3 896.803 986165
3 896.803 980919
3 897.305 977804
3 897.305 962076
3 897.305 959574
3 897.797 958192
3 897.797 952124
3 897.797 938642
3 910.055 1049094
3 910.055 1017136
3 910.055 1011286
3 910.055 1005047
1 910.055 1000286
3 910.055 994629
3 910.055 983675
3 910.055 964032
3 910.563 962068
3 910.918 961937
3 911.32 960197
3 911.32 957096
3 911.32 956878
3 912.052 956719
3 912.369 954011
3 912.637 950972
3 912.637 945431
3 912.637 942302
3 924.195 1037881
3 924.195 1035819
3 924.195 1026863
3 924.195 1021328
3 924.195 1013187
3 924.195 1012284
3 924.195 1005157
3 924.195 1001114
3 924.633 990160
3 924.633 989504
3 924.633 986879
3 924.633 984862
3 924.633 979491
3 924.633 974238
3 924.633 973857
3 924.633 946335
3 925.066 940267
3 925.066 935770
3 938.05 1061868
3 938.05 1055155
3 938.05 1023197
3 938.05 1005707
3 938.05 994463
3 938.05 993807
3 938.05 987998
3 938.05 983475
3 938.454 980516
3 938.454 957918
3 938.454 956483
3 938.454 956211
3 938.756 953770
3 938.756 951292
3 939.038 945835
3 939.038 945205
3 939.038 942677
3 939.363 942021
3 939.73 940674
3 939.73 940496
3 952.351 1073167
3 952.351 1070639
3 952.351 1055221
3 952.351 1036067
3 952.351 1024353
3 952.351 1017090
3 952.351 994492
3 952.944 983339
3 953.848 981907
3 953.848 973173
3 955.23 967921
3 966.122 1027782
3 966.122 1015730
3 966.122 1000733
3 966.122 996265
3 966.122 993218
3 966.122 992076
3 966.122 990584
3 966.122 977102
3 966.747 974817
3 966.747 973686
3 967.215 972797
3 967.215 968779
3 967.215 968736
3 967.215 968119
3 968.194 966646
3 968.194 962704
3 968.194 962348
3 968.667 957880
3 968.667 956551
3 968.667 955565
3 968.667 953180
3 968.667 952524
3 969.164 946456
3 969.164 944121
3 969.164 939064
3 980.225 1011024
3 980.225 1006123
3 980.225 990316
3 980.225 987160
3 980.225 983820
3 980.225 982724
3 980.578 981377
3 980.578 978318
3 980.578 974679
3 980.865 974517
3 980.865 961294
3 980.865 957996
3 981.408 946785
3 981.408 946707
3 994.148 1040920
3 994.148 1037532
3 994.148 1026819
3 994.148 1022060
3 994.148 1020974
3 994.148 1019123
3 994.148 1000732
3 994.148 992251
3 994.148 991963
3 994.772 990347
3 994.772 987965
3 994.772 978756
3 994.772 978361
3 994.772 978242
3 995.28 977711
3 995.28 970699
3 995.28 963178
3 995.733 956384
3 995.733 944058
3 996.021 939894
3 998.201 930413
3 998.984 928640
3 1008.28 1070004
3 1008.28 1064372
3 1008.28 1041612
3 1008.28 1040130
3 1008.28 1029188
3 1008.28 1029125
3 1008.28 1021811
3 1008.28 1019483
3 1008.28 1018136
3 1008.28 1000724
3 1008.9 979279
3 1008.9 978696
3 1009.37 974773
3 1009.37 973091
3 1009.83 969967
3 1009.83 966785
3 1009.83 964545
3 1010.32 960717
3 1010.59 960237
3 1010.59 955061
3 1011.53 954547
3 1022.33 1037112
3 1022.33 1034572
3 1022.33 1033665
3 1022.33 1027915
3 1022.33 1011340
3 1022.33 983070
3 1022.33 979822
3 1022.33 972505
3 1022.89 970046
3 1022.89 965831
3 1022.89 955305
3 1023.44 946671
3 1023.44 946342
3 1023.44 945686
3 1023.44 943337
3 1025.49 933353
3 1036.24 1129239
3 1036.24 1115877
3 1036.24 1103217
3 1036.24 1098389
3 1036.24 1056621
3 1036.24 1040825
3 1036.24 1022853
3 1036.24 1021646
3 1036.24 992376
3 1036.76 975453
3 1036.76 972160
3 1036.76 968440
3 1037.2 967784
3 1037.61 965037
3 1037.61 964731
3 1037.61 961886
3 1037.61 950932
3 1037.61 948404
3 1038.01 947935
3 1038.01 936852
3 1038.28 936578
3 1044.27 934048
3 1050.2 1036273
3 1050.2 1024732
3 1050.2 1014748
1 1050.2 987757
3 1050.2 981203
3 1050.2 980937
3 1050.54 978092
3 1050.8 972714
3 1050.8 968108
3 1050.8 962219
3 1051.28 956242
3 1051.58 956103
3 1053.12 953512
3 1053.12 953356
3 1053.12 952700
3 1053.83 952690
3 1053.83 946801
3 1064.18 1058210
3 1064.18 1057108
3 1064.18 1031171
3 1064.18 1013832
3 1064.18 1013365
3 1064.18 1012018
3 1064.18 1008801
1 1064.18 1008057
3 1064.18 999274
3 1064.18 984724
3 1064.71 975430
3 1064.71 970655
3 1064.99 958247
3 1064.99 956725
3 1064.99 953316
3 1078.13 1163754
3 1078.13 1160452
3 1078.13 1154384
3 1078.13 1089031
3 1078.13 1045948
3 1078.13 1010270
3 1078.13 1004526
1 1078.13 997314
3 1078.13 987384
3 1078.13 986336
3 1078.53 976291
3 1078.53 975382
3 1079.01 972854
3 1079.01 971438
3 1079.01 965370
3 1079.01 958711
3 1079.01 949442
3 1079.01 945410
3 1079.01 938718
3 1079.55 931855
3 1079.55 929809
3 1079.99 928076
3 1079.99 928053
3 1092.25 1017320
3 1092.25 1003887
3 1092.25 986868
3 1092.25 985733
3 1092.25 984893
3 1092.25 984881
3 1092.25 979496
3 1092.8 974690
3 1092.8 963322
3 1092.8 963180
3 1092.8 959218
3 1092.8 953295
3 1094 947605
3 1094.79 943311
3 1094.79 936173
3 1094.79 930105
3 1095.09 925939
3 1095.09 925685
3 1095.41 925283
3 1106.17 1013944
3 1106.17 999823
3 1106.17 975733
3 1106.17 973696
3 1106.17 962834
3 1106.17 961197
3 1106.17 959229
3 1106.17 956701
3 1106.76 955930
3 1106.76 955274
3 1107.08 951739
3 1107.08 950178
3 1107.63 949522
3 1115.05 949160
3 1115.05 947677
3 1115.53 945006
3 1117.6 941609
3 1118.91 935183
3 1120.21 1049149
3 1120.21 1034797
3 1120.21 1029772
3 1120.21 1018363
3 1120.21 1018096
3 1120.21 1015838
3 1120.21 1011728
3 1120.21 1007142
3 1120.21 1005136
3 1120.8 1003762
3 1120.8 997889
3 1120.8 983631
3 1120.8 977044
3 1121.31 976017
3 1121.31 968751
3 1121.31 968622
3 1121.31 968178
3 1121.8 964857
3 1122.25 962338
3 1122.25 956778
3 1122.72 955528
3 1122.72 955016
3 1122.72 954500
3 1123.21 953194
3 1123.21 951847
3 1123.64 951488
3 1123.64 948960
3 1123.64 948337
3 1123.93 947681
3 1134.37 1080520
3 1134.37 1074452
3 1134.37 1068877
3 1134.37 1039134
3 1134.37 1036313
3 1134.37 1033785
3 1134.37 1022197
3 1134.37 1007105
3 1134.37 1001137
3 1134.37 984205
3 1134.96 981479
3 1134.96 979274
3 1134.96 964182
3 1135.83 945688
3 1135.83 943160
3 1136.35 943142
3 1136.35 942371
3 1148.1 1076178
3 1148.1 1058026
3 1148.1 1047877
3 1148.1 1040429
3 1148.1 1020981
3 1148.1 1001338
3 1148.1 995270
3 1148.1 994101
3 1148.46 991256
3 1148.46 982930
3 1148.46 978752
3 1148.46 970236
3 1148.81 968657
3 1148.81 968149
3 1149.34 962081
3 1149.85 956645
3 1149.85 954006
3 1149.85 946109
3 1151.07 946091
3 1162.22 1052697
3 1162.22 1035372
3 1162.22 1035299
3 1162.22 1014673
3 1162.22 1014017
3 1162.76 1008208
3 1162.76 989828
3 1162.76 982256
3 1162.76 976506
3 1162.76 957865
3 1162.76 955546
3 1163.31 954681
3 1164.61 952870
3 1164.61 952471
3 1165.08 949299
3 1165.08 947282
3 1165.08 944754
3 1165.55 942993
3 1165.55 938706
3 1166 938620
3 1167.3 936178
3 1167.74 936104
3 1167.74 935448
3 1169.14 932552
3 1171.61 929563
3 1176.02 1109007
3 1176.02 1093591
3 1176.02 1083823
3 1176.02 1073138
3 1176.02 1054882
3 1176.02 1054226
3 1176.02 1048843
3 1176.02 1047694
3 1176.02 1043387
3 1176.02 1017965
3 1176.02 1017710
3 1176.02 986846
3 1176.02 985874
3 1176.57 982046
3 1176.57 981732
3 1176.57 974160
3 1176.57 971632
3 1176.57 971296
3 1176.88 968253
3 1177.14 967481
3 1177.14 956295
3 1177.14 955632
3 1177.45 950414
3 1177.96 949758
3 1190.01 1061792
3 1190.01 997011
3 1190.01 996439
3 1190.01 981932
3 1190.01 961891
3 1190.01 960817
3 1190.57 953245
3 1190.57 951466
3 1190.57 950287
3 1190.57 945398
3 1190.57 941720
3 1191.08 941064
3 1192.89 936083
3 1196.84 935894
3 1196.84 931771
3 1204.2 1097961
3 1204.2 1067210
3 1204.2 1032882
3 1204.2 1024127
3 1204.2 1012635
3 1204.2 1011117
3 1204.2 986404
3 1204.2 986400
3 1204.2 977253
3 1204.57 967269
3 1204.57 965844
3 1205.09 965370
3 1205.09 962338
3 1205.45 961950
3 1205.45 958292
3 1205.45 957482
3 1205.93 956436
3 1209.34 956270
3 1211.06 955871
3 1212.38 951064
3 1213.41 950203
3 1213.41 948637
3 1213.99 948032
3 1214.53 947029
3 1214.53 944501
3 1214.53 942251
3 1216.35 941227
3 1217.59 939691
3 1218.09 1109056
3 1218.09 1105073
3 1218.09 1072479
3 1218.09 1053441
3 1218.09 1022672
3 1218.09 993775
3 1218.09 993639
3 1218.09 986203
3 1218.45 981212
3 1218.45 978706
3 1218.45 969750
3 1218.45 967795
3 1218.45 963941
3 1219.53 957189
3 1219.53 955209
3 1219.53 951709
3 1219.53 951190
3 1219.53 950296
3 1220.89 947906
3 1221.21 941981
3 1221.21 941780
3 1221.21 941124
3 1232.23 1020551
3 1232.23 1017980
3 1232.23 1014669
3 1232.23 1011728
3 1232.23 1011540
3 1232.23 1007497
3 1232.77 1005919
3 1232.77 1004599
3 1233.26 1001288
3 1233.26 985738
3 1234.17 980249
3 1234.17 979423
1 1234.17 974592
3 1234.47 970798
3 1246.22 1046072
3 1246.22 1025527
3 1246.22 1018831
3 1246.22 1017955
3 1246.22 1010550
3 1246.22 1000031
3 1246.22 995607
3 1246.22 994951
3 1246.59 994850
3 1246.59 993174
3 1246.59 989733
3 1246.88 988446
3 1246.88 984403
3 1246.88 983924
3 1246.88 973940
3 1247.5 972552
3 1247.5 958610
3 1247.5 957652
3 1247.5 954520
3 1247.8 954385
3 1247.8 954094
3 1247.8 949626
3 1260.27 1087987
3 1260.27 1072895
3 1260.27 1067164
3 1260.27 1051043
3 1260.27 1046211
3 1260.27 1040440
3 1260.27 1040301
3 1260.27 1002262
3 1260.66 998289
3 1260.66 995444
3 1260.66 995237
3 1260.66 977098
3 1261.08 974570
3 1261.08 965432
3 1261.08 965377
3 1261.08 961723
3 1261.08 951795
3 1261.08 949588
3 1261.41 946587
3 1261.92 944059
3 1274.14 1062451
3 1274.14 1048868
3 1274.14 1042357
3 1274.14 1034347
3 1274.14 1026206
3 1274.14 1020397
3 1274.14 1003072
3 1274.14 995067
3 1274.51 991070
3 1274.51 985206
3 1274.78 984326
3 1274.78 983204
3 1274.78 982195
3 1274.78 981234
3 1274.78 980758
3 1274.78 973175
3 1275.1 972450
3 1275.1 971415
3 1275.1 969722
3 1275.1 956367
3 1275.58 955329
3 1276.03 954179
3 1276.57 953523
3 1281.48 953517
3 1281.48 952397
3 1288.41 991152
3 1288.41 957531
3 1288.41 951936
3 1288.41 950840
3 1288.41 946343
3 1288.93 943235
3 1288.93 939341
3 1288.93 939192
3 1289.43 937747
3 1302.4 1047027
3 1302.4 1033533
3 1302.4 1025034
3 1302.4 1012384
3 1302.4 1002464
3 1302.4 989595
3 1302.4 985163
3 1302.4 983816
3 1302.4 980768
3 1302.4 964735
3 1303.06 964454
3 1303.06 959900
3 1303.06 958026
3 1303.06 957055
3 1303.06 956339
3 1304.34 953681
3 1304.34 952723
3 1316.22 1056729
3 1316.22 1041119
3 1316.22 1032187
3 1316.22 1009693
3 1316.22 1001085
3 1316.22 1000277
3 1316.22 998930
3 1316.22 996569
3 1316.59 975796
3 1316.59 973715
3 1316.59 972608
3 1316.59 969467
3 1316.59 969300
3 1316.9 964826
3 1316.9 963658
3 1317.21 963491
3 1317.21 962108
3 1317.21 961256
3 1317.21 960087
3 1317.21 952817
3 1317.21 949750
3 1317.54 949094
3 1317.8 948583
3 1318.08 947525
3 1318.62 944997
3 1320.91 942152
3 1330.23 1036052
3 1330.23 1026213
3 1330.23 1014333
3 1330.23 992340
3 1330.23 981592
3 1330.23 977933
3 1330.23 962929
3 1330.71 957120
3 1330.71 953926
3 1331.69 947397
3 1331.69 942972
3 1331.69 939977
3 1332.06 938093
3 1332.06 938074
3 1332.39 937377
3 1344.31 1079675
3 1344.31 1054650
3 1344.31 1034625
3 1344.31 1033899
3 1344.31 1027993
3 1344.31 1026646
3 1344.31 1019364
3 1344.31 1015801
3 1344.31 1008229
3 1344.86 1002161
3 1344.86 999240
3 1345.18 979786
3 1345.18 966292
3 1345.18 961612
3 1345.55 960265
3 1346.43 958036
3 1348.45 955045
3 1351.85 948977
3 1358.29 1135763
3 1358.29 1070410
3 1358.29 1037055
3 1358.29 1031039
3 1358.29 1030142
3 1358.29 1019188
3 1358.29 1017775
3 1358.29 1015247
3 1358.29 998071
3 1358.29 997912
3 1358.29 977492
3 1358.29 966445
3 1358.29 959343
3 1358.29 954442
3 1358.29 951914
3 1358.96 951353
3 1358.96 945958
3 1358.96 945835
3 1358.96 943549
3 1359.91 943258
3 1359.91 937082
3 1359.91 932971
3 1360.26 932623
3 1360.52 931946
3 1360.52 930599
3 1360.83 930337
3 1372.05 1052799
3 1372.05 1042280
3 1372.05 997214
3 1372.05 994686
3 1372.05 988181
3 1372.05 980841
3 1372.39 980813
3 1372.39 980807
3 1372.39 973804
3 1372.68 972255
3 1372.68 969734
3 1372.68 964521
3 1373.25 960967
3 1373.25 958602
3 1373.25 952534
3 1374.28 946735
3 1374.28 945289
3 1374.28 943108
3 1374.82 942105
3 1374.82 940758
3 1386.04 1083791
3 1386.04 1080940
3 1386.04 1065095
3 1386.04 1057383
3 1386.04 1020879
3 1386.04 1019622
3 1386.04 989671
3 1386.41 987395
3 1386.41 986739
3 1386.41 986131
3 1386.41 983990
3 1386.41 973068
3 1386.73 971057
3 1386.73 969605
3 1387.3 968083
3 1387.3 966049
3 1387.3 963830
3 1387.6 961805
3 1387.6 956904
3 1387.88 948926
3 1388.66 945314
3 1388.66 944238
3 1388.93 943807
3 1389.69 942252
3 1389.69 941765
3 1390.25 941045
3 1400.32 1000131
3 1400.32 999110
3 1400.32 985616
3 1400.32 984269
3 1400.32 971545
3 1400.86 967396
3 1400.86 965318
3 1400.86 965171
3 1400.86 961558
3 1401.43 959196
3 1401.43 953012
1 1406.02 951438
3 1406.02 950596
3 1414.12 1075536
3 1414.12 1042012
3 1414.12 1040150
3 1414.12 1029584
3 1414.12 1023516
3 1414.12 1006296
3 1414.12 1000200
3 1414.12 989613
3 1414.12 983863
3 1414.71 977064
3 1414.71 974536
3 1414.71 968393
3 1414.71 963379
3 1414.71 957964
3 1414.71 957308
3 1414.71 956345
3 1414.71 948122
3 1415.27 945117
3 1416.16 943519
3 1416.61 942589
3 1420.21 936635
3 1420.21 935979
3 1420.21 929703
3 1428.11 1086183
3 1428.11 1076563
3 1428.11 1065609
3 1428.11 1063916
3 1428.11 1054866
3 1428.11 1035223
3 1428.11 1033618
3 1428.11 1024170
3 1428.11 1004738
3 1428.11 1003667
3 1428.5 994219
3 1428.5 979040
3 1428.5 969893
3 1428.5 967757
3 1428.5 967101
3 1428.81 962899
3 1428.81 961299
3 1429.62 959720
3 1429.89 955535
3 1429.89 954188
3 1430.17 949758
3 1430.44 943809
3 1430.44 940958
3 1434.05 940156
3 1434.5 936389
3 1434.5 932775
3 1442.18 995448
3 1442.18 994456
3 1442.18 992603
3 1442.18 989469
3 1442.18 989000
3 1442.18 988344
3 1442.18 987806
3 1442.18 985466
3 1442.69 983904
3 1442.69 983836
3 1443.25 972116
3 1443.25 969078
3 1443.25 968422
3 1443.25 963954
3 1443.56 959980
3 1443.82 959115
3 1443.82 956449
3 1444.16 942589
3 1444.81 942475
3 1444.81 933865
3 1445.14 931337
3 1456.42 1033788
3 1456.42 1015660
3 1456.42 1014313
3 1456.42 1008076
3 1456.42 1007420
3 1456.42 1004892
3 1456.42 986508
3 1456.42 981312
3 1457.07 974819
3 1457.07 971948
3 1457.53 960093
3 1457.53 959287
3 1458 958977
3 1458 955392
3 1459.95 955069
3 1459.95 954586
3 1470.29 1075939
3 1470.29 1074424
3 1470.29 1065669
3 1470.29 1039732
3 1470.29 1001404
3 1470.29 992913
3 1470.29 992257
3 1470.29 992198
3 1470.29 989353
3 1470.29 979838
3 1470.73 978247
3 1470.73 976900
3 1470.73 966649
3 1470.73 963180
3 1470.73 959359
3 1471.57 957934
3 1471.57 951866
3 1471.57 948405
3 1471.57 940039
3 1471.89 935346
3 1471.89 934690
1 1484.17 1029595
3 1484.17 1021423
3 1484.17 1017473
3 1484.17 1015614
3 1484.17 1008221
3 1484.17 1000522
3 1484.17 988171
3 1484.17 987982
3 1484.17 983157
3 1484.17 978460
3 1484.55 972392
3 1484.55 964861
3 1484.55 959240
3 1484.84 956122
3 1484.84 955661
3 1485.39 955466
3 1485.39 954293
3 1485.39 954185
3 1485.69 952617
3 1485.69 949676
3 1485.69 947258
3 1485.69 945699
3 1485.69 943231
3 1486.1 942482
3 1486.66 941826
3 1498.2 1148572
3 1498.2 1144921
3 1498.2 1127897
3 1498.2 1064845
3 1498.2 1034094
3 1498.2 1029597
3 1498.2 1020421
3 1498.2 1018530
3 1498.2 1012419
3 1498.2 1011763
3 1498.2 1001458
3 1498.86 996911
3 1498.86 996580
3 1498.86 995446
3 1498.86 995059
3 1498.86 965966
3 1498.86 965310
3 1498.86 962782
3 1499.47 958041
3 1499.47 953087
3 1499.93 947019
3 1500.38 940324
3 1500.65 934664
3 1512.16 1021089
1 1512.16 1004567
3 1512.16 1002447
3 1512.16 985265
3 1512.16 970489
3 1512.16 969142
3 1512.16 963988
3 1512.16 963221
3 1512.52 962445
3 1512.52 960063
3 1512.52 957982
3 1512.52 954254
3 1512.83 948422
3 1512.83 946431
3 1513.13 945938
3 1513.13 942141
3 1513.42 939752
3 1526.28 1068836
3 1526.28 1051812
3 1526.28 1034005
3 1526.28 1028196
3 1526.28 1017242
3 1526.28 1003717
3 1526.28 996478
3 1526.28 995288
3 1526.28 981912
3 1526.88 976574
3 1526.88 974061
3 1526.88 967673
3 1527.36 965685
3 1527.36 964526
3 1527.36 959600
3 1528.72 956719
3 1528.72 955469
3 1528.72 954191
3 1540.13 1075339
3 1540.13 1072811
3 1540.13 1050693
3 1540.13 1031655
3 1540.13 1028804
3 1540.13 1008745
3 1540.49 1007131
3 1540.49 982081
3 1540.49 981491
3 1540.49 975514
3 1540.49 971046
3 1540.85 970225
3 1540.85 965964
3 1541.13 961976
3 1541.13 961866
3 1541.13 954343
3 1541.42 952480
3 1541.69 947691
3 1541.69 942760
3 1541.69 941405
3 1541.69 939679
3 1542.02 938332
3 1542.02 938281
3 1542.02 935753
3 1542.02 927878
3 1543.32 927860
3 1554.42 1061971
3 1554.42 1037185
3 1554.42 1031376
3 1554.42 1016221
3 1554.42 1003459
3 1554.42 999844
3 1554.42 986134
3 1555 962379
3 1555 961516
3 1555.46 959506
3 1555.46 948060
3 1555.96 945450
3 1555.96 943527
3 1556.42 942922
3 1556.87 940927
3 1564.47 938076
3 1564.47 937718
3 1568.35 1059026
3 1568.35 1048072
3 1568.35 1027113
3 1568.35 1018121
3 1568.35 1015593
3 1568.35 1011060
3 1568.35 1009096
3 1568.35 1005251
3 1568.94 998723
3 1568.94 991417
3 1568.94 978917
3 1568.94 973480
3 1568.94 972659
3 1569.45 972003
3 1569.45 967535
3 1571.8 967485
3 1571.8 966360
3 1573.51 964296
3 1573.51 963139
3 1573.51 960589
3 1573.51 954814
3 1573.51 952926
3 1573.85 952904
3 1573.85 944137
3 1573.85 938328
3 1573.85 937672
3 1574.15 937383
3 1574.56 935429
3 1574.56 933442
3 1574.56 931080
3 1582.19 1049050
1 1582.19 1043958
3 1582.19 1023119
3 1582.19 1012011
3 1582.19 1009483
3 1582.19 1004650
3 1582.19 1000466
3 1582.19 998784
3 1582.59 993472
3 1583.15 988737
3 1583.43 988490
3 1583.43 984706
3 1583.96 981313
3 1583.96 978720
3 1583.96 977851
3 1584.25 977239
3 1584.25 975892
3 1584.53 975226
3 1584.81 974570
3 1584.81 972042
3 1589.12 969367
3 1589.43 964664
3 1589.43 959721
3 1589.43 958150
3 1590.32 957726
3 1590.73 957070
3 1593.7 951102
3 1593.7 945346
1 1594.35 931276
3 1595.3 931042
3 1596.07 1017517
3 1596.07 1013614
3 1596.07 1002735
3 1596.07 1000359
3 1596.07 985523
3 1596.07 977915
3 1597.31 977497
3 1597.31 969641
3 1607.32 957398
3 1607.32 956377
3 1608.91 955723
3 1608.91 954363
3 1608.91 949336
3 1609.22 948680
3 1609.48 941285
3 1610.13 1049400
3 1610.13 1020111
3 1610.13 1009557
3 1610.13 1008901
3 1610.13 1007358
3 1610.13 1001549
3 1610.13 994367
3 1610.62 993312
3 1610.91 989307
3 1610.91 989064
3 1610.91 987244
3 1610.91 977730
3 1610.91 977505
3 1610.91 975920
3 1611.48 970443
3 1611.48 969138
3 1611.48 968077
3 1611.48 966610
3 1611.99 962040
3 1612.43 953214
3 1612.43 952361
3 1612.43 942728
3 1612.96 932889
3 1624.25 1033448
3 1624.25 1010115
3 1624.25 999782
3 1624.74 982758
3 1624.74 971253
3 1624.74 965996
3 1624.74 963889
3 1624.74 961095
3 1625.23 959936
3 1625.77 958966
3 1627.5 957770
3 1627.5 956625
3 1627.79 954097
3 1627.79 947786
3 1627.79 947190
3 1627.79 946604
3 1633.65 944662
3 1633.99 940371
3 1638.13 1035710
3 1638.13 1025766
3 1638.13 1008441
3 1638.13 997199
3 1638.13 994499
3 1638.13 991520
3 1638.13 981931
3 1638.54 975767
3 1638.54 974848
3 1638.54 974192
3 1638.82 973470
3 1639.07 969650
3 1639.07 967492
3 1639.07 963740
3 1639.07 957672
3 1639.63 957016
3 1640.14 953196
3 1640.14 949764
3 1640.42 949120
3 1640.42 946655
3 1640.42 940846
3 1640.71 937289
3 1650.91 936193
3 1651.34 935084
3 1652.24 1045190
3 1652.24 1042170
3 1652.24 1039094
3 1652.24 992758
3 1652.24 982778
3 1652.24 982122
3 1652.24 969652
3 1652.24 967030
3 1652.8 966462
3 1652.8 962621
3 1652.8 961994
3 1652.8 960897
3 1652.8 954979
3 1653.86 950461
3 1653.86 934110
3 1654.21 932854
3 1654.21 932198
3 1666.15 1031429
3 1666.15 1003347
3 1666.15 1002535
3 1666.15 999904
3 1666.67 976901
3 1666.67 965234
3 1666.67 963470
3 1666.67 952788
3 1666.67 937370
3 1680.26 1074091
3 1680.26 1055053
3 1680.26 1045325
3 1680.26 1039516
3 1680.26 995849
3 1680.26 975386
3 1680.26 968943
3 1680.26 966326
3 1680.64 964875
3 1680.64 961858
3 1680.64 955420
3 1680.64 946939
3 1681.24 938031
3 1681.24 935398
3 1681.52 933534
3 1681.52 931006
3 1681.83 930089
3 1681.83 926480
3 1682.72 923689
3 1694.3 1007637
3 1694.3 1002428
3 1694.3 999577
3 1694.3 996814
3 1694.3 994542
3 1694.3 979536
3 1694.3 974034
3 1694.3 964195
3 1694.88 963827
3 1695.34 961793
3 1695.34 956614
3 1695.34 952360
3 1695.84 952026
3 1695.84 948523
3 1695.84 942692
3 1696.32 940827
3 1696.32 940819
3 1696.8 940727
3 1697.25 940071
3 1697.25 940046
3 1697.74 937087
3 1697.74 934760
3 1697.74 932691
3 1697.74 932197
3 1698.65 930163
3 1699.55 929507
1 1704.33 929193
3 1704.33 924920
3 1704.85 924264
3 1708.11 1025699
3 1708.11 1025478
3 1708.11 1020114
3 1708.11 1005166
3 1708.11 997516
3 1708.11 993048
3 1708.11 984517
3 1708.11 971051
3 1708.11 966260
3 1708.69 965294
3 1708.69 964848
3 1708.69 962766
3 1708.69 954294
3 1709.17 948544
3 1722.1 1077831
3 1722.1 1077383
3 1722.1 1041541
3 1722.1 1032151
3 1722.1 1020367
3 1722.1 1019494
3 1722.1 1013685
3 1722.1 1000191
3 1722.1 995290
3 1722.47 990088
3 1722.47 985306
3 1722.47 982810
3 1722.78 976123
3 1722.78 975467
3 1723.27 974298
3 1723.27 968941
3 1723.27 964282
3 1723.75 961221
3 1724.05 956982
3 1724.56 956786
3 1724.56 954454
3 1736.12 1028165
3 1736.12 1018896
3 1736.12 1016368
3 1736.12 997233
3 1736.12 995402
3 1736.12 983515
3 1736.12 980763
3 1736.12 976295
3 1736.12 973238
3 1736.12 972031
3 1736.12 966144
3 1736.55 962923
3 1736.55 957835
3 1736.55 955947
3 1736.55 955342
3 1737.27 952653
3 1737.27 950292
3 1737.27 944143
3 1738.13 942137
3 1738.45 941112
3 1750.05 1084281
3 1750.05 1064455
3 1750.05 1063799
3 1750.05 1046623
3 1750.05 1043962
3 1750.05 1036069
3 1750.05 1032157
3 1750.05 1009559
3 1750.41 1008588
3 1750.41 1005737
3 1750.41 995167
3 1750.41 994351
3 1750.41 974708
3 1750.73 972962
3 1750.73 965212
3 1750.73 961538
3 1750.73 960342
3 1751.04 950584
3 1751.46 950431
3 1751.46 948926
3 1751.92 946859
3 1752.38 940886
3 1752.86 939275
3 1753.31 936550
3 1753.31 934938
3 1753.31 932082
3 1764.24 1135039
3 1764.24 1117714
3 1764.24 1102296
3 1764.24 1088613
3 1764.24 1032992
3 1764.24 1012730
3 1764.24 997719
3 1764.24 994241
3 1764.24 993585
3 1764.24 981350
3 1764.24 976786
3 1764.24 975867
3 1764.68 973012
3 1764.68 972356
3 1764.68 969828
3 1764.68 967271
3 1765.5 965562
3 1765.76 960940
3 1766.04 960661
3 1766.81 959213
3 1766.81 958412
3 1767.11 956743
3 1767.38 953337
3 1767.91 951842
3 1778.23 1042883
3 1778.23 1026898
3 1778.23 1021893
3 1778.23 1009242
3 1778.23 1006964
3 1778.23 1005475
3 1778.23 1004128
3 1778.23 998060
3 1778.23 996305
3 1778.82 988520
3 1779.32 987600
3 1779.78 987571
3 1779.78 986128
3 1780.43 973977
3 1780.43 969063
3 1780.43 961365
3 1780.72 959284
3 1781.09 957804
3 1781.96 955681
3 1781.96 952693
3 1792.31 1108302
3 1792.31 1108015
3 1792.31 1102265
3 1792.31 1051078
3 1792.31 1031171
3 1792.31 1014901
3 1792.31 1010594
3 1792.31 1009630
3 1792.31 1009539
3 1792.9 1002543
3 1792.9 960641
3 1792.9 955488
3 1792.9 946851
3 1793.41 946100
3 1793.41 945444
3 1793.41 944110
3 1793.9 940947
3 1793.9 940291
3 1793.9 938489
3 1793.9 937833
3 1794.36 931669
3 1795.17 929713
3 1795.44 923904
3 1800.8 922606
3 1801.33 920585
3 1806.22 1033882
3 1806.22 1028062
3 1806.22 1026715
3 1806.22 1003955
3 1806.22 972008
3 1806.22 971603
3 1806.22 966250
3 1807.15 965224
3 1807.42 964769
3 1807.42 962191
3 1807.42 956475
3 1812.02 950264
3 1812.02 949250
3 1812.3 948567
3 1812.3 947449
3 1820.18 1124970
3 1820.18 1123491
3 1820.18 1117423
3 1820.18 1111630
3 1820.18 1094825
3 1820.18 1029472
3 1820.18 1026604
3 1820.18 1024519
3 1820.18 1015650
3 1820.18 1011184
3 1820.18 996284
3 1820.57 990216
3 1820.57 985748
3 1820.57 980759
3 1820.57 972919
3 1820.57 967110
3 1820.87 961563
3 1821.19 961545
3 1821.54 948004
3 1821.87 946028
3 1821.87 941919
3 1821.87 935290
3 1822.54 935272
3 1823.8 932456
3 1824.16 931802
3 1834.3 1015435
3 1834.3 1011548
3 1834.3 988215
3 1834.3 985907
3 1834.3 982023
3 1834.3 981803
3 1834.3 980960
3 1834.3 972205
3 1834.3 971897
3 1834.89 966088
3 1835.79 965280
3 1836.24 950214
3 1836.7 943999
3 1836.7 943520
3 1836.7 942170
3 1837.18 939349
3 1848.27 1090751
3 1848.27 1065621
3 1848.27 1050529
3 1848.27 1049122
3 1848.27 1042496
3 1848.27 1040010
3 1848.27 1029056
3 1848.27 989752
3 1848.27 981304
3 1848.27 979837
3 1848.27 977433
3 1848.27 975782
3 1848.27 972782
3 1848.93 965967
3 1848.93 964249
3 1848.93 964128
3 1848.93 963703
3 1849.42 960415
3 1849.42 959791
3 1849.78 952470
3 1849.78 950739
3 1849.78 948716
3 1849.78 934224
3 1850.16 930977
3 1850.16 922146
3 1850.16 921925
3 1850.16 920087
3 1858.57 918804
3 1862.11 1108665
3 1862.11 1105014
3 1862.11 1085870
3 1862.11 1085214
3 1862.11 1079823
3 1862.11 1060733
3 1862.11 1059933
3 1862.11 1046108
3 1862.11 1045452
3 1862.11 1030533
3 1862.11 1025401
3 1862.85 1021733
3 1862.85 996578
3 1862.85 995642
3 1862.85 991344
3 1862.85 988300
3 1862.85 986212
3 1862.85 985276
3 1863.44 982878
3 1863.44 981174
3 1863.79 978422
3 1863.79 976481
3 1863.79 975483
3 1864.08 972182
1 1864.35 971176
3 1872.9 965567
3 1873.38 963815
3 1873.38 959283
3 1873.86 952558
3 1875.22 948912
3 1875.22 948256
3 1875.22 946490
3 1876.15 1058906
3 1876.15 1049942
3 1876.15 1043251
3 1876.15 1037907
3 1876.15 1030297
3 1876.15 1027545
3 1876.15 996057
3 1876.15 990239
3 1876.15 985182
3 1876.15 983134
3 1876.15 982824
3 1876.15 981306
3 1876.15 979019
3 1876.15 978714
3 1876.82 959461
3 1876.82 945979
3 1876.82 944590
3 1877.71 944107
3 1877.71 943451
3 1877.71 940475
3 1890.49 1070913
3 1890.49 1057431
3 1890.49 1048508
3 1890.49 1044157
3 1890.49 1041629
3 1890.49 1035820
3 1890.49 989484
3 1890.49 985411
3 1890.49 980743
3 1891.22 980164
3 1891.22 980007
3 1891.22 979343
3 1891.72 964932
3 1891.72 955362
3 1891.72 954706
3 1891.72 951683
3 1892.22 944489
3 1892.22 943604
3 1892.22 941829
3 1894.01 940613
3 1894.01 938125
3 1894.01 937205
3 1895.54 936486
3 1896.6 934545
3 1904.38 1056509
3 1904.38 1024448
3 1904.38 1021146
3 1904.38 988994
3 1904.38 988071
3 1904.38 987443
3 1904.38 982404
3 1904.94 979876
3 1905.84 974919
3 1905.84 973272
3 1905.84 971074
3 1906.32 969455
3 1906.32 967695
3 1906.32 957629
3 1906.83 957401
3 1906.83 956154
3 1909.97 950008
3 1909.97 949505
3 1909.97 949173
3 1913.56 948545
3 1914.02 946776
3 1914.91 940618
3 1914.91 934970
3 1914.91 930779
3 1915.85 929616
3 1918.33 1055273
3 1918.33 1055270
3 1918.33 1031937
3 1918.33 1027845
3 1918.33 1012570
3 1918.33 1007879
3 1918.33 1002666
3 1918.33 993932
3 1918.33 991087
3 1918.33 989718
3 1918.91 981093
3 1918.91 978324
3 1918.91 963255
3 1918.91 960421
3 1918.91 951160
3 1918.91 945367
3 1918.91 943842
3 1918.91 942495
3 1920.01 933403
3 1920.42 928283
3 1920.42 925314
3 1932.33 1052041
3 1932.33 1051385
3 1932.33 1026026
3 1932.33 1021050
3 1932.33 1010934
3 1932.33 1010898
3 1932.33 1009639
3 1932.33 998085
3 1932.91 997630
3 1932.91 990640
3 1932.91 986731
3 1932.91 985420
3 1932.91 984603
3 1932.91 983777
3 1933.5 968580
3 1933.5 967924
3 1933.5 961856
3 1933.5 961549
3 1933.9 959664
3 1933.9 956607
3 1933.9 955355
3 1933.9 954680
3 1935.6 951168
3 1935.6 951116
3 1935.6 946267
3 1935.6 945611
3 1936.11 945326
3 1936.54 942395
3 1937.42 942155
3 1937.42 941143
3 1946.24 1003512
3 1946.24 995997
3 1946.24 971244
3 1946.24 969532
3 1946.24 969308
3 1946.24 969282
3 1946.24 966313
3 1946.58 960589
3 1947.67 953271
3 1947.67 951419
3 1947.67 946925
3 1948.04 942285
3 1948.04 941116
3 1948.04 935390
3 1948.04 931791
3 1948.04 930854
3 1948.36 929270
3 1948.36 927596
3 1948.36 927405
3 1949.25 924308
3 1949.86 918250
3 1960.06 1025998
3 1960.06 1020189
3 1960.06 994258
3 1960.06 988190
3 1960.06 987905
3 1960.06 986551
3 1960.55 983355
3 1960.55 971493
3 1960.55 969665
3 1960.55 967772
3 1960.85 964752
3 1960.85 954707
3 1960.85 953360
3 1961.14 944880
3 1961.14 942257
3 1961.43 940824
3 1964.84 939679
3 1964.84 936310
3 1974.23 1044490
3 1974.23 1035381
3 1974.23 1031090
3 1974.23 1025336
3 1974.23 1019527
3 1974.23 1012566
3 1974.23 1005984
3 1974.23 995465
3 1974.96 989915
3 1974.96 989698
3 1974.96 976433
3 1975.54 966354
3 1975.54 962712
3 1975.54 958901
3 1975.54 954594
3 1976.03 949036
3 1976.49 948428
3 1976.49 948044
3 1976.99 944116
3 1977.43 943744
3 1988.13 1066865
3 1988.13 1057180
3 1988.13 1056726
3 1988.13 1056708
3 1988.13 1045754
3 1988.13 1035458
3 1988.68 1029690
3 1988.68 1028225
3 1988.68 1020625
3 1988.68 1018404
3 1988.68 1008089
3 1988.68 1005393
3 1988.68 1001399
3 1988.68 997821
3 1989.24 978285
3 1989.24 975141
3 1989.76 973478
3 1989.76 970169
3 1989.76 964360
3 1989.76 964257
3 1989.76 961277
3 1990.12 956988
3 1990.12 955367
3 1990.64 955366
3 1990.64 954711
1 1991.25 950294
3 1991.7 950198
3 1991.7 948042
3 1991.7 943378
3 1992.92 940850
1 1995.38 940848
3 1995.73 939753
3 1995.73 938227
3 1995.73 935285
3 2002.2 1010990
3 2002.2 1006528
3 2002.2 999629
3 2002.2 995044
3 2002.2 983137
3 2002.2 980076
3 2002.74 979380
3 2002.74 976562
3 2002.74 967998
3 2003.23 965479
3 2003.23 964760
3 2003.23 961270
3 2003.7 958951
3 2003.7 955951
3 2004.08 953798
3 2004.08 953106
3 2004.62 952320
3 2004.91 946953
3 2004.91 944833
3 2005.21 942872
3 2005.21 942594
3 2006.23 937941
3 2006.23 936785
3 2016.11 1031130
3 2016.11 1017768
3 2016.11 1012867
3 2016.11 1007058
3 2016.11 1003099
3 2016.11 992745
3 2016.11 975398
3 2016.11 974742
3 2016.11 968674
3 2016.11 966899
3 2016.11 966370
3 2016.49 961469
3 2016.75 960338
3 2017.55 959797
3 2017.55 956060
3 2017.82 955736
3 2018.23 954511
3 2018.66 951792
3 2018.66 947386
3 2018.66 942485
3 2019.77 941947
3 2019.77 939419
3 2030.18 1054505
3 2030.18 1051452
3 2030.18 1021501
3 2030.18 1020166
3 2030.18 994278
3 2030.18 991493
3 2030.18 985425
3 2030.18 972063
3 2030.18 969212
3 2030.54 958050
3 2030.54 952967
3 2032.62 935722
3 2044.17 1065552
3 2044.17 1023216
3 2044.17 1012661
3 2044.17 996575
3 2044.17 984957
3 2044.17 984301
3 2044.59 983189
3 2044.59 981394
3 2044.88 980257
3 2044.88 975094
3 2044.88 973878
3 2044.88 972834
3 2045.18 971606
3 2045.18 970259
3 2045.18 968561
3 2045.52 966675
3 2045.52 948206
3 2045.52 946859
3 2045.9 945506
3 2046.8 944014
3 2049.09 939138
3 2049.09 937054
3 2049.43 933958
3 2058.24 1011835
3 2058.24 995973
3 2058.24 975436
3 2058.24 974780
3 2058.24 973433
3 2058.76 972781
3 2058.76 956649
3 2058.76 955763
3 2058.76 953856
3 2058.76 951456
3 2060.61 951425
3 2060.61 943872
3 2061.08 943756
3 2062.25 942539
3 2062.25 938964
3 2062.86 938611
3 2062.86 936904
3 2062.86 936248
3 2072.27 1063404
3 2072.27 1036981
3 2072.27 1027044
3 2072.27 1022666
3 2072.27 1014438
3 2072.27 983533
3 2072.27 971214
3 2072.27 952782
3 2073 947881
3 2073 947486
3 2073 946611
3 2079.59 943655
3 2080.95 940004
3 2081.73 939612
3 2086.37 1060029
3 2086.37 1018335
3 2086.37 1010697
3 2086.37 1007852
3 2086.37 988762
3 2086.37 982546
3 2086.37 981915
3 2086.93 974565
3 2086.93 973176
3 2086.93 967751
3 2086.93 961683
3 2086.93 952395
3 2086.93 949867
3 2087.92 946124
3 2087.92 940315
3 2088.37 936790
3 2088.37 931359
3 2100.24 1065783
3 2100.24 1062589
3 2100.24 1059744
3 2100.24 1054022
3 2100.24 1035759
3 2100.24 1035729
3 2100.24 1033777
3 2100.24 1014134
3 2100.24 1006562
3 2100.24 996696
3 2100.24 992439
3 2100.24 976887
3 2100.24 960961
3 2100.24 959466
3 2100.24 958810
3 2100.73 955966
3 2101.55 948766
3 2101.99 947275
3 2101.99 946429
3 2102.86 945390
3 2103.34 945372
3 2106.9 944509
3 2107.81 943020
3 2108.24 941981
3 2114.1 1004340
3 2114.1 985786
3 2114.1 983257
3 2114.1 978154
3 2114.1 962794
3 2114.1 962138
3 2114.1 960699
3 2114.1 958885
3 2114.45 952817
3 2114.45 952376
3 2114.45 946195
3 2114.45 944715
3 2114.73 944110
3 2114.73 940309
3 2118.86 940137
3 2118.86 937609
3 2128.25 1064966
3 2128.25 1061664
3 2128.25 1044339
3 2128.25 1038886
3 2128.25 1037683
3 2128.25 1024285
3 2128.25 1003271
3 2128.25 1000420
3 2128.25 996482
3 2128.25 988179
3 2128.25 986972
3 2128.86 986316
3 2128.86 983614
3 2128.86 981848
3 2129.34 967858
3 2129.34 964824
3 2129.34 960777
3 2129.86 958381
3 2129.86 951858
3 2129.86 950639
3 2130.35 950094
3 2130.35 948280
3 2130.35 946965
3 2131.29 938440
3 2131.74 935918
3 2131.74 934718
3 2131.74 934071
3 2132.22 933484
3 2132.68 931543
3 2134.44 931381
3 2134.44 930084
3 2134.44 929428
3 2134.91 928539
3 2142.14 1087187
3 2142.14 1073363
3 2142.14 1052217
3 2142.14 1047102
3 2142.14 1033453
3 2142.14 1017531
3 2142.14 1007547
3 2142.14 996893
3 2142.52 996863
3 2142.52 994314
3 2142.81 989846
3 2142.81 982373
3 2142.81 978305
3 2142.81 970374
3 2143.16 959870
3 2143.16 955345
3 2143.16 952776
3 2143.46 943422
3 2144.49 942324
3 2144.49 941668
3 2147.68 936622
3 2156.1 1062919
3 2156.1 1043276
3 2156.1 1042513
3 2156.1 1039741
3 2156.1 1026024
3 2156.1 1024323
3 2156.1 1013927
3 2156.1 1010932
3 2156.1 993725
3 2156.1 991345
3 2156.1 989954
3 2156.48 985838
3 2156.48 963240
3 2156.48 961893
3 2156.77 949571
3 2157.03 942150
3 2157.32 939622
3 2170.16 1016187
3 2170.16 1010848
3 2170.16 1003597
3 2170.16 1002278
3 2170.16 999750
3 2170.16 999429
3 2170.16 982131
3 2170.74 977818
3 2170.74 967575
3 2170.74 967234
3 2170.74 958690
3 2170.74 950973
3 2171.24 948171
3 2180.44 945216
3 2181 942384
3 2181 942377
3 2184.04 1078684
3 2184.04 1078430
3 2184.04 1078108
3 2184.04 1076632
3 2184.04 1042214
3 2184.04 1036405
3 2184.04 1025005
3 2184.04 1024273
3 2184.04 1008196
3 2184.43 1000851
3 2184.43 990783
3 2184.43 983769
3 2184.43 982632
3 2184.43 972199
3 2184.75 971543
3 2185.3 969755
3 2185.3 969390
3 2185.62 968031
3 2185.62 961401
3 2185.62 957401
3 2185.62 954971
3 2186.18 954582
3 2186.58 949681
3 2187.05 947318
3 2188.91 946498
3 2188.91 946392
3 2188.91 943212
3 2189.22 938744
3 2189.22 936894
3 2189.22 933775
3 2189.22 933119
3 2189.51 931032
3 2198.09 1025040
3 2198.09 1004649
3 2198.09 999696
3 2198.09 985356
3 2198.09 981528
3 2198.6 979702
3 2198.6 972594
3 2198.6 971427
3 2198.6 968088
3 2198.96 963358
3 2198.96 957549
3 2199.37 957531
3 2200.01 951781
3 2200.28 939096
3 2200.28 938440
3 2200.56 938377
3 2212.11 1091308
3 2212.11 1034292
3 2212.11 1021423
3 2212.11 1001938
3 2212.11 1001068
3 2212.11 999310
3 2212.11 995244
3 2212.11 984218
3 2212.11 976540
3 2212.11 963416
3 2212.11 962760
3 2212.51 957291
3 2212.85 956021
3 2213.2 955020
3 2213.96 954028
3 2213.96 949097
3 2213.96 947750
3 2213.96 946533
3 2213.96 945877
3 2214.42 945815
3 2214.42 944568
3 2214.82 939952
3 2214.82 938500
3 2214.82 937844
3 2226.05 1014424
3 2226.05 1004100
3 2226.05 993303
3 2226.05 990722
3 2226.05 987782
3 2226.48 973824
3 2226.48 960433
3 2226.9 960342
3 2226.9 957905
3 2228.67 953450
3 2232.39 953343
3 2232.39 950645
3 2240.12 1062098
3 2240.12 1052703
3 2240.12 1042966
3 2240.12 1025942
3 2240.12 992257
3 2240.12 983597
3 2240.64 977486
3 2240.64 976352
3 2240.64 969659
3 2241.14 967597
3 2241.14 964211
3 2241.14 963927
3 2241.14 963271
3 2241.14 960488
3 2241.14 958904
3 2242.14 957506
3 2242.14 956505
3 2242.14 955346
3 2242.14 954690
3 2247.67 953722
3 2248.25 953300
3 2248.52 951128
1 2252.71 946094
3 2252.71 943273
3 2252.71 938156
3 2252.71 936809
3 2254.08 1029937
3 2254.08 1009179
3 2254.08 1007619
3 2254.08 1006272
3 2254.08 1004530
3 2254.08 1002630
3 2254.08 996562
3 2254.08 985362
3 2254.08 983611
3 2254.08 971757
3 2254.08 967526
3 2254.08 963968
3 2254.08 953949
3 2254.59 952497
3 2255.13 952103
3 2256.52 951959
3 2256.84 948545
3 2256.84 947889
3 2256.84 945049
3 2257.58 937844
3 2268.14 1006547
3 2268.14 999177
3 2268.63 978698
3 2268.63 976350
3 2268.63 967321
3 2268.63 965974
3 2268.63 963610
3 2268.63 962641
3 2269.59 962510
3 2269.59 962415
3 2269.59 961985
3 2270.06 961879
3 2270.06 956753
3 2270.53 953008
3 2270.53 951661
3 2271.01 947343
3 2271.01 946687
3 2271.01 945033
3 2277.94 942196
3 2277.94 940134
3 2277.94 938028
3 2277.94 936752
3 2279.31 932197
3 2279.31 932005
3 2279.78 929477
3 2280.52 926090
3 2282.2 1059357
3 2282.2 1053069
3 2282.2 1046173
3 2282.2 1040333
3 2282.2 1017735
3 2282.2 1014890
3 2282.55 1001396
3 2282.84 992766
3 2282.84 992110
3 2282.84 986924
3 2283.18 986634
3 2283.18 976795
3 2283.18 976139
3 2283.76 970042
3 2288.31 967900
3 2288.58 967850
3 2288.84 967484
3 2289.63 967244
3 2296.21 1068829
3 2296.21 1045496
3 2296.21 1032014
3 2296.21 1025899
3 2296.21 1024442
3 2296.21 1010807
3 2296.21 1004998
3 2296.21 996857
3 2296.7 988232
3 2296.7 968101
3 2297.02 965068
3 2297.02 958322
3 2297.38 957666
3 2297.38 955138
3 2297.72 954332
3 2298.27 954080
3 2298.53 953424
3 2307.74 951843
3 2307.74 951070
3 2310.17 1084165
3 2310.17 1053821
3 2310.17 1021978
3 2310.17 1021297
3 2310.17 1006961
3 2310.17 1005787
3 2310.17 1001858
3 2310.17 997690
3 2310.17 993118
3 2310.56 985572
3 2310.56 978046
3 2310.56 971099
3 2310.56 968248
3 2310.56 968056
3 2310.93 964110
3 2311.2 961975
3 2311.2 961701
3 2313.58 956226
3 2313.58 950651
3 2314.05 948309
3 2314.54 946515
3 2314.54 945801
3 2315.41 945561
3 2315.41 943683
3 2316.07 943273
3 2324.19 1022454
3 2324.19 1006019
3 2324.19 991934
3 2324.19 989406
3 2324.19 987905
3 2324.19 987100
3 2324.52 984676
3 2324.52 981831
3 2324.52 981395
3 2324.84 969655
3 2324.84 967216
3 2325.32 964371
3 2329.36 964031
3 2329.36 961503
3 2329.83 953783
3 2330.3 953719
3 2338.09 1025478
3 2338.09 1014924
3 2338.09 1011301
3 2338.09 1008369
3 2338.09 1003970
3 2338.09 989854
3 2338.09 966443
3 2338.09 958540
3 2338.44 957275
3 2338.44 957154
3 2338.44 948537
3 2338.73 940965
3 2338.73 940309
3 2338.73 937737
3 2352.17 1052640
3 2352.17 1044076
3 2352.17 1036299
3 2352.17 1031463
3 2352.17 1028161
3 2352.17 1008349
3 2352.17 1002851
3 2352.17 1000774
3 2352.17 997472
3 2352.17 996277
3 2352.17 981584
3 2352.57 966556
3 2352.94 966419
3 2353.41 966388
3 2353.41 959012
3 2353.41 958233
3 2353.89 955705
3 2353.89 950274
3 2354.34 943394
3 2354.78 938420
3 2354.78 937764
3 2354.78 934380
3 2355.24 933250
3 2366.17 1108873
3 2366.17 1106028
3 2366.17 1097309
3 2366.17 1089151
3 2366.17 1067358
3 2366.17 1060150
3 2366.17 1039605
3 2366.17 1020896
3 2366.17 1016305
3 2366.17 1015508
3 2366.17 1002848
3 2366.62 992294
3 2366.62 989767
3 2366.62 986135
3 2366.62 980527
3 2366.62 977170
3 2366.93 971317
3 2366.93 962741
3 2366.93 961289
3 2366.93 955298
3 2366.93 955101
3 2366.93 955083
3 2366.93 952555
3 2366.93 946789
3 2367.3 946178
3 2367.3 945148
3 2367.3 944492
3 2367.58 944168
3 2367.58 939366
3 2367.58 939237
3 2380.08 1014594
3 2380.08 1003980
3 2380.08 1003501
3 2380.08 991443
3 2380.58 990525
3 2380.58 986477
3 2380.58 972693
3 2380.58 970997
3 2381.09 964267
3 2381.54 960512
3 2381.98 957489
3 2382.86 950792
3 2383.46 945420
3 2383.46 943397
3 2394.15 1124139
3 2394.15 1073989
3 2394.15 1047992
3 2394.15 1044028
3 2394.15 1036148
3 2394.15 1030080
3 2394.15 1021802
3 2394.15 1011817
3 2394.15 996666
3 2394.15 995528
3 2394.15 993674
3 2394.74 989137
3 2394.74 974045
3 2395.26 971062
3 2395.26 967801
3 2395.54 963333
3 2395.54 961406
3 2396.03 957144
3 2396.03 954572
3 2396.03 953962
3 2396.52 953079
3 2396.99 949762
3 2397.3 949105
3 2397.56 946613
3 2398.32 946166
3 2400.36 944704
3 2400.63 938954
3 2401.14 936983
3 2408.13 1100074
3 2408.13 1086592
3 2408.13 1073936
3 2408.13 1054293
3 2408.13 1020189
3 2408.13 1015047
3 2408.13 1002709
3 2408.13 996067
3 2408.55 995411
3 2408.55 994285
3 2408.55 993202
3 2408.55 993152
3 2408.85 992732
3 2408.85 992496
3 2408.85 983842
3 2408.85 983009
3 2409.17 980658
3 2409.17 977319
3 2409.17 966453
3 2409.47 965699
3 2409.47 960965
3 2409.76 959592
3 2410.03 958936
3 2410.84 958120
3 2411.12 944555
3 2411.92 944214
3 2412.19 942702
3 2422.18 1052396
3 2422.18 1046443
3 2422.18 1035213
3 2422.18 1019310
3 2422.18 1016170
3 2422.18 996170
3 2422.18 989875
3 2422.18 977701
3 2422.18 970058
3 2422.18 964746
3 2422.57 957174
3 2422.57 957028
3 2422.57 953300
3 2422.57 950633
3 2422.57 948105
3 2422.57 945142
3 2422.9 943795
3 2422.9 934569
3 2426.23 934182
3 2426.23 933526
3 2436.39 1014553
3 2436.39 1009969
3 2436.39 995448
3 2436.39 987703
3 2436.39 984536
3 2436.39 975802
3 2436.39 974177
3 2436.39 970893
3 2436.39 959901
3 2436.97 951489
3 2436.97 948961
3 2436.97 948903
3 2437.32 944822
3 2437.32 944332
3 2437.32 939013
3 2450.04 1044000
3 2450.04 1039520
3 2450.04 1025648
3 2450.44 1019858
3 2450.44 987911
3 2450.44 985695
3 2450.44 984462
3 2450.44 984416
3 2450.84 983964
3 2450.84 980086
3 2450.84 978982
3 2451.33 978123
3 2451.33 974028
3 2451.33 964044
3 2451.33 961963
3 2451.84 958235
3 2452.24 953290
3 2452.51 952485
3 2452.51 946374
3 2452.51 946043
3 2452.51 941744
3 2452.82 940122
3 2452.82 937594
3 2452.82 936247
3 2453.18 934216
3 2464.16 1039220
3 2464.16 1033055
3 2464.16 1031819
3 2464.16 1014643
3 2464.16 998210
3 2464.16 995368
3 2464.52 981874
3 2464.52 972035
3 2464.82 968815
3 2464.82 961800
3 2465.36 961243
3 2466.03 959684
3 2466.03 958721
3 2466.03 957252
3 2466.42 953774
3 2466.84 947541
3 2466.84 946551
3 2468.1 946319
3 2472.54 945518
3 2478.23 1145712
3 2478.23 1115205
3 2478.23 1097276
3 2478.23 1079981
3 2478.23 1062805
3 2478.23 1056737
3 2478.23 1011936
3 2478.23 995392
3 2478.23 992293
3 2478.23 989001
3 2478.23 988345
3 2478.63 987036
3 2478.95 980228
3 2478.95 978809
3 2479.25 969692
3 2479.25 959206
3 2479.25 956175
3 2479.25 955386
3 2480.33 953298
3 2480.59 951557
3 2481.91 949732
3 2481.91 948388
3 2481.91 942927
3 2482.95 942579
3 2483.98 941981
3 2483.98 941071
3 2483.98 939274
3 2483.98 937977
3 2484.3 936746
3 2484.56 936286
3 2484.83 935423
3 2484.83 930952
3 2484.83 929831
3 2484.83 929124
3 2492.35 1080785
3 2492.35 1063633
3 2492.35 1063239
3 2492.35 1043596
3 2492.35 1015966
3 2492.35 1012760
3 2492.35 1006951
3 2492.35 1006620
3 2492.35 1005681
3 2492.94 1002735
3 2492.94 995965
3 2492.94 994077
3 2492.94 993421
3 2493.34 986998
3 2493.34 976065
3 2493.34 973179
3 2493.62 970573
3 2493.62 965939
3 2493.62 962324
3 2493.62 953741
3 2493.62 949768
3 2493.93 949477
3 2493.93 949214
3 2496.06 946538
3 2496.63 945601
3 2498.37 937355
3 2498.37 936699
3 2506.23 1086729
3 2506.23 1059152
3 2506.23 1055102
3 2506.23 1049190
3 2506.23 1046227
3 2506.23 1045069
3 2506.23 1018665
3 2506.23 1012597
3 2506.23 1010069
3 2506.23 1006132
3 2506.73 981426
3 2506.73 974450
3 2506.73 974347
3 2506.73 965666
3 2507.07 958094
3 2507.07 955878
3 2507.34 953202
3 2507.6 948358
1 2507.6 947134
3 2520.26 1017829
3 2520.26 1004278
3 2520.26 995388
3 2520.26 992276
3 2520.26 981971
3 2520.26 980586
3 2520.6 971700
3 2520.6 969612
3 2520.6 968876
3 2520.6 953210
3 2520.6 947165
3 2520.6 939154
3 2520.94 929111
3 2521.21 926448
3 2521.21 921539
3 2528.96 919737
3 2529.4 917209
3 2529.83 910534
3 2534.05 1130144
3 2534.05 1108927
1 2534.05 1061432
3 2534.05 1054381
3 2534.05 1050662
1 2534.05 1046355
3 2534.05 1045148
3 2534.05 1039080
3 2534.05 1014514
3 2534.05 1014144
3 2534.05 1000362
3 2534.05 981208
3 2534.05 979768
3 2534.05 968342
3 2534.05 968261
3 2534.6 967677
3 2534.6 967605
3 2534.95 965077
3 2537.52 959032
3 2537.99 957685
1 2545.41 955271
3 2548.23 1041227
3 2548.23 1031961
3 2548.23 1030711
3 2548.23 1024643
3 2548.23 1009739
3 2548.7 1009025
1 2548.7 1005947
3 2548.7 1001253
3 2548.7 994281
3 2548.7 993316
3 2548.7 993228
3 2549.02 990700
3 2549.02 990406
3 2549.29 985755
3 2549.29 982592
3 2550.94 979887
3 2552.28 977497
3 2552.28 975032
3 2552.57 974193
3 2552.57 972753
3 2552.86 963575
3 2552.86 960612
3 2552.86 956191
3 2552.86 956004
3 2553.19 950195
3 2553.19 949020
3 2553.19 945601
3 2553.19 945584
3 2553.19 936525
3 2554.02 933997
3 2562.28 1052766
3 2562.28 1012455
3 2562.28 1011989
3 2562.28 1006646
3 2562.28 1005921
3 2562.28 985669
3 2562.76 984176
3 2562.76 969392
3 2562.76 958162
3 2563.24 955634
3 2563.24 952181
3 2563.24 949825
3 2563.76 946166
3 2570.89 944924
3 2576.21 1026995
3 2576.21 1023639
3 2576.21 1010660
3 2576.21 1007614
3 2576.21 1001764
3 2576.21 999875
3 2576.21 999042
3 2576.21 998093
3 2576.21 988896
3 2576.21 978188
3 2576.21 976071
3 2576.21 975415
3 2576.83 969793
3 2576.83 967028
3 2578.63 962424
3 2579.19 960304
3 2579.19 951831
3 2579.19 947437
3 2579.19 946167
3 2579.19 945763
3 2580.8 942072
3 2581.25 939544
3 2581.25 938888
3 2581.25 935209
3 2590.39 1043163
3 2590.39 1038666
3 2590.39 1033269
3 2590.39 1030418
3 2590.39 1027890
3 2590.39 1027168
3 2590.39 1022048
3 2590.39 1001475
3 2590.39 995666
3 2590.39 991169
3 2591 976724
3 2591 951985
3 2591 934961
3 2591.89 931579
3 2592.33 928541
3 2592.33 925426
3 2604.2 1044082
3 2604.2 1032217
3 2604.2 1023462
3 2604.2 1008044
3 2604.2 1001251
3 2604.54 998161
3 2604.54 989575
3 2604.54 988119
3 2604.54 977600
3 2604.54 974323
3 2605.04 973667
3 2605.04 969970
3 2605.04 968316
3 2605.52 960218
3 2605.52 958032
3 2605.86 957725
3 2606.13 956378
1 2606.63 955548
3 2606.63 955504
3 2609.68 953838
3 2610.71 949387
3 2611.16 947770
3 2618.25 1078295
3 2618.25 1063203
3 2618.25 1060352
3 2618.25 1042807
3 2618.25 1018255
3 2618.25 1007877
3 2618.25 1007776
3 2618.85 1005323
3 2618.85 1004768
3 2618.85 990733
3 2618.85 986849
3 2618.85 985140
3 2618.85 982223
3 2619.2 979378
3 2619.2 979331
3 2619.2 977643
3 2619.2 971872
3 2619.2 967576
3 2619.51 966920
3 2620.3 964002
3 2620.3 962244
3 2620.3 958450
3 2620.6 953384
3 2620.6 945887
3 2621.16 940671
3 2621.16 937631
3 2632.17 1047133
3 2632.17 1033135
3 2632.17 976119
3 2632.17 966260
3 2632.17 964703
3 2632.17 964394
3 2632.17 957947
3 2632.52 946848
3 2632.52 946217
3 2632.52 946192
3 2633.33 936265
3 2633.59 934470
3 2633.59 931942
3 2633.59 931516
3 2633.91 929373
3 2646.1 1048856
3 2646.1 1016898
3 2646.1 1014670
3 2646.1 1004491
3 2646.1 997494
3 2646.1 991009
3 2646.1 989929
3 2646.1 989922
3 2646.1 989512
3 2646.1 988209
3 2646.48 987165
3 2646.48 986924
3 2646.48 979938
3 2646.78 979282
3 2647.04 973779
3 2647.04 963940
3 2647.35 963670
3 2648.14 961957
3 2648.42 961043
3 2648.7 957759
3 2648.7 956581
3 2648.7 956261
3 2648.7 950226
3 2650.89 949931
3 2651.42 940944
3 2651.68 938496
3 2660.01 1062516
3 2660.01 1055499
3 2660.01 1037127
3 2660.01 1017740
3 2660.01 1010094
3 2660.01 999264
1 2660.01 996567
3 2660.01 981596
3 2660.01 971517
3 2660.58 971404
3 2660.58 970267
3 2660.58 965941
3 2660.58 965375
3 2660.58 964719
3 2661 963330
3 2661 959622
3 2661 957803
3 2661.54 957147
3 2674.41 1005947
3 2674.41 997086
3 2674.41 994925
3 2674.41 977270
3 2674.41 971118
3 2674.41 963553
3 2674.41 957428
3 2674.41 956411
3 2674.41 941352
3 2675.03 940103
3 2676.65 938902
3 2676.98 936636
3 2676.98 935303
3 2688.21 1041667
3 2688.21 1031787
3 2688.21 1025978
3 2688.21 1021670
1 2688.21 1018874
3 2688.21 1007758
3 2688.21 1001333
3 2688.8 1000677
3 2688.8 979224
3 2688.8 974704
3 2688.8 964357
3 2688.8 963087
3 2688.8 959952
3 2692.28 957748
3 2693.38 957466
3 2693.38 954846
3 2693.67 952805
3 2693.67 945897
3 2694.05 945681
3 2694.05 940485
3 2694.05 937206
3 2694.51 934678
3 2694.95 932248
3 2702.37 1085077
3 2702.37 1034656
3 2702.37 1019724
3 2702.37 1017414
3 2702.37 1012123
3 2702.37 1008992
3 2702.37 1003242
3 2702.37 998269
3 2703.1 994756
3 2703.1 990243
3 2703.1 985153
3 2703.1 984497
3 2703.1 981969
3 2703.1 981591
3 2703.1 979774
3 2703.1 979118
3 2703.66 962097
3 2704.51 962026
3 2704.94 958661
3 2705.39 957955
3 2706.29 956466
3 2706.29 948238
3 2706.29 947582
3 2706.29 945279
3 2707.26 942703
3 2707.26 941946
3 2708.15 941868
3 2708.15 940830
3 2708.51 929361
3 2708.51 928705
3 2708.81 927395
3 2716.4 990372
3 2716.4 985308
3 2716.4 984941
3 2716.4 976301
3 2716.92 975405
3 2716.92 968729
3 2717.38 964345
3 2717.71 963489
3 2717.71 961685
3 2717.71 947702
3 2718 947133
3 2718 944684
3 2718 943308
3 2718.28 943221
3 2718.54 942473
3 2719.3 941641
3 2719.3 939445
3 2730.31 1018265
3 2730.31 1004567
3 2730.31 1000002
3 2730.31 995534
3 2730.31 990224
3 2730.31 987100
3 2730.31 983741
3 2730.31 972847
3 2730.75 953445
3 2731.02 953188
3 2731.02 952972
3 2731.02 947153
3 2731.45 944231
3 2731.45 943644
3 2731.45 942988
3 2731.78 942513
3 2736.03 942353
3 2736.03 938665
3 2736.31 933160
3 2736.31 931074
3 2736.6 927884
3 2744.09 1053452
3 2744.09 1025588
3 2744.09 1025134
3 2744.09 1020125
3 2744.09 1018337
3 2744.09 1006322
3 2744.45 998955
3 2744.45 997608
3 2744.45 992126
3 2744.45 991001
3 2744.45 983101
3 2744.45 975556
3 2745.3 974698
3 2745.3 969261
3 2745.58 964939
3 2745.58 961179
3 2745.58 959422
3 2745.58 959167
3 2745.9 957373
3 2745.9 948772
3 2746.17 946341
3 2746.93 945685
3 2749.01 945070
3 2751.45 944347
3 2758.18 1101609
3 2758.18 1083750
3 2758.18 1062635
3 2758.18 1056826
3 2758.18 1053975
3 2758.18 1052115
3 2758.18 1046365
3 2758.18 1034332
3 2758.18 1029431
3 2758.18 997154
3 2758.18 991086
3 2758.96 984155
3 2758.96 981403
3 2759.9 979371
3 2759.9 978662
3 2759.9 966249
3 2760.2 960657
3 2760.2 955068
3 2760.2 954056
3 2760.2 953780
3 2760.2 947342
3 2760.52 946828
3 2760.52 945154
3 2760.52 943850
3 2760.52 940779
3 2760.52 940123
3 2761.07 937714
3 2761.64 936347
3 2761.64 932376
3 2772.05 1041239
3 2772.05 1036712
3 2772.05 1006761
3 2772.05 1006706
3 2772.05 989381
3 2772.05 980921
3 2772.05 980824
3 2772.6 977639
3 2772.6 976453
3 2773.08 967655
3 2774.01 953355
3 2774.01 949825
3 2774.01 948306
3 2774.96 946643
3 2775.46 946183
3 2777.51 945783
3 2786.09 1029710
3 2786.09 1018344
3 2786.09 1008632
3 2786.09 998078
3 2786.09 996309
3 2786.09 986470
3 2786.09 966712
3 2786.09 957131
3 2786.49 951086
3 2786.75 949739
3 2786.75 948707
3 2787.27 945271
3 2795.82 945164
3 2795.82 943817
query_times: 56
Score = 939280
