    Blocking waiting for file lock on package cache
    Blocking waiting for file lock on package cache
    Blocking waiting for file lock on package cache
    Blocking waiting for file lock on package cache
    Blocking waiting for file lock on build directory
    Finished `release` profile [optimized] target(s) in 0.10s
     Running `target/release/tester ../a.out 0010`
3 0.012 943629
3 0.012 934455
3 0.012 930072
3 0.012 926315
3 0.012 917642
3 0.012 915823
3 0.357 910393
3 0.357 908607
3 0.357 902453
3 1.193 897039
3 1.371 896100
3 1.371 893543
3 1.371 891959
3 14.145 919912
3 14.145 915392
3 14.145 899047
3 14.145 897976
3 14.145 896473
3 14.145 895896
3 14.145 881961
3 14.145 881945
3 14.145 880146
3 14.523 872062
3 16.063 866823
3 16.589 865996
3 16.786 861700
3 16.786 861260
3 16.786 859803
3 16.786 859315
3 17.071 857169
3 17.589 856354
3 17.589 854035
3 28.133 925028
3 28.133 923330
3 28.133 922526
3 28.133 915665
3 28.133 907573
3 28.133 906547
3 28.133 901198
3 28.505 895184
3 28.505 891731
3 30.733 878143
3 30.733 872838
3 42.162 958318
3 42.162 956815
3 42.162 933169
3 42.162 924685
3 42.162 915732
3 42.162 912975
3 42.162 891410
3 42.162 875810
3 42.162 875676
3 42.162 863597
3 44.212 863415
3 44.212 861996
3 44.433 860769
3 44.433 858444
3 56.006 920652
3 56.006 912987
3 56.006 909120
3 56.215 907035
3 56.215 907020
3 56.613 903583
3 56.613 899451
3 56.613 897494
3 56.861 897368
1 57.054 888766
3 57.262 883860
3 57.625 881937
3 57.625 875242
3 57.625 870984
3 57.625 870599
3 57.902 869428
3 70.272 923981
3 70.272 921282
3 70.272 913876
3 70.272 895181
3 70.272 887798
3 70.272 882148
3 70.272 880069
3 70.272 876008
3 70.272 873915
3 70.272 873728
3 70.272 873426
3 70.272 869962
3 71.062 867862
3 71.062 866011
3 71.062 864347
3 71.062 858756
3 84.074 939710
1 84.074 925070
3 84.074 921906
3 84.074 906794
3 84.074 898880
3 84.074 897786
3 84.554 897723
3 84.554 895872
3 84.554 895649
3 84.554 890926
3 84.554 887370
3 84.554 885759
3 84.554 883112
3 85.826 882246
3 86.125 880508
3 86.125 879036
3 86.98 878657
3 98.105 944947
3 98.105 935802
3 98.105 928753
3 98.105 928137
3 98.105 923879
3 98.105 921024
3 98.105 919521
3 98.105 912932
3 98.658 912030
1 104.557 894302
3 104.557 892172
3 112.138 911085
3 112.138 908247
3 112.138 905288
3 112.138 898256
3 112.138 897653
3 112.138 894382
3 112.138 892810
3 112.138 890285
3 112.138 889929
3 112.138 877983
3 112.138 873725
3 112.611 872642
3 112.611 867327
3 112.611 863745
3 112.872 862518
3 113.088 861645
3 113.088 861380
3 113.088 861289
3 113.708 859075
3 113.708 857019
3 113.94 850430
3 113.94 847593
3 126.068 916648
3 126.068 905114
3 126.068 901787
3 126.068 900034
3 126.068 895189
3 126.068 892779
3 126.068 891285
3 126.458 882986
3 126.458 878165
3 126.458 875054
3 126.458 874618
3 126.458 873370
3 126.774 870900
3 128.41 854925
3 128.661 854793
3 128.661 853143
3 128.661 852574
3 140.023 967564
3 140.023 952133
3 140.023 945544
3 140.023 930432
3 140.023 930129
3 140.023 926372
3 140.023 924521
3 140.023 923265
3 140.023 922820
3 140.57 920035
3 140.57 916278
3 140.57 912722
3 140.57 905734
3 140.57 900788
3 140.57 885177
3 140.57 879824
3 154.147 968586
3 154.147 960377
3 154.147 934826
3 154.147 933323
3 154.147 926734
3 154.462 923623
3 154.462 920720
1 155.025 910069
3 155.224 903176
3 155.224 901977
3 168.088 956571
3 168.088 954520
3 168.088 920699
3 168.391 911717
3 168.391 909866
3 168.391 904960
3 168.391 904319
3 169.378 902997
3 169.378 902772
3 182.07 953423
3 182.07 935642
3 182.07 916713
3 182.07 893930
3 182.07 892680
3 182.07 890829
3 182.07 887916
3 182.546 879824
3 196.072 895422
3 196.072 889347
3 196.072 881618
3 196.072 876489
3 196.072 876078
3 196.072 876064
3 196.072 873906
3 196.5 872928
3 196.5 872134
3 196.82 871877
3 196.82 870034
3 210.238 983200
3 210.238 967925
3 210.238 943603
3 210.238 941752
3 210.238 922823
1 214.154 917078
3 214.154 908986
3 214.154 907823
3 214.154 904080
3 224.254 955011
3 224.254 940954
3 224.254 933225
3 224.254 931598
3 224.254 920801
3 224.254 909001
3 224.254 907303
3 224.254 905220
3 224.254 903546
3 224.254 900334
3 224.761 897570
3 224.761 892645
3 224.761 883483
3 224.761 877323
3 225.149 874525
3 225.441 872166
3 225.441 872080
3 225.441 870819
3 225.441 867419
3 225.441 863944
3 225.441 862599
3 225.875 858842
3 238.022 952066
3 238.022 939048
3 238.022 936948
3 238.022 898252
3 238.022 884866
3 238.022 877201
3 238.425 875900
3 238.425 870713
3 238.425 869109
3 252.003 974085
3 252.003 966109
3 252.003 964911
3 252.003 958322
3 252.003 944323
3 252.003 942472
3 252.003 942023
3 252.003 939920
3 252.003 938069
3 252.525 933811
3 252.525 931871
3 252.525 929771
3 252.883 928795
3 252.883 926060
3 253.235 921154
3 253.235 919303
1 255.752 915363
3 255.752 908645
3 255.752 906218
3 266.045 943524
3 266.045 938454
3 266.045 938094
3 266.045 932499
3 266.045 928742
3 266.045 919046
3 266.49 917195
1 266.49 913321
3 266.49 907307
3 266.848 904780
3 266.848 904252
3 266.848 898675
3 266.848 896824
3 280.067 907378
3 280.067 906559
3 280.067 903444
3 280.067 903013
3 280.067 901162
3 280.067 899778
3 280.406 897370
3 280.406 889673
3 280.406 886616
3 280.406 885764
3 280.406 883203
3 280.672 875611
3 280.672 874544
3 280.672 871585
3 280.672 870787
3 280.672 866789
3 281.136 866022
3 281.136 864444
3 281.511 862593
3 294.116 928604
3 294.116 913791
3 294.116 900758
3 294.116 894744
3 294.116 893151
3 294.116 890775
3 294.116 889394
3 294.116 886587
3 294.116 882976
3 294.116 881863
3 294.116 877583
3 294.54 873826
3 294.54 870529
3 294.54 862437
3 294.757 860337
3 294.757 859938
3 294.757 857792
3 294.972 857725
3 294.972 856343
3 295.183 854035
3 308.054 953505
3 308.054 913320
3 308.054 870048
3 308.054 866051
3 308.054 863460
3 308.054 859202
3 308.389 858104
3 308.389 857513
3 308.389 852607
3 309.452 852574
3 322.196 961348
3 322.196 952174
3 322.196 928638
3 322.196 920546
3 322.196 912962
3 322.196 909975
3 322.196 906218
1 330.594 901929
3 330.594 897023
3 330.594 894508
3 330.946 890434
3 331.768 889335
3 331.768 887674
3 336.223 910988
3 336.223 902938
3 336.223 902365
3 336.223 894937
3 336.223 887090
3 336.223 874581
3 336.223 869293
3 336.223 864554
3 336.223 864325
3 336.223 860067
3 337.79 858564
3 338.859 857019
3 338.859 855764
3 338.859 854390
3 338.859 853897
3 339.234 852530
3 339.234 851119
3 339.234 850430
3 339.583 847593
3 350.012 915089
3 350.012 907424
3 350.012 902125
3 350.012 890219
3 350.012 885742
3 350.012 874609
3 350.012 872724
3 350.012 869109
3 364.213 882676
3 364.213 880433
3 364.213 872768
3 364.213 868510
3 364.593 865131
3 364.593 860067
3 365.155 858564
3 366.178 854213
3 366.178 850857
3 366.178 850506
3 366.518 848655
3 366.518 847624
3 366.799 847593
3 378.087 970556
3 378.087 968453
3 378.087 964696
3 378.087 936477
3 378.087 935252
3 378.087 927160
3 378.087 922823
1 390.9 912172
3 390.9 909533
3 390.9 904080
3 392.062 991165
3 392.062 966843
3 392.062 963132
3 392.062 961281
3 392.062 948772
3 392.062 945015
3 392.062 931997
3 392.505 922823
3 406.027 955416
3 406.027 946242
3 406.027 930915
3 406.352 922823
1 406.907 914272
3 406.907 906180
3 406.907 905069
3 407.258 904080
1 409.776 901977
3 420.148 926732
3 420.148 905922
3 420.148 896305
3 420.148 895638
3 420.148 891380
3 420.148 886428
3 420.572 884474
3 420.572 875329
3 420.572 871071
3 420.572 867314
3 420.937 865709
3 420.937 860797
3 421.248 860204
3 421.248 859979
3 434.051 1002640
3 434.051 977089
3 434.051 968997
3 434.051 950068
3 434.051 948259
3 434.051 938167
3 434.051 928993
3 434.051 928385
3 434.784 924674
3 434.784 922823
1 438.861 914272
3 438.861 906180
3 438.861 904663
3 438.861 904080
3 448.155 902214
3 448.155 899554
3 448.155 897454
3 448.155 896490
3 448.155 896190
3 448.155 895699
3 448.155 893976
3 448.434 891441
3 448.434 889121
3 448.434 873762
3 448.834 872663
3 449.021 871143
3 449.021 867386
3 449.232 862361
3 462.075 985227
3 462.075 981470
3 462.075 976040
3 462.075 975772
3 462.075 970165
3 462.075 962073
3 462.075 952899
3 462.075 952167
3 462.075 927611
3 462.457 927348
3 462.65 923353
1 474.075 903495
3 476.035 977905
3 476.035 950423
3 476.035 948315
3 476.035 942401
3 476.035 940898
3 476.035 934309
3 476.035 930051
3 476.035 909361
3 476.035 908993
3 490.135 926111
3 490.135 909890
3 490.135 903417
3 490.135 894570
3 490.135 892760
3 490.135 885521
3 490.135 882655
3 490.859 875578
3 491.052 871786
3 491.052 867528
3 504.02 916421
3 504.02 909481
3 504.02 900687
3 504.02 894098
3 504.297 891762
3 504.519 885435
3 504.519 881678
3 504.519 881657
3 518.135 940194
3 518.135 924460
3 518.135 903266
3 518.135 898368
3 518.135 897482
3 518.135 885797
1 518.135 879125
3 518.524 876145
3 532.102 912326
3 532.102 895436
3 532.102 894993
3 532.102 893336
3 532.102 892717
3 532.102 880208
3 532.44 874909
3 532.44 872374
3 532.44 867706
3 532.44 867274
3 532.44 867233
3 532.44 866777
3 533.025 863162
3 546.118 932342
3 546.118 928786
3 546.118 913163
3 546.118 897085
3 546.118 885357
3 546.118 884557
3 546.118 879343
3 546.118 875586
3 546.573 874525
3 546.794 871230
3 546.794 862056
3 547.035 861989
3 547.24 861964
3 547.594 858842
3 547.594 857130
3 547.594 857083
3 560.009 996483
3 560.009 985742
3 560.009 982031
3 560.009 976017
3 560.009 967925
3 560.009 954449
3 560.009 948996
3 560.009 945304
3 560.009 924674
3 560.009 922823
3 574.063 962612
3 574.063 962592
3 574.063 957956
3 574.063 948782
3 574.063 942465
3 574.063 936451
3 574.063 933623
3 574.419 922649
3 574.419 920916
3 574.419 916658
3 574.671 914225
3 574.671 912947
3 574.671 911257
3 574.671 911096
1 577.151 902805
3 577.151 896932
3 577.411 894713
3 577.621 891238
3 588.079 906539
3 588.079 906377
3 588.079 896037
3 588.079 890478
3 588.079 883019
3 588.079 879603
3 588.079 877224
3 588.079 876349
3 588.521 874929
3 588.521 873850
3 588.521 868133
3 588.865 864439
3 588.865 860634
3 588.865 856877
3 589.173 852618
3 589.392 852607
3 589.392 852574
3 602.27 960379
3 602.27 951205
3 602.27 949702
3 602.27 922041
3 602.27 913196
3 602.27 907189
3 602.27 906677
3 602.27 877224
3 602.27 876175
3 602.27 868510
3 602.27 867231
3 602.827 860642
3 603.107 860296
3 603.107 860067
3 603.431 857795
3 603.431 857468
3 603.431 847593
3 616.121 916671
3 616.121 904727
3 616.121 896210
3 616.121 881069
3 616.121 870389
3 616.121 863723
3 616.121 858848
3 616.546 858172
3 616.546 856541
3 630.128 967354
3 630.128 961924
3 630.128 960073
3 630.128 958570
3 630.128 949775
3 630.128 948248
3 630.128 936757
3 630.128 932803
3 630.128 923629
3 630.619 917040
3 630.619 912782
3 633.123 902972
3 633.123 898938
3 633.449 896029
3 633.449 892924
3 644.259 962871
3 644.259 942314
3 644.259 937927
3 644.259 929835
3 644.259 927984
3 644.259 925462
3 644.259 921204
1 644.716 917217
3 644.716 910144
3 644.716 908945
3 645.07 908043
3 658.095 983172
3 658.095 968901
3 658.095 963161
3 658.095 957731
3 658.095 951142
3 658.095 945128
3 658.095 942200
3 658.095 936753
3 658.095 926663
3 658.095 915046
3 658.095 914322
3 658.095 912433
3 658.095 911073
3 658.664 909438
3 658.664 907927
3 659.503 907008
3 659.503 906021
1 659.503 897780
3 659.855 892874
3 659.855 890554
3 659.855 887675
3 660.209 886163
3 660.495 886051
3 660.778 885048
3 660.778 882406
3 672.022 912909
3 672.022 898410
3 672.022 889038
3 672.022 885786
3 672.022 873893
3 672.022 869200
3 672.45 861108
3 672.45 860744
3 672.778 855838
3 686.188 898244
3 686.188 892973
3 686.188 892062
3 686.188 882572
3 686.188 871673
3 686.754 868080
3 686.754 868035
3 686.754 866184
3 687 863502
3 687.379 861375
3 687.379 858771
3 688.076 855990
3 700.184 912987
3 700.184 908081
3 700.184 904334
3 700.184 902761
3 700.184 888307
3 700.184 887309
3 700.184 887053
3 700.184 884190
3 700.184 881149
3 700.184 880967
3 700.184 875636
3 700.803 874525
3 700.803 873044
3 701.117 872674
3 704.969 872316
3 704.969 866199
3 705.285 861941
3 714.152 1005913
3 714.152 999899
3 714.152 991807
3 714.152 984142
3 714.152 977013
3 714.152 976413
3 714.152 971583
1 714.613 958075
3 714.613 957616
3 714.613 949887
3 715.209 940870
3 715.209 937318
3 715.209 933561
3 715.209 928131
1 716.923 908273
3 728.062 950576
3 728.062 931478
3 728.062 927581
3 728.062 924978
3 728.062 923519
3 728.062 895428
3 728.062 894574
3 728.062 883484
3 728.062 879727
3 728.062 878018
3 728.062 877671
3 728.588 874760
3 728.877 871254
3 731.212 869650
3 732.748 869024
3 733.032 867012
3 742.056 946458
3 742.056 942747
3 742.056 924976
3 742.056 920070
3 742.056 900679
3 742.056 890895
3 742.056 885926
3 742.056 878887
3 742.056 873647
3 742.056 873417
3 742.544 872943
3 742.544 872144
3 742.544 869573
3 742.886 860801
3 742.886 860668
3 743.197 858548
3 746.84 858068
3 746.84 855968
3 756.161 954909
3 756.161 948320
3 756.161 944062
3 756.161 910725
3 756.161 895980
3 756.161 890653
3 756.161 888101
3 756.161 887223
3 756.598 886250
3 756.598 882047
3 756.598 881649
3 756.949 879798
3 759.852 877989
3 770.115 980635
3 770.115 946814
3 770.115 932142
3 770.115 928431
3 770.115 924674
3 770.115 922823
1 776.606 912172
3 776.606 911691
3 776.929 906180
3 776.929 904080
1 779.945 901977
3 784.163 942921
3 784.163 921453
3 784.163 919551
3 784.163 919229
3 784.163 916273
3 784.163 912210
1 784.163 907057
3 784.163 905554
3 784.163 901685
3 784.163 896038
3 784.58 894939
3 784.788 894598
3 784.995 894355
3 784.995 890841
3 784.995 884761
3 784.995 884187
3 785.243 882336
3 785.892 875871
3 786.107 871639
3 786.308 870309
3 798.007 918179
3 798.007 892518
3 798.007 891107
3 798.007 888667
3 798.007 877789
3 798.007 872171
3 798.007 869379
3 798.504 865520
3 798.504 863796
3 798.504 862037
3 798.763 861262
3 812.004 942623
3 812.004 937717
3 812.004 928543
3 812.004 926692
3 812.004 899682
3 812.004 898000
3 812.004 889908
3 812.004 888809
3 812.004 888541
3 812.004 865586
3 812.513 861289
3 812.513 859119
3 812.513 852913
3 812.513 850430
3 812.85 847593
3 826.106 933100
3 826.106 931000
3 826.106 925809
3 826.106 915362
3 826.106 913859
3 826.106 907714
3 826.106 906311
3 826.566 899566
3 826.566 895809
3 826.566 890349
3 826.566 882257
3 826.566 881457
3 826.986 874654
3 827.23 872283
3 834.016 868559
3 834.016 867622
3 834.336 866658
3 834.336 863653
3 834.336 860759
3 834.674 860481
3 840.09 904251
3 840.09 899352
3 840.09 898708
3 840.09 886843
3 840.09 885021
3 840.09 881152
3 840.09 878065
3 840.09 867735
3 840.09 865884
3 840.63 862127
3 841.034 861899
3 841.273 855932
3 854.083 926074
3 854.083 909966
3 854.083 902591
3 854.083 900913
3 854.083 892821
3 854.083 890852
3 854.083 887580
3 854.083 887543
3 854.083 879814
3 854.083 879195
3 854.083 872836
3 854.083 872568
3 854.499 868576
3 854.667 867344
3 868.052 901376
3 868.052 885186
3 868.052 883555
3 868.052 882069
3 868.052 880218
3 868.052 879632
3 868.052 873798
3 868.421 868963
3 868.421 867461
3 868.421 867303
3 868.421 866229
3 868.421 864057
3 868.721 862792
3 868.921 860067
3 869.275 858564
3 869.785 854261
3 869.785 852113
3 870.003 845851
3 882.058 967701
3 882.058 963944
3 882.058 945015
3 882.058 942430
3 882.058 935841
3 882.058 922823
1 891.133 912172
3 891.384 907823
3 891.384 904080
3 896.181 938540
3 896.181 937314
3 896.181 933557
3 896.181 905713
3 896.181 899649
3 896.181 891175
3 896.181 886631
3 896.883 881720
3 896.883 876814
3 898.883 875112
3 899.092 874865
3 899.092 874635
3 910.182 949142
3 910.182 941050
3 910.182 935603
3 910.182 933959
3 910.182 918225
3 910.182 910496
3 910.182 910476
3 910.182 908645
3 910.967 906218
3 924.045 976103
3 924.045 974252
3 924.045 966160
3 924.045 958431
3 924.045 944528
3 924.045 941943
3 924.045 935354
3 924.045 928837
3 924.045 922823
1 935.703 917078
3 935.703 912172
3 935.703 904080
3 938.155 939026
3 938.155 936582
3 938.155 929062
3 938.155 925358
3 938.155 921343
3 938.155 906046
3 938.155 904844
3 938.155 901087
3 938.155 900819
3 938.155 882823
3 938.155 879395
3 938.155 871303
3 938.701 870911
3 938.701 869397
3 938.976 860851
3 938.976 859587
3 952.194 943810
3 952.194 891606
3 952.194 887814
3 952.194 885788
3 952.194 884185
3 952.194 883556
3 952.194 880428
3 952.838 877542
3 952.838 874415
3 953.11 872763
3 956.003 871772
3 956.003 865758
3 956.321 864556
3 956.321 863907
3 957.107 863032
3 957.107 862989
3 957.333 862659
3 957.552 862521
3 957.552 861832
3 957.8 859275
3 966.129 919361
1 966.129 904877
3 966.129 904188
3 966.129 898863
3 966.129 891170
3 966.129 882419
3 966.129 874123
3 966.57 873284
3 966.57 871909
3 966.813 866479
3 966.813 866457
3 967.051 861957
3 967.813 861838
3 968.004 858814
3 969.207 858262
3 969.391 858247
3 969.391 856445
3 980.052 959561
3 980.052 948284
3 980.052 943173
3 980.052 943042
3 980.052 939354
3 980.052 931262
3 980.052 925700
3 980.523 916526
3 980.523 908572
3 980.523 905842
3 980.778 900412
3 980.778 898236
3 980.778 895557
3 981.062 893457
3 981.306 891238
3 994.145 934461
3 994.145 924356
3 994.145 893019
3 994.145 890448
3 994.145 888597
3 994.145 882243
3 994.145 877066
3 994.145 876974
3 994.145 873931
3 994.145 870814
3 994.145 867441
3 994.642 865908
3 994.642 864057
3 994.642 857468
3 994.946 856320
3 995.167 856170
3 995.739 855789
3 995.739 855335
3 995.739 854260
3 995.739 854213
3 995.739 852113
3 995.739 848655
3 996.243 847624
3 996.243 847593
3 1008.21 970562
3 1008.21 962470
3 1008.54 960953
3 1008.54 960370
3 1008.54 947352
3 1008.85 904080
1 1022.03 975601
3 1022.03 964852
3 1022.03 945657
3 1022.03 930844
3 1022.03 928800
3 1022.03 925043
3 1022.03 920318
3 1022.03 915732
3 1022.03 912801
3 1022.51 889265
3 1022.51 881173
3 1022.51 880626
3 1022.51 879158
3 1022.84 876518
3 1023.95 875074
3 1023.95 873168
3 1023.95 872346
3 1036.07 911777
3 1036.07 892187
3 1036.07 891011
3 1036.07 890335
3 1036.07 882951
3 1036.07 881669
3 1036.41 879879
3 1036.6 878710
3 1036.6 874844
3 1036.6 873258
3 1036.6 872054
3 1036.91 870203
3 1036.91 867916
3 1037.12 867370
3 1038.56 863658
3 1039.91 862427
3 1039.91 860950
3 1042.64 860306
3 1042.64 859275
3 1050.1 922673
3 1050.1 912568
3 1050.1 907006
3 1050.1 898179
3 1050.1 893273
3 1050.1 886219
3 1050.1 884095
3 1050.1 881975
3 1050.1 878905
3 1050.1 876805
3 1050.46 873379
3 1050.46 867817
3 1050.69 862438
3 1050.69 862305
3 1050.69 858548
3 1050.91 855968
3 1064.01 901953
3 1064.01 899652
3 1064.01 895895
3 1064.01 890327
3 1064.01 886721
3 1064.01 878989
3 1064.33 869107
3 1064.33 860060
3 1064.33 855369
3 1064.33 854213
3 1064.33 852113
3 1064.56 847593
3 1078.06 931649
3 1078.06 902875
3 1078.06 888622
3 1078.06 875041
3 1078.06 873818
3 1078.06 871967
3 1078.06 871063
3 1078.06 868679
3 1078.5 867732
3 1078.5 866229
3 1078.78 858564
3 1079.22 857019
3 1079.22 851433
3 1079.22 850430
3 1079.5 847593
3 1092.09 957205
3 1092.09 944696
3 1092.09 939134
3 1092.09 936533
3 1092.09 915382
3 1092.09 913531
3 1092.54 913147
3 1092.54 912432
3 1092.54 908695
3 1092.54 906748
3 1092.54 904897
3 1092.54 899699
3 1092.54 895723
3 1092.54 890817
3 1093.06 889221
3 1106.16 946352
3 1106.16 930416
3 1106.16 916331
3 1106.16 914682
3 1106.16 904024
3 1106.16 903332
3 1106.16 901491
3 1106.16 888473
3 1106.16 887544
3 1106.16 882676
3 1106.79 874584
3 1106.79 869775
3 1107.14 868689
3 1107.14 863783
3 1107.14 861809
3 1107.14 861435
3 1120.16 939966
3 1120.16 934080
3 1120.16 897172
3 1120.16 889507
3 1120.16 886248
3 1120.16 885593
3 1120.16 885373
3 1120.16 882672
3 1120.16 876431
3 1120.16 870417
3 1120.16 866660
3 1120.16 866257
3 1120.71 865762
3 1120.71 864535
3 1120.96 863662
3 1121.16 861289
3 1121.16 859264
3 1121.16 859119
3 1121.39 858564
3 1121.39 857019
3 1121.79 854261
3 1122.06 852113
3 1122.06 851433
3 1122.3 851119
3 1122.3 849750
3 1122.3 847624
3 1122.56 847593
3 1134.05 955466
3 1134.05 951492
3 1134.05 951382
3 1134.05 948797
3 1134.05 935779
3 1134.05 933404
3 1134.05 926634
3 1134.42 922877
3 1134.42 916288
3 1134.66 915360
3 1134.66 912932
3 1134.66 912030
1 1145.57 904407
3 1145.57 900932
3 1145.57 896430
3 1146.53 893074
3 1146.53 892172
3 1148.15 977743
3 1148.15 958669
3 1148.15 949495
3 1148.15 945857
3 1148.15 943933
3 1148.15 933231
3 1148.59 930915
3 1148.59 922823
1 1148.89 913120
3 1148.89 912172
3 1148.89 911691
3 1148.89 905028
3 1148.89 904080
3 1162.01 947786
3 1162.01 930166
3 1162.01 922501
3 1162.01 920309
3 1162.01 884772
3 1162.41 881015
3 1176.06 975562
3 1176.06 963053
3 1176.06 961408
3 1176.06 958045
3 1176.06 954288
3 1176.06 947699
3 1176.06 947314
3 1176.5 941752
3 1176.5 929005
3 1176.77 924747
3 1176.77 924674
3 1176.77 922823
1 1177.6 912172
3 1177.6 904080
3 1190 917340
3 1190 912576
3 1190 904847
3 1190 902025
3 1190 893976
3 1190 892913
3 1190 883776
3 1190 879976
3 1190 872998
3 1190.52 871899
3 1190.52 870356
3 1190.52 865885
3 1190.52 862844
3 1190.9 862361
1 1204.2 945701
3 1204.2 936649
3 1204.2 911098
3 1204.2 906057
3 1204.2 899028
3 1204.2 898300
3 1204.2 894543
3 1204.2 883558
3 1204.72 878652
3 1205.02 874467
3 1205.02 870987
3 1218.04 911552
3 1218.04 903823
3 1218.04 900175
3 1218.04 891654
3 1218.04 889833
3 1218.04 878721
3 1218.04 877214
3 1218.36 870629
3 1219.03 869057
3 1219.22 867589
3 1219.4 865603
3 1222.36 863783
3 1222.73 862824
3 1232.13 962385
3 1232.13 949367
3 1232.13 946112
3 1232.13 944012
3 1232.13 942509
3 1232.57 937716
3 1232.57 933458
3 1232.57 932101
3 1232.57 927611
3 1232.95 923353
1 1233.25 911643
3 1233.25 903495
3 1246.05 944726
3 1246.05 938597
3 1246.05 936997
1 1246.05 923664
3 1246.05 904766
3 1246.05 902774
3 1246.05 900923
3 1246.05 896846
3 1246.05 895832
3 1246.59 894172
3 1246.88 892072
3 1246.88 883448
3 1246.88 878775
3 1246.88 876924
3 1260.09 961099
3 1260.09 953452
3 1260.09 947438
3 1260.09 930179
3 1260.09 927008
3 1260.09 926380
3 1260.09 917206
3 1260.09 907682
3 1260.09 907381
3 1260.46 906021
3 1260.46 902264
1 1260.68 897780
3 1260.68 892874
3 1260.88 891580
3 1260.88 882769
3 1260.88 882406
3 1274.05 953408
3 1274.05 936518
3 1274.05 916235
3 1274.05 914135
3 1274.05 912421
3 1274.05 892145
3 1274.05 891594
3 1274.05 884685
3 1274.05 875677
3 1274.05 873826
3 1274.4 873247
3 1275.06 872062
3 1275.4 866351
3 1275.4 857725
3 1275.62 856343
3 1275.62 854035
3 1288.14 964080
3 1288.14 955988
3 1288.14 946814
3 1288.14 932103
3 1288.14 911575
3 1288.14 899066
3 1288.14 893769
3 1288.14 891401
3 1288.57 887755
3 1288.57 887644
3 1288.57 886040
3 1288.57 869541
3 1288.57 869109
3 1302.15 944695
3 1302.15 940938
3 1302.15 928429
3 1302.15 923597
3 1302.15 914423
3 1302.15 913284
3 1302.15 908993
1 1308.13 892590
3 1308.13 889135
3 1316.09 913437
3 1316.09 881980
3 1316.09 880881
3 1316.09 877522
3 1316.38 876906
3 1316.38 867732
3 1316.38 865158
3 1316.38 860252
3 1316.67 858542
3 1316.67 856401
3 1316.67 853173
3 1316.9 848267
3 1317.1 847593
3 1330.05 950055
3 1330.05 929289
3 1330.05 912136
3 1330.05 900738
3 1330.05 900653
3 1330.05 890548
3 1330.05 882967
3 1330.05 882546
3 1330.05 881116
3 1330.05 868765
3 1330.05 867262
3 1330.05 860793
3 1330.05 856518
3 1330.05 854667
3 1330.68 852113
3 1330.87 849750
3 1330.87 847624
3 1331.1 847593
3 1344.11 925293
3 1344.11 923193
3 1344.11 916287
3 1344.11 916213
3 1344.11 914264
3 1344.11 906599
3 1344.11 905515
3 1344.11 899501
3 1344.11 897703
3 1344.48 896910
3 1344.48 895989
3 1344.48 886844
3 1344.48 885080
3 1344.48 883563
3 1344.48 869153
3 1344.48 868451
3 1344.48 866726
3 1344.48 866351
3 1344.85 863846
3 1344.85 861700
3 1345.07 857862
3 1345.07 854172
3 1345.07 854035
3 1358.06 958190
3 1358.06 952628
3 1358.06 944536
3 1358.06 925607
1 1361.37 923504
3 1372.04 930863
3 1372.04 900337
3 1372.04 893467
3 1372.04 883419
3 1372.04 883287
3 1372.04 877273
3 1372.04 874274
3 1372.04 868722
3 1372.04 862547
3 1372.83 859951
3 1386.19 974901
3 1386.19 966894
3 1386.19 961740
3 1386.19 954385
3 1386.19 948371
3 1386.19 940279
3 1386.65 932590
3 1386.65 927261
3 1386.65 923504
3 1400.07 921218
3 1400.07 901591
3 1400.07 898852
3 1400.07 895087
3 1400.07 893881
3 1400.07 893236
3 1400.52 885630
3 1400.52 883530
3 1400.52 870786
3 1400.52 868409
3 1400.9 866131
3 1401.19 864137
3 1414.11 959268
3 1414.11 942378
3 1414.11 936364
3 1414.11 927190
3 1414.11 925687
3 1414.11 919098
3 1414.11 918330
3 1414.61 908993
1 1422.54 900702
3 1422.84 899240
3 1422.84 889135
3 1428.13 927682
3 1428.13 927275
3 1428.13 924851
3 1428.13 922369
3 1428.13 909351
3 1428.13 901333
3 1428.13 900206
3 1428.13 889763
3 1428.91 884866
3 1428.91 881155
3 1429.23 874913
3 1429.23 873063
3 1429.23 871315
3 1429.23 871212
3 1442.2 977438
3 1442.2 969346
3 1442.2 960172
3 1442.2 947154
3 1442.2 931420
3 1442.2 926225
3 1442.2 916120
1 1442.67 903433
3 1443.5 899676
3 1446.96 897567
3 1446.96 895736
3 1450.06 894926
3 1450.06 893309
3 1450.65 891458
1 1453.34 885452
3 1453.34 876687
3 1453.65 875347
3 1456.15 892546
3 1456.15 886900
3 1456.48 885327
3 1456.48 883143
3 1456.79 876175
3 1456.79 875572
3 1456.79 869214
3 1456.79 867707
3 1470.22 914585
3 1470.22 898851
3 1470.22 885833
3 1470.22 884685
3 1470.22 879029
3 1470.22 876659
3 1470.22 875511
3 1470.71 864574
3 1470.71 863293
3 1470.71 862518
3 1471.06 862320
3 1471.06 856306
3 1484.23 959752
3 1484.23 921856
3 1484.23 913764
3 1484.23 907233
3 1484.23 903476
3 1484.23 898863
3 1484.23 898065
3 1484.23 895965
3 1484.23 893702
3 1484.23 888873
3 1484.23 876888
3 1484.23 857081
3 1484.85 852113
3 1484.85 849750
3 1484.85 848655
3 1485.2 847593
3 1498.02 931422
3 1498.02 901901
3 1498.02 897601
3 1498.02 888372
3 1498.02 886109
3 1498.02 884615
3 1498.02 881600
3 1498.02 878671
3 1498.02 874539
3 1498.02 861009
3 1498.02 859788
3 1498.56 859635
3 1498.56 858756
3 1512.05 965684
3 1512.05 960122
1 1512.05 958019
3 1512.05 952005
3 1512.05 941900
1 1512.49 918602
3 1512.49 918067
3 1512.49 914310
3 1512.49 912443
3 1512.49 904351
3 1512.49 902264
3 1512.49 889246
3 1513.21 886624
3 1513.51 885555
3 1513.51 881376
3 1514.62 880917
3 1515.16 880200
3 1515.16 878715
3 1526.08 979986
3 1526.08 976229
3 1526.08 974129
3 1526.08 968567
3 1526.08 963661
3 1526.08 962158
3 1526.08 948612
3 1526.08 944354
3 1526.08 937765
3 1526.08 931247
3 1526.63 924379
3 1526.63 924209
3 1526.63 919303
1 1527.26 910476
3 1527.55 908645
3 1527.55 906218
1 1528.42 897191
3 1528.42 897072
3 1528.74 888924
3 1529.3 888787
1 1538.51 886892
3 1538.72 886087
3 1538.72 885455
3 1538.92 885435
3 1539.12 881698
3 1540.02 963685
3 1540.02 961179
3 1540.02 934352
3 1540.02 926260
3 1540.02 906085
3 1540.02 885788
3 1540.02 880528
3 1540.02 879401
3 1540.02 874514
3 1540.39 871524
3 1540.39 870629
3 1540.94 869530
3 1543.41 868968
3 1543.41 865236
3 1543.41 864137
3 1554.03 936406
3 1554.03 900459
3 1554.03 877744
3 1554.03 875128
3 1554.03 872460
3 1554.31 871361
3 1554.31 867967
3 1554.31 866116
3 1568.03 914648
3 1568.03 912797
3 1568.03 898360
3 1568.03 877803
3 1568.03 872763
3 1568.54 863658
3 1569.07 862427
3 1569.07 860950
3 1569.78 860306
3 1569.98 859275
3 1582.12 924746
3 1582.12 921769
3 1582.12 912527
3 1582.12 893598
3 1582.12 885928
3 1582.12 875823
3 1582.45 867869
3 1582.45 867455
3 1582.84 866649
3 1582.84 860599
3 1583.07 859790
3 1596.11 933455
3 1596.11 927441
3 1596.11 899072
3 1596.11 877689
3 1596.11 877491
3 1596.11 874263
3 1596.11 871477
3 1596.62 865118
3 1610.09 924215
3 1610.09 910798
3 1610.09 895782
3 1610.09 886227
3 1610.09 885677
3 1610.09 873316
3 1610.09 872812
3 1610.09 868554
3 1610.66 867455
3 1610.86 866649
3 1611.07 865076
3 1611.07 862361
3 1611.3 861319
3 1611.3 859790
3 1624.07 942535
3 1624.07 936521
3 1624.07 931553
3 1624.07 923888
3 1624.07 917299
3 1624.38 901688
3 1624.38 897430
3 1624.38 893899
3 1624.38 893673
3 1625 889505
3 1638.13 977775
3 1638.13 977733
3 1638.13 977510
3 1638.13 976264
3 1638.13 967090
3 1638.13 959414
3 1638.13 951322
3 1638.13 945308
3 1638.13 926892
3 1638.6 920493
3 1638.6 917198
3 1638.6 916857
3 1638.6 916736
3 1639.09 912782
3 1639.09 907682
3 1639.09 902264
1 1642.13 897780
3 1642.13 895308
3 1642.13 891215
3 1642.4 887821
3 1642.4 887150
3 1642.4 886051
3 1642.84 884534
3 1642.84 882406
3 1652.09 922447
3 1652.09 907908
3 1652.09 897637
3 1652.09 895964
3 1652.09 894929
3 1652.09 894892
3 1652.09 891044
3 1652.09 888099
3 1652.09 887095
3 1652.09 883725
3 1652.09 882589
3 1652.56 877541
3 1652.56 873415
3 1652.8 871879
3 1652.8 869171
3 1653.03 864214
3 1653.56 862964
3 1653.56 862399
3 1653.56 861113
3 1666.07 910375
3 1666.07 906117
3 1666.07 901794
3 1666.07 898308
3 1666.07 898239
3 1666.07 892794
3 1666.07 891444
3 1666.07 889593
3 1666.07 883004
3 1666.07 881237
3 1666.43 878903
3 1666.43 874645
3 1666.43 873760
3 1666.43 869599
3 1666.43 868044
3 1666.43 865522
3 1680.03 943672
3 1680.03 930654
3 1680.03 926897
1 1680.03 916046
3 1680.03 910684
3 1680.03 906427
3 1680.03 905941
3 1680.03 903746
3 1680.03 902759
3 1680.4 898940
3 1680.4 894790
3 1680.4 892261
3 1680.63 891033
3 1680.63 886775
3 1680.85 885922
3 1680.85 884924
3 1694.07 933577
3 1694.07 914580
3 1694.07 914230
3 1694.07 892933
3 1694.07 890833
3 1694.07 883168
3 1694.07 877186
3 1694.42 875116
3 1694.42 871172
3 1694.42 867415
3 1694.67 864214
3 1694.67 858725
3 1694.67 858270
3 1695.07 854012
3 1708.13 932577
3 1708.13 930726
3 1708.13 919878
3 1708.13 913289
3 1708.13 901829
3 1708.13 892830
3 1708.13 890774
3 1708.13 881600
3 1708.13 881528
3 1708.13 878467
3 1708.54 871719
3 1708.54 866962
3 1708.54 858251
3 1708.54 856401
3 1708.79 852592
3 1708.79 850492
3 1709.17 847593
1 1722.01 977312
3 1722.01 973054
3 1722.01 926210
3 1722.01 919527
3 1722.01 918020
3 1722.01 902004
3 1722.01 900153
3 1722.34 892526
3 1722.34 892061
3 1722.34 891377
3 1722.6 887620
3 1722.6 887468
3 1722.82 886618
3 1722.82 882360
3 1723.87 880967
3 1723.87 877802
3 1736.01 970100
3 1736.01 953568
3 1736.01 952409
3 1736.01 945857
3 1736.01 944901
3 1736.01 936809
3 1736.01 933811
3 1736.38 930610
3 1736.38 926965
3 1736.38 924865
1 1736.65 920358
3 1736.89 902264
1 1742.98 889440
3 1743.2 886664
3 1743.2 884534
3 1743.2 882406
3 1750.04 959369
3 1750.04 951640
3 1750.04 942466
3 1750.04 942023
3 1750.04 920683
3 1750.04 919005
3 1750.04 914099
3 1750.04 908782
3 1750.55 906218
3 1761.58 905731
3 1761.58 904632
3 1761.8 890117
3 1761.8 889666
3 1761.8 887702
3 1762.19 882406
3 1764.12 940640
3 1764.12 939663
3 1764.12 935906
3 1764.12 934762
3 1764.12 906262
3 1764.12 889998
3 1764.12 885039
3 1764.12 873782
3 1764.12 863140
3 1764.52 860926
3 1764.52 859181
3 1764.52 857081
3 1764.52 856401
3 1764.52 853023
3 1764.52 847593
3 1778.13 958576
3 1778.13 953817
3 1778.13 940799
3 1778.13 939296
3 1778.13 931053
3 1778.13 919521
3 1778.48 912932
3 1778.48 912030
1 1785.34 904407
3 1785.53 900187
3 1785.53 896430
3 1785.53 895502
3 1785.75 892172
3 1792.09 916115
3 1792.09 903097
3 1792.09 898191
3 1792.09 897559
3 1792.09 888648
3 1792.39 888419
3 1792.39 887755
3 1792.39 882411
3 1792.59 876849
3 1792.59 876843
3 1792.59 875944
3 1792.59 873844
3 1792.83 867991
3 1792.83 867675
3 1806.11 905437
3 1806.11 897716
3 1806.11 894578
3 1806.11 892473
3 1806.11 892436
3 1806.11 888667
3 1806.11 888215
3 1806.11 887438
3 1806.11 887171
3 1806.6 886466
3 1806.6 882208
3 1806.6 877201
3 1806.6 876194
3 1806.6 873907
3 1806.6 873762
3 1806.6 870510
3 1806.93 867748
3 1806.93 867718
3 1806.93 866984
3 1807.34 865224
3 1807.34 864413
3 1807.55 863314
3 1807.55 859790
3 1820.13 979345
3 1820.13 958788
3 1820.13 950696
3 1820.13 935465
3 1820.13 931708
3 1820.13 921103
3 1820.13 920856
3 1820.13 920191
3 1820.49 917833
3 1820.49 908659
3 1820.49 907985
3 1820.49 902555
3 1820.78 902264
3 1821.14 887675
3 1821.34 886163
3 1821.53 882406
3 1834.03 960432
3 1834.03 952340
3 1834.03 943166
3 1834.03 934323
3 1834.03 924218
3 1834.03 923119
3 1834.03 920028
3 1834.38 914466
1 1836.72 906610
3 1836.92 904360
3 1836.92 903555
3 1836.92 903261
3 1836.92 901704
3 1837.16 900961
3 1837.69 897155
3 1837.69 896055
3 1848.02 943998
3 1848.02 935191
3 1848.02 920831
1 1848.02 900973
3 1848.02 900635
3 1848.02 897346
3 1848.35 897039
3 1848.72 897023
3 1848.72 895188
3 1848.72 892876
3 1848.72 889335
3 1848.98 889034
3 1849.17 887674
3 1862.15 895864
3 1862.15 889370
3 1862.15 887270
3 1862.48 887171
3 1862.48 875351
3 1862.48 862333
3 1862.48 857973
3 1862.75 857427
3 1876.07 928862
3 1876.07 917030
3 1876.07 908980
3 1876.07 904012
3 1876.07 900456
3 1876.07 892637
3 1876.07 880218
3 1876.07 872129
3 1876.89 868323
3 1877.74 866625
3 1877.74 866041
3 1877.74 864137
3 1890.05 896615
3 1890.05 896593
3 1890.05 894291
3 1890.05 890495
3 1890.05 888531
3 1890.05 886680
3 1890.39 878588
3 1890.39 877669
3 1890.39 874415
3 1890.39 872763
3 1892.8 869347
3 1892.8 867247
3 1893.01 865289
3 1893.01 862989
3 1893.38 861832
3 1893.38 861375
3 1893.38 859275
3 1904.01 902591
3 1904.01 892932
3 1904.01 892620
3 1904.01 888415
3 1904.01 888218
3 1904.33 887173
3 1904.53 884658
3 1904.72 881200
3 1905.31 879689
3 1905.67 878644
3 1905.87 876948
3 1905.87 871550
3 1905.87 871296
3 1905.87 868822
3 1905.87 868367
3 1906.17 867689
3 1906.17 867467
3 1918.08 894975
3 1918.08 887795
3 1918.08 872061
3 1918.08 870558
3 1918.08 865908
3 1918.08 865586
3 1918.08 865179
3 1918.08 864057
3 1918.5 861563
3 1918.5 857468
3 1918.5 855764
3 1918.5 851433
3 1918.5 851119
3 1918.8 849444
3 1918.8 847593
3 1932.07 979763
3 1932.07 974771
3 1932.07 968757
3 1932.07 961805
3 1932.07 956705
3 1932.36 956404
3 1932.36 954304
3 1932.36 949233
3 1932.36 948851
3 1932.36 947382
3 1932.82 943625
3 1932.82 930718
3 1932.82 919303
1 1935.18 915363
3 1935.18 914984
3 1935.18 914233
3 1935.56 913782
3 1935.56 909975
3 1935.84 906218
3 1938.81 905731
3 1938.81 890638
3 1938.81 890117
3 1939.4 889116
3 1939.4 888787
1 1939.61 885455
3 1939.81 883908
3 1939.81 883028
3 1940.03 881698
3 1946.09 920119
3 1946.09 907101
3 1946.09 903799
3 1946.09 900042
3 1946.09 899040
3 1946.09 896063
3 1946.09 887110
3 1946.09 885171
3 1946.09 883085
3 1946.09 876932
3 1946.42 873566
3 1946.42 864675
3 1946.42 862800
3 1946.42 861227
3 1946.42 860548
3 1960 923893
3 1960 908159
3 1960 898985
3 1960 895228
3 1960 882704
3 1960 876690
3 1960 873647
3 1960 868679
3 1960.33 868298
3 1960.33 867176
3 1960.33 864057
3 1960.33 860578
3 1960.33 857468
3 1960.33 856320
3 1960.33 854817
3 1960.64 853373
3 1960.64 853235
3 1960.64 851433
3 1960.64 851119
3 1960.86 849475
3 1961.05 847624
3 1961.24 847593
3 1974.12 959870
3 1974.12 950696
3 1974.12 940178
3 1974.12 931033
3 1974.12 928930
3 1974.12 927079
3 1974.12 924865
3 1974.78 921154
3 1974.98 919303
1 1976.68 917956
3 1976.68 908782
3 1976.91 908645
3 1977.11 906218
3 1986.31 905445
3 1986.31 902957
3 1986.31 895505
3 1986.31 890775
3 1986.57 890638
3 1986.93 890618
3 1986.93 888787
3 1988.14 940988
3 1988.14 935492
3 1988.14 935426
3 1988.14 928837
3 1988.14 926937
3 1988.14 922823
1 1995.43 917078
3 1995.63 908986
3 1995.83 908621
3 1995.83 904080
3 2002.16 925321
3 2002.16 915216
3 2002.16 914117
3 2002.16 908103
3 2002.16 883094
3 2002.16 882657
3 2002.16 877397
3 2002.16 876489
3 2002.16 872928
3 2002.53 871806
3 2002.53 870034
3 2016.07 898985
3 2016.07 897482
3 2016.07 890327
3 2016.07 886069
3 2016.07 885186
3 2016.07 876131
3 2016.07 873217
3 2016.07 870276
3 2016.07 861289
3 2016.74 859075
3 2016.74 857019
3 2016.74 856320
3 2017.13 853023
3 2017.33 852913
3 2017.33 852113
3 2017.33 851433
3 2017.33 847593
3 2030.07 926851
3 2030.07 924751
3 2030.07 917218
3 2030.07 909433
3 2030.07 904514
3 2030.07 903964
3 2030.07 892570
3 2030.71 891475
3 2030.9 890320
3 2030.9 887644
3 2031.26 884921
3 2031.26 881624
3 2031.45 878329
3 2031.45 874134
3 2031.67 872062
3 2032.17 868923
3 2032.38 863800
3 2032.38 862075
3 2032.38 857169
3 2032.93 856354
3 2034.35 856343
3 2034.35 854492
3 2034.35 854035
3 2044.04 967431
3 2044.04 965633
3 2044.04 938718
3 2044.04 934961
3 2044.04 933110
3 2044.04 915969
3 2044.04 901130
3 2044.04 880573
3 2044.04 872908
3 2044.04 871057
3 2044.39 870486
3 2044.39 868782
3 2044.39 865548
3 2044.64 865381
3 2044.64 860768
3 2044.64 856850
3 2044.64 856401
3 2044.64 854750
3 2044.64 853904
3 2044.64 850492
3 2045.29 849444
3 2045.29 847593
3 2058.02 950935
3 2058.02 941761
3 2058.02 937769
3 2058.02 937482
3 2058.02 933725
3 2058.02 929754
3 2058.02 917198
3 2058.02 916736
3 2058.37 902886
3 2058.37 901787
3 2058.37 896878
3 2058.59 893892
3 2058.59 892924
3 2062 891123
3 2062 882406
3 2072.05 926477
3 2072.05 924974
3 2072.05 918385
3 2072.05 910854
3 2072.32 906628
3 2072.32 895880
3 2072.32 890206
3 2072.32 888833
3 2072.32 886982
3 2072.32 884882
3 2072.32 884606
3 2072.32 884192
3 2072.66 883568
3 2072.66 881800
3 2072.89 880161
3 2072.89 879700
3 2086.1 939916
3 2086.1 936159
3 2086.1 923086
3 2086.1 920039
3 2086.1 916922
3 2086.1 910154
3 2086.1 906397
3 2086.1 902139
3 2086.51 898268
3 2086.51 892994
3 2086.51 891962
3 2086.51 888053
3 2086.51 884012
3 2086.51 878451
3 2086.51 875679
3 2086.92 873907
3 2087.12 872908
3 2087.12 872808
3 2087.35 869554
3 2087.71 868330
3 2087.71 866079
3 2087.71 865587
3 2087.71 861329
3 2087.99 860183
3 2087.99 859616
3 2087.99 858083
3 2100.19 938829
3 2100.19 930818
3 2100.19 922768
3 2100.19 919111
3 2100.19 918420
3 2100.19 910541
3 2100.19 909464
3 2100.19 906644
3 2100.19 903952
3 2100.19 900195
3 2100.19 892053
3 2100.19 888920
3 2100.77 887795
3 2114.07 930581
3 2114.07 925321
3 2114.07 925031
3 2114.07 915857
3 2114.07 914006
3 2114.07 911863
3 2114.07 907992
3 2114.07 905133
3 2114.07 905114
3 2114.64 901357
3 2114.64 899900
3 2114.64 898703
3 2114.64 893443
3 2115.06 884315
3 2115.06 883487
3 2115.06 881463
3 2115.06 878504
3 2115.06 874514
3 2115.5 873802
3 2115.82 871420
3 2115.82 869929
3 2115.82 869530
3 2125.43 868968
3 2125.43 858842
3 2125.79 857130
3 2125.79 857083
3 2128.04 937692
3 2128.04 928518
3 2128.04 919373
3 2128.04 887727
3 2128.04 880070
3 2128.04 879923
3 2128.04 879197
3 2128.56 878774
3 2128.89 873824
3 2128.89 872575
3 2128.89 866899
3 2128.89 866758
3 2129.3 864237
3 2129.3 863176
3 2142.05 986816
3 2142.05 979087
3 2142.05 970401
3 2142.05 968804
3 2142.05 948417
3 2142.05 946343
3 2142.05 943637
3 2142.42 942085
3 2142.42 938266
1 2142.42 935426
3 2142.42 928837
3 2142.42 922823
1 2142.71 915220
3 2142.71 914272
3 2142.71 912172
3 2142.96 904080
1 2152.85 901977
3 2156.15 921353
3 2156.15 912660
3 2156.15 904568
3 2156.15 903256
3 2156.48 891905
3 2156.48 887647
3 2156.48 884055
3 2156.48 879555
3 2157.01 876390
3 2170.15 953395
3 2170.15 949638
3 2170.15 947589
3 2170.15 942027
3 2170.15 931122
3 2170.15 930214
3 2170.15 917705
3 2170.15 914272
3 2170.15 911691
3 2170.15 908986
3 2170.74 904663
3 2170.74 904080
3 2184.14 915530
3 2184.14 911645
3 2184.14 903553
3 2184.14 899724
3 2184.14 894837
3 2184.14 889879
3 2184.14 869589
3 2184.14 868886
3 2184.14 863703
3 2184.14 862555
3 2184.57 858564
3 2185.58 854261
3 2185.58 854213
3 2185.8 849750
3 2185.8 848655
3 2185.8 847624
3 2186.24 847593
3 2198.09 880863
3 2198.09 878137
3 2198.09 873190
3 2198.09 868886
3 2198.09 868293
3 2198.43 866867
3 2198.43 862415
3 2198.43 862413
3 2198.43 860296
3 2198.71 859531
3 2198.71 856320
3 2198.94 854817
3 2199.14 854213
3 2199.33 853373
3 2199.33 852113
3 2199.56 850077
3 2212.12 885460
3 2212.12 882544
3 2212.12 880492
3 2212.12 861563
3 2212.12 860060
3 2212.12 859712
3 2212.43 859119
3 2212.43 858564
3 2213.32 855955
3 2213.51 853964
3 2213.51 853235
3 2213.51 847593
3 2226.25 923574
3 2226.25 917414
3 2226.25 908240
3 2226.25 900661
3 2226.25 884374
3 2226.25 875463
3 2226.25 872732
3 2226.67 871225
3 2226.67 870834
3 2226.67 870519
3 2226.67 868051
3 2227.04 866967
3 2227.04 862056
3 2227.66 862037
3 2228.26 861262
3 2240.19 981616
3 2240.19 974578
3 2240.19 969016
3 2240.19 963688
3 2240.19 955596
3 2240.19 947250
3 2240.19 930718
3 2240.67 921414
3 2240.67 921403
3 2240.67 919303
1 2241.13 915984
3 2241.13 915363
3 2241.48 914984
3 2241.48 909975
3 2241.48 909778
3 2241.48 907872
1 2241.86 888014
3 2241.86 884620
3 2241.86 882769
3 2243.01 882406
3 2254.27 916744
3 2254.27 916374
3 2254.27 907791
3 2254.27 905940
3 2254.68 904418
3 2254.68 890270
3 2254.68 888684
3 2254.68 885728
3 2254.68 882774
3 2254.68 880861
3 2255.2 877868
3 2255.2 877323
3 2255.87 873566
3 2268.13 966520
3 2268.13 947591
3 2268.13 946357
3 2268.13 944506
3 2268.13 936334
3 2268.13 932076
3 2268.13 931997
3 2268.13 922823
1 2278.63 912172
3 2278.63 910462
3 2278.86 904080
3 2282.08 922210
3 2282.08 906476
3 2282.08 896578
3 2282.08 894261
3 2282.08 892754
3 2282.08 886169
3 2282.08 884522
3 2282.98 883789
3 2282.98 883775
3 2283.2 879471
3 2283.2 875135
3 2283.43 871806
3 2296.16 932150
3 2296.16 918326
3 2296.16 907360
3 2296.16 903179
3 2296.16 902878
3 2296.16 894754
3 2296.16 893056
3 2296.16 887132
3 2296.16 886930
3 2296.54 883756
3 2296.54 882249
3 2296.54 881663
3 2296.54 880579
3 2296.82 876194
3 2296.82 872908
3 2296.82 871405
3 2297.09 869554
3 2297.09 865179
3 2297.31 862411
3 2297.31 861289
3 2297.31 861102
3 2297.31 858467
3 2297.31 857345
3 2297.59 857019
3 2297.59 855789
3 2297.59 853235
3 2297.59 852113
3 2297.84 851119
3 2298.03 850506
3 2298.03 848655
3 2298.23 847593
3 2310.07 936534
3 2310.07 918607
3 2310.07 909981
3 2310.07 908386
3 2310.07 900762
3 2310.07 896898
3 2310.07 896442
3 2310.07 884998
3 2310.47 882312
3 2310.66 881856
3 2310.66 881316
3 2310.88 878329
3 2310.88 877363
3 2310.88 876968
3 2310.88 873105
3 2310.88 872062
3 2311.51 868923
3 2311.51 866823
3 2311.73 865996
3 2311.73 864099
3 2311.73 863841
3 2311.73 859124
3 2311.98 854172
3 2311.98 854035
3 2324.11 917151
3 2324.11 914603
3 2324.11 899306
3 2324.11 890161
3 2324.11 878891
3 2324.11 878335
3 2324.11 874919
3 2324.11 871586
3 2324.11 867906
3 2338.08 936704
3 2338.08 935906
3 2338.08 923397
3 2338.08 902840
3 2338.08 896826
3 2338.08 891437
3 2338.08 890478
3 2338.08 877563
3 2338.41 876711
3 2338.41 872954
3 2338.41 871700
3 2338.41 868794
3 2338.41 864480
3 2338.41 854322
3 2338.72 854020
3 2339.07 852090
3 2352.12 911316
3 2352.12 908732
3 2352.12 904975
3 2352.12 901143
3 2352.12 891470
3 2352.38 883429
3 2352.38 879310
3 2352.38 878640
3 2352.63 875764
3 2352.63 874883
3 2353.51 873763
3 2354.88 867616
3 2366.06 937895
3 2366.06 936669
3 2366.06 927495
3 2366.06 920906
3 2366.06 908850
3 2366.06 905821
3 2366.06 904331
3 2366.06 902064
3 2366.48 891959
3 2380.07 896696
3 2380.07 889031
3 2380.07 882672
3 2380.07 880766
3 2380.07 877638
3 2380.36 874229
3 2380.36 873567
3 2380.36 873167
3 2380.36 865860
3 2380.62 864566
3 2380.99 864009
3 2394.08 911195
3 2394.08 909351
3 2394.08 905868
3 2394.08 903337
3 2394.08 900471
3 2394.08 896752
3 2394.08 886515
3 2394.08 880363
3 2394.08 878850
3 2394.08 875891
3 2394.08 871700
3 2394.46 865280
3 2394.46 863110
3 2394.46 860640
3 2408.02 947355
3 2408.02 946647
3 2408.02 938636
3 2408.02 912478
3 2408.02 902334
3 2408.02 876813
3 2408.02 873079
3 2408.36 868008
3 2408.36 865908
3 2408.36 864057
3 2408.61 860067
3 2408.8 858564
3 2408.8 854261
3 2409.02 852113
3 2409.02 851119
3 2409.4 848655
3 2409.4 847593
3 2422.14 951509
3 2422.14 945527
3 2422.14 941770
3 2422.14 936208
3 2422.44 931453
3 2422.44 926904
3 2422.67 919196
3 2422.67 918436
3 2422.67 914679
3 2422.67 910798
3 2436.16 961023
3 2436.16 952931
3 2436.16 946501
3 2436.16 933368
3 2436.16 932631
3 2436.16 931449
3 2436.16 926617
3 2436.16 923597
3 2436.16 918247
3 2436.16 918167
3 2436.49 908993
1 2437.34 900702
3 2437.34 894829
3 2437.53 891354
3 2437.73 889135
3 2450.01 896617
3 2450.01 895893
3 2450.01 894420
3 2450.01 893321
3 2450.01 871820
3 2450.01 869445
3 2450.01 868063
3 2450.01 864276
3 2450.36 863222
3 2450.36 861371
3 2464.04 929111
3 2464.04 927260
3 2464.04 925757
3 2464.04 918092
3 2464.04 891908
3 2464.34 890693
3 2464.34 887877
3 2464.88 886472
3 2464.88 881657
3 2478.1 992888
3 2478.1 965734
3 2478.1 952716
3 2478.1 950607
3 2478.1 940463
3 2478.1 931289
3 2478.1 903537
3 2478.1 899279
3 2478.1 894102
3 2478.1 893258
3 2478.1 891845
3 2478.66 881140
3 2478.95 879072
3 2478.95 869898
3 2479.27 866141
3 2492.2 921899
3 2492.2 919154
3 2492.2 911425
3 2492.2 908391
3 2492.2 902220
3 2492.2 901730
3 2492.2 899785
3 2492.2 898249
3 2492.2 895278
3 2492.2 893288
3 2492.2 888769
3 2492.2 875535
3 2492.2 868393
3 2492.92 865314
3 2493.21 860408
3 2493.5 859219
3 2506.2 977568
3 2506.2 973811
3 2506.2 970100
3 2506.2 968597
3 2506.2 962008
3 2506.2 960849
3 2506.2 956710
3 2506.2 952756
3 2506.2 943611
3 2506.2 943385
3 2506.2 941551
3 2506.2 939674
3 2506.2 937984
3 2506.2 932082
3 2506.81 928445
3 2506.81 921403
3 2507.14 919303
1 2507.99 909166
3 2508.56 889308
3 2508.56 888924
3 2510.01 888787
1 2514.76 885455
3 2514.76 883908
3 2515.09 881698
3 2520.16 903265
3 2520.16 894667
3 2520.16 894453
3 2520.16 889065
3 2520.16 888653
3 2520.56 886802
3 2520.56 885893
3 2520.56 881971
3 2520.93 877636
3 2520.93 874493
3 2521.28 872642
3 2521.28 869079
3 2534.03 960412
3 2534.03 952747
3 2534.03 951244
1 2534.03 924342
3 2534.03 922404
3 2534.03 913230
3 2534.03 909473
3 2534.03 902884
3 2534.03 900361
3 2534.03 888952
3 2534.9 883484
3 2534.9 883350
3 2535.29 876862
3 2535.29 873105
3 2535.29 872062
3 2535.84 866823
3 2536.2 865996
3 2536.2 858331
3 2536.2 858167
3 2536.58 857792
3 2536.58 857725
3 2536.58 854035
3 2548.17 970640
3 2548.17 970273
3 2548.17 962911
3 2548.17 953872
3 2548.17 944540
3 2548.17 936448
3 2548.17 934179
3 2548.57 931018
3 2548.57 923353
1 2551.84 911643
3 2551.84 903495
3 2562.04 940732
3 2562.04 927714
3 2562.04 919622
3 2562.04 912697
3 2562.04 907282
3 2562.04 906981
3 2562.04 900943
3 2562.04 894354
3 2562.04 892254
3 2562.04 881629
3 2562.04 880234
3 2562.43 879778
3 2562.43 878482
3 2562.43 874225
3 2562.43 872374
3 2563.34 870651
3 2564.36 870396
3 2564.36 869180
3 2564.58 867329
1 2576.12 949908
3 2576.12 933000
3 2576.12 924466
3 2576.12 923099
3 2576.12 922990
3 2576.12 922506
3 2576.12 914841
3 2576.12 914022
1 2576.12 909327
3 2576.12 905868
3 2576.12 886430
3 2576.6 884207
3 2576.6 878827
3 2576.6 875070
3 2576.6 873849
3 2576.6 871167
3 2576.89 863502
3 2576.89 860527
3 2577.12 855990
3 2590.07 931160
3 2590.07 928835
3 2590.07 925505
3 2590.07 911409
3 2590.07 911145
3 2590.07 905498
3 2590.07 903738
3 2590.07 902686
3 2590.07 901201
3 2590.07 891096
3 2590.07 882245
3 2590.07 880394
3 2590.07 873760
3 2590.59 873129
3 2590.79 871238
3 2590.79 866980
3 2591.02 865522
3 2604.06 982990
3 2604.06 979437
3 2604.06 973845
3 2604.06 971188
3 2604.06 958170
3 2604.06 956319
3 2604.4 931997
3 2604.4 922823
1 2604.63 912172
3 2604.63 910462
3 2604.86 904080
1 2609.86 901977
3 2618.17 911910
3 2618.17 898892
3 2618.17 895135
3 2618.17 889121
3 2618.17 887457
3 2618.17 880922
3 2618.17 880221
3 2618.17 875315
3 2618.52 875070
3 2618.52 874813
3 2618.52 873806
3 2618.81 871779
3 2618.81 871218
3 2618.81 871092
3 2618.81 869241
3 2619.16 867738
3 2619.16 867692
3 2619.16 866162
3 2619.16 865746
3 2619.16 861989
3 2619.7 860260
3 2619.7 859158
3 2619.97 857058
3 2620.24 856474
3 2620.24 854570
3 2632.08 932189
3 2632.08 927283
3 2632.08 924377
3 2632.08 923437
3 2632.08 919698
3 2632.08 908718
3 2632.08 893606
3 2632.08 892801
3 2632.08 891837
3 2632.08 889672
3 2632.08 889276
3 2632.08 886539
3 2632.57 885235
3 2632.57 878827
3 2632.57 877506
3 2632.57 870212
3 2632.83 869891
3 2632.83 866149
3 2633.39 866134
3 2633.39 864283
3 2646.07 936438
3 2646.07 926309
1 2646.07 918446
3 2646.07 910245
3 2646.07 909725
3 2646.07 908410
3 2646.07 908291
3 2646.07 899265
3 2646.45 895908
3 2646.45 891846
3 2646.67 889746
3 2646.67 882777
3 2646.67 881513
3 2646.67 879662
3 2646.67 879310
3 2646.97 877210
3 2648.49 877030
3 2648.69 876785
3 2648.89 873603
3 2660.05 945008
3 2660.05 916641
3 2660.05 900907
3 2660.05 888398
3 2660.05 886171
3 2660.05 884668
3 2660.05 882909
3 2660.05 880809
3 2660.05 880281
3 2660.05 876312
3 2660.05 874461
3 2660.54 870651
3 2660.73 867329
3 2674.03 907868
3 2674.03 898694
3 2674.03 894937
3 2674.03 893818
3 2674.03 891304
3 2674.03 886462
3 2674.03 886185
3 2674.03 882428
3 2674.03 882059
3 2674.38 881279
3 2674.58 877522
3 2675.28 872763
3 2676.14 867127
3 2676.34 864281
3 2676.34 860368
3 2676.34 855462
3 2676.57 854109
3 2688.13 907101
3 2688.13 898244
3 2688.13 893986
3 2688.13 886737
3 2688.13 882980
3 2688.13 881084
3 2688.13 879149
3 2688.13 878970
3 2688.55 877563
3 2688.55 877127
3 2688.78 875178
3 2688.78 874804
3 2688.78 873817
3 2689.04 871047
3 2689.04 869730
3 2689.04 869275
3 2689.04 867496
3 2689.34 863907
3 2689.34 861375
3 2689.34 859721
3 2702.11 920476
3 2702.11 902840
3 2702.11 898222
3 2702.11 896487
3 2702.11 895802
3 2702.11 893702
3 2702.11 888525
3 2702.51 882511
3 2702.51 873801
3 2702.79 867846
3 2702.79 864627
3 2702.79 859721
3 2703.69 858828
3 2703.69 855838
3 2703.69 855243
3 2703.96 854996
3 2716.13 911877
3 2716.13 883593
3 2716.13 879879
3 2716.13 875860
3 2716.13 871636
3 2716.39 863907
3 2716.39 863032
3 2716.39 862989
3 2730.13 911242
3 2730.13 893827
3 2730.13 882929
3 2730.13 881600
3 2730.13 874311
3 2730.13 872098
3 2730.13 870374
3 2730.13 868615
3 2730.48 868070
3 2730.48 866219
3 2730.71 863322
3 2730.71 861993
3 2730.71 860942
3 2730.96 860118
3 2730.96 859715
3 2730.96 858842
3 2730.96 857486
3 2744.12 904263
3 2744.12 887399
3 2744.12 876883
3 2744.12 876536
3 2744.12 866710
3 2744.42 864027
3 2744.94 858055
3 2744.94 854725
3 2758.15 887226
3 2758.15 881277
3 2758.15 876662
3 2758.15 872460
3 2758.15 871084
3 2758.15 869645
3 2758.54 868277
3 2758.54 867967
3 2758.54 866116
3 2772.06 889122
3 2772.06 887615
3 2772.06 885825
3 2772.06 882916
3 2772.06 877948
3 2772.4 877019
3 2772.4 870295
3 2772.63 868927
3 2774.82 866116
3 2786.05 939741
3 2786.05 936185
3 2786.05 920176
1 2786.05 919517
3 2786.05 915760
3 2786.05 904373
3 2786.05 898013
3 2786.05 896885
3 2786.05 882716
3 2786.05 881700
3 2786.05 880415
3 2786.05 877981
3 2786.48 877416
3 2786.48 875913
3 2786.48 875022
3 2786.48 869324
3 2786.48 865532
3 2786.76 864317
3 2786.76 861274
3 2787.14 860873
3 2787.82 859640
3 2787.82 856306
Score = 861450
