    Blocking waiting for file lock on package cache
    Blocking waiting for file lock on package cache
    Blocking waiting for file lock on package cache
    Finished release [optimized] target(s) in 0.07s
     Running `target/release/tester ../a.out 0010`
3 2.724 927039
3 2.724 917061
3 2.724 905504
3 2.724 905253
3 2.724 905204
3 2.724 904307
3 3.042 901885
3 3.042 898762
3 3.042 887766
3 14.055 909172
3 14.055 885989
3 14.055 879406
3 14.055 878814
3 14.055 877954
3 14.055 877905
3 14.055 876085
3 14.439 866639
3 14.439 861970
3 14.439 861658
3 14.724 861169
3 14.724 856443
3 14.724 856138
3 15.01 856089
3 28.081 960382
3 28.081 947528
3 28.081 941038
3 28.081 934556
3 28.081 923494
3 28.081 910990
3 28.081 906885
3 28.081 906836
3 28.081 897814
3 28.081 894842
3 28.081 889195
3 28.081 886072
3 28.081 883507
3 28.378 880491
3 28.378 878111
3 28.378 877377
3 28.378 877328
3 42.033 924789
3 42.033 918250
3 42.033 906945
3 42.033 894155
3 42.033 893662
3 42.033 888270
3 42.033 883313
3 42.033 881213
3 42.033 878217
3 42.325 875094
3 42.325 870566
3 42.519 870134
3 42.713 864941
3 42.713 864587
3 42.713 862322
3 42.713 859212
3 42.948 856443
3 42.948 856089
3 56.174 931585
3 56.174 921178
3 56.174 914081
3 56.174 913344
3 56.174 902039
3 56.174 893537
3 56.174 890977
3 56.174 871783
3 56.174 864184
3 56.174 862053
3 56.858 860453
3 57.137 860404
3 57.137 857479
3 57.137 855728
3 57.137 855519
3 57.137 854223
3 57.137 853544
3 58.012 853486
3 62.625 851786
3 62.625 851683
3 62.625 850998
3 62.625 850705
3 62.625 850656
3 70.182 927113
3 70.182 912381
3 70.182 911988
3 70.182 911512
3 70.182 909407
3 70.182 884716
3 70.182 883973
3 70.182 877422
3 70.182 874608
3 70.46 872703
3 70.46 868467
3 70.46 868093
3 70.46 866877
3 70.46 866451
3 70.669 865432
3 70.669 860160
3 70.841 859802
3 84.133 930243
3 84.133 922039
1 84.133 920294
3 84.133 919557
3 84.133 917800
3 84.133 915721
3 84.373 910709
3 84.373 904416
3 84.373 900363
3 84.373 887187
3 84.373 884064
3 84.587 883306
3 84.587 881341
3 84.779 880449
3 84.779 878540
3 84.952 872058
3 84.952 872050
3 84.952 872001
3 98.057 926224
3 98.057 883444
3 98.057 877360
3 98.057 869753
3 98.057 863197
3 98.057 862584
3 98.057 859470
3 98.057 853527
3 98.447 853489
3 98.447 853478
3 98.447 853329
3 98.447 849361
3 98.447 848448
3 98.764 847848
3 98.764 847711
3 112.116 921000
1 112.116 920652
3 112.116 901340
3 112.116 900913
3 112.116 897882
3 112.116 893771
3 112.116 893722
3 112.116 888092
3 112.116 876787
3 112.951 863226
3 112.951 862102
3 113.114 861256
3 113.276 861207
3 126.09 920894
3 126.09 901849
3 126.09 888661
3 126.09 883871
3 126.09 879800
3 126.09 876686
3 126.09 869988
3 126.335 866521
3 126.335 864191
3 126.509 863863
3 126.509 861068
3 126.509 854845
3 126.509 848980
3 126.509 847100
3 140.066 981916
3 140.066 963310
3 140.066 944116
3 140.066 932394
3 140.066 928617
3 140.295 923030
3 140.295 917400
3 140.295 916904
3 147.518 907970
3 147.518 902661
3 147.839 901026
3 147.839 899085
3 147.839 899036
3 151.278 895690
3 151.867 892648
3 152.163 892599
3 153.965 889070
3 154.29 939666
3 154.29 935594
3 154.29 929964
3 154.29 919092
3 154.29 909503
3 154.29 898189
3 154.29 896048
3 154.29 893008
3 154.29 890571
3 154.29 884406
3 154.577 883546
3 154.577 866906
3 154.745 866857
3 154.907 861227
3 168.067 928263
3 168.067 914953
3 168.067 909129
3 168.067 908836
3 168.067 903648
3 168.067 887322
3 168.308 875004
3 168.308 874955
3 168.489 874742
3 168.981 873526
3 168.981 872647
3 168.981 871038
3 182.119 951024
3 182.119 950975
3 182.119 939253
3 182.119 937046
3 182.119 933932
3 182.119 933215
3 182.119 922482
3 182.4 906701
3 182.4 900835
3 182.4 898392
3 182.4 896067
3 182.4 895405
3 182.4 895356
3 182.639 892533
3 182.639 892069
3 182.639 889047
3 182.639 888998
1 184.611 878746
3 184.611 877031
3 189.876 874233
3 189.876 868487
3 190.191 868438
3 190.191 863996
3 196.015 911920
3 196.015 909960
3 196.015 906837
3 196.015 902908
3 196.015 901142
3 196.015 891478
3 196.015 879756
3 196.015 879164
3 196.445 874715
3 196.445 863158
3 196.445 859199
3 196.445 858053
3 196.445 855785
3 196.751 855048
3 196.913 853417
3 196.913 853368
3 196.913 850337
3 210.153 906030
3 210.153 903007
3 210.153 892189
3 210.153 891702
3 210.153 869570
3 210.153 867725
3 210.153 867625
3 210.153 865601
3 210.153 853079
3 210.153 845605
3 210.503 843609
3 210.701 843245
3 224.063 908640
3 224.063 906799
3 224.063 894949
3 224.063 887830
3 224.063 886458
3 224.063 883043
3 224.063 879920
3 224.063 872870
3 224.395 871789
3 224.395 865501
3 224.395 859332
3 224.691 857766
3 224.691 857422
3 224.691 855826
3 224.958 852712
3 238.198 927741
3 238.198 908547
3 238.198 906479
3 238.198 894757
3 238.198 878117
3 238.198 873350
3 238.58 869432
3 238.58 867237
3 238.58 867188
3 238.58 865898
3 252.132 939554
3 252.132 936431
3 252.132 932897
3 252.132 932315
3 252.132 927136
3 252.132 926399
3 252.132 909759
3 252.132 903230
3 252.132 900010
3 252.132 899233
3 252.132 898454
3 252.464 890457
3 252.464 887251
3 252.464 887202
3 253.609 886320
3 253.609 883206
3 253.913 881572
3 266.148 920120
3 266.148 908598
3 266.148 882215
3 266.148 877435
3 266.148 868573
3 266.148 864686
3 266.148 857011
3 266.148 856973
3 266.148 855903
3 266.546 852761
3 266.546 852712
3 280.208 946642
3 280.208 934920
3 280.208 914017
3 280.208 905001
3 280.208 904264
3 280.74 903211
3 280.74 900097
3 280.916 894067
3 280.916 894018
3 280.916 892959
3 282.246 890540
3 294.23 920291
3 294.23 918646
3 294.23 917313
3 294.23 888978
3 294.23 887494
3 294.23 873775
3 294.23 873113
3 294.23 872992
3 294.684 870412
3 294.684 863739
3 294.684 855338
3 294.878 853936
3 294.878 850998
3 295.196 847620
3 295.352 845505
3 295.352 844768
3 308.117 917541
3 308.117 909642
3 308.117 899852
3 308.117 896738
3 308.117 895065
3 308.117 888586
3 308.117 869362
3 308.117 867944
3 308.117 862570
3 308.117 860373
3 308.563 859489
3 308.871 856839
3 308.871 856640
3 308.871 856599
3 309.069 854229
3 309.069 853533
3 309.069 853492
3 322.09 937094
3 322.09 935328
3 322.09 929089
3 322.09 925966
3 322.09 920336
3 322.09 911569
3 322.09 911520
3 322.09 909274
3 322.09 905486
3 322.09 893764
3 322.09 880588
3 322.403 864153
3 322.403 861217
3 322.403 861024
3 322.403 856997
3 322.403 854088
3 322.648 853486
3 324.294 851737
3 324.46 850656
3 336.104 895732
3 336.104 892618
3 336.104 883941
3 336.326 883916
3 336.326 881434
3 336.502 879576
3 336.502 873627
3 336.677 873451
3 350.098 953390
3 350.098 939208
3 350.098 915798
3 350.098 907506
3 350.098 907412
3 350.098 907303
3 350.098 906890
3 350.098 901673
3 350.098 891605
3 350.098 888482
3 350.098 877420
3 350.098 877068
3 350.098 866164
3 350.423 866115
3 350.73 864684
3 364.109 905018
3 364.109 901350
3 364.109 895616
3 364.109 892697
3 364.109 883894
3 364.109 878916
3 364.109 867609
3 364.109 866564
3 364.621 854682
3 371.84 854299
3 378.106 965485
3 378.106 964609
3 378.106 951388
3 378.106 940326
3 378.106 937203
3 378.469 928576
3 378.469 923021
3 378.469 917391
3 378.795 915400
3 379.394 914326
3 379.394 914277
3 392.042 907226
3 392.042 884577
3 392.042 883174
3 392.042 879005
3 392.042 878084
3 392.042 868744
3 392.042 861400
3 392.042 861019
3 392.417 860585
3 392.417 858308
3 392.715 858259
3 392.987 856856
3 392.987 855963
3 406.213 910558
3 406.213 898491
3 406.213 897754
3 406.213 897705
3 406.213 895521
3 406.213 887362
3 406.641 884536
3 406.814 883907
3 406.814 883799
3 408.592 883519
3 408.592 878036
3 408.849 872457
3 409.199 871892
3 420.055 947282
3 420.055 940652
3 420.055 937538
3 420.055 912864
3 420.055 912375
3 420.313 912326
3 420.484 910232
3 420.484 907648
3 420.659 901158
3 420.831 901109
3 434.234 900655
3 434.234 899562
3 434.234 898113
3 434.234 889575
3 434.234 889187
3 434.234 887051
3 434.234 886314
3 434.234 871933
3 434.234 868810
3 434.234 865196
3 435.201 865135
3 448.054 925499
3 448.054 917078
3 448.054 903257
3 448.054 894946
3 448.402 889593
3 448.402 885979
3 448.402 881577
3 448.402 875752
3 448.402 872785
3 448.751 867155
3 448.751 865206
3 448.751 864032
3 450.17 859832
3 450.17 856839
3 451.286 853500
3 451.286 853451
3 451.611 850337
3 462.276 932815
3 462.276 931752
3 462.276 928736
3 462.276 924950
3 462.276 905756
3 462.636 903405
3 462.636 902398
3 462.636 899275
3 464.963 898615
1 470.427 895817
3 470.427 888388
3 470.427 886037
3 470.746 885494
3 471.023 885445
3 471.023 883684
1 472.386 878329
3 472.386 871177
3 472.681 870472
3 472.681 870423
3 472.681 869437
3 472.681 866626
3 472.681 865766
3 473.018 865717
3 476.15 956125
3 476.15 944077
3 476.15 943360
3 476.15 938447
3 476.15 919253
3 476.15 902371
3 476.15 896006
3 476.395 893563
3 476.395 892892
3 476.395 887195
3 476.585 883081
3 476.753 882344
3 476.753 878795
3 476.94 878746
3 476.94 877031
1 479.435 868487
3 479.65 868438
3 479.65 865122
3 480.262 863996
3 490.003 941442
3 490.003 934903
3 490.003 934055
3 490.003 916525
3 490.003 910895
3 490.223 909889
3 490.223 909048
3 490.398 905149
3 490.398 904420
3 490.398 902185
3 490.579 892747
3 490.76 892698
3 498.561 891131
3 498.561 891107
3 498.879 880045
3 498.879 878719
3 498.879 873853
3 498.879 869914
3 498.879 869177
3 499.242 858115
3 504.112 927654
3 504.112 913205
3 504.112 901648
3 504.112 892332
3 504.112 885641
3 504.112 882912
3 504.112 872997
3 504.112 870537
3 504.112 865775
3 504.112 861068
3 504.112 860467
3 504.112 844155
3 518.055 931747
3 518.055 912553
3 518.055 909408
3 518.055 903368
3 518.364 902631
3 520.61 891074
3 520.912 890823
3 521.362 887700
3 532.24 912600
3 532.24 901660
3 532.24 900951
3 532.24 882020
3 532.24 879698
3 532.24 879649
3 532.24 874019
3 532.24 870307
3 532.678 867120
3 532.678 861490
3 533.775 860821
3 534.857 860111
3 535.148 859802
3 546.029 977091
3 546.029 975535
3 546.029 973968
3 546.029 973919
3 546.029 962857
3 546.029 959743
3 546.029 951020
3 546.029 931826
3 546.029 930080
3 546.317 919706
3 546.492 917400
3 546.492 916904
3 553.771 904856
3 554.074 899036
3 554.371 895690
3 554.371 892599
3 554.675 889963
3 554.675 887706
3 554.978 887154
3 560.131 974379
3 560.131 966094
3 560.131 933547
3 560.131 920922
3 560.131 917306
3 560.131 915276
3 560.131 908539
3 560.131 905394
3 560.131 902148
3 560.131 898614
3 560.468 895491
3 560.468 892959
3 560.468 887300
3 560.707 881151
3 560.707 878028
3 574.069 948129
3 574.069 942737
3 574.069 932175
3 574.069 926101
3 574.069 923487
3 574.069 923231
3 574.069 920114
3 574.069 904960
3 574.069 902406
3 574.069 887183
3 574.069 882666
3 574.069 879543
3 574.069 862903
3 574.385 859802
3 574.385 859753
3 588.033 907824
3 588.033 896519
3 588.033 893488
3 588.033 888156
3 588.033 885033
3 588.033 880474
3 588.442 859440
3 588.442 858446
3 588.442 856905
3 588.442 853791
3 588.765 853449
3 588.765 852712
3 602.142 957424
3 602.142 950432
3 602.142 934733
3 602.142 926484
3 602.142 905842
3 602.142 891523
3 602.142 889850
3 602.142 882353
3 602.142 876317
3 602.142 876268
3 602.142 875970
3 602.43 875519
3 602.43 872752
3 602.43 870656
3 616.048 977891
3 616.048 968957
3 616.048 968123
3 616.048 963696
3 616.048 957235
3 616.048 948301
3 616.048 942629
3 616.048 925989
3 616.048 922791
3 616.048 910479
3 616.048 901636
3 616.048 898522
3 616.048 898473
3 616.353 894628
3 616.353 892069
3 616.353 889047
3 616.54 888998
1 618.732 877031
1 623.37 874233
3 623.37 864045
3 623.37 863996
3 630.122 922224
3 630.122 905584
3 630.122 904128
3 630.122 897063
3 630.122 895728
3 630.122 890940
3 630.122 887826
3 630.122 884816
3 630.509 874191
3 630.509 873876
3 630.509 862214
3 630.509 859183
3 630.819 858818
3 630.819 856208
3 630.819 856159
3 631.134 854883
3 631.134 853979
3 644.131 935052
3 644.131 924888
3 644.131 916116
3 644.131 913617
3 644.131 909081
3 644.131 906427
3 644.131 886615
3 644.519 885755
3 644.519 874910
3 644.519 874861
3 644.829 871960
3 644.829 866484
3 644.829 866435
3 645.444 866330
3 648.18 864733
3 648.18 864684
3 658.206 908652
3 658.206 908251
3 658.206 905621
3 658.206 891645
3 658.206 887786
3 658.206 884405
3 658.442 869474
3 658.442 859213
3 658.618 855749
3 658.618 854522
3 658.791 853544
3 659.865 853486
3 661.677 851786
3 661.677 850705
3 661.677 847124
3 661.677 845218
3 661.677 844155
3 672.105 902418
3 672.105 901681
3 672.105 900104
3 672.105 900055
3 672.105 896985
3 672.329 896932
3 672.329 893263
3 672.329 888037
3 672.329 887300
3 672.53 882551
3 673.148 881644
3 673.148 879698
3 673.148 879649
3 673.148 878765
3 673.484 878028
3 686.085 939566
3 686.085 914732
3 686.085 907580
3 686.085 903714
3 686.085 903046
3 686.085 896317
3 686.085 891741
3 686.085 889090
3 686.479 884094
3 686.772 878028
3 700.25 906945
3 700.25 906492
3 700.25 897963
3 700.25 883582
3 700.25 875030
3 700.25 870423
3 700.25 869458
3 700.25 866377
3 700.785 866335
3 700.785 859317
3 700.785 859268
3 714.235 934577
3 714.235 918657
3 714.235 910088
3 714.235 909695
3 714.235 908906
3 714.235 904065
3 714.235 898751
3 714.235 897988
3 714.235 897251
3 714.235 890224
3 714.711 883941
3 714.711 878551
3 714.711 878502
3 714.711 875388
3 728.144 911217
3 728.144 902961
3 728.144 891737
3 728.144 890971
3 728.144 886927
3 728.144 879237
3 728.144 878026
3 728.144 874912
3 728.144 873607
3 728.406 872870
3 728.57 871789
3 728.57 862470
3 728.57 861671
3 728.761 858681
3 728.761 857534
3 728.761 857401
3 728.761 856534
3 728.761 855528
3 728.961 853486
3 729.465 851786
3 729.465 851737
3 729.765 850656
3 730.039 847739
3 730.039 845605
3 730.039 844088
3 730.039 844039
3 730.835 842482
3 742.13 917823
3 742.13 908681
3 742.13 905147
3 742.13 897251
3 742.13 896738
3 742.13 893329
3 742.13 890206
3 742.13 889519
3 742.13 886850
3 742.13 886378
3 742.13 882912
3 742.13 872047
3 742.13 871190
3 742.526 870537
3 742.526 860139
3 742.526 851153
3 742.526 850090
3 742.861 847537
3 756.183 969854
3 756.183 965502
3 756.183 961910
3 756.183 954285
3 756.183 951162
3 756.649 925999
1 761.609 901109
3 770.215 914846
3 770.215 901670
3 770.215 901034
3 770.215 889110
3 770.215 859504
3 770.215 855415
3 770.215 855210
3 770.598 850391
3 770.598 849600
3 770.905 847620
3 771.098 847278
3 771.098 846441
3 771.271 846423
3 771.271 844155
3 784.104 952100
3 784.104 935460
3 784.104 933897
3 784.104 932990
3 784.104 932692
3 784.395 919516
3 785.143 915379
3 785.143 914752
3 785.373 911748
3 785.373 911495
3 785.373 899773
3 785.373 899036
3 788.459 898438
3 788.459 896653
3 788.459 892599
3 788.82 887154
3 798.035 919189
3 798.035 907537
3 798.035 901412
3 798.035 899132
3 798.035 896018
3 798.035 876824
3 798.035 876039
3 798.733 875302
3 798.733 865432
3 799.044 864246
3 799.044 864197
3 799.872 859802
3 812.085 928564
3 812.085 914382
3 812.085 899112
3 812.085 892207
3 812.085 883527
3 812.085 880656
3 812.085 880404
3 812.085 869594
3 812.085 869545
3 812.347 866835
3 812.347 865717
3 826.14 874881
3 826.14 871767
3 826.14 869070
3 826.14 860705
3 826.14 859458
3 826.14 858599
3 826.37 857780
3 826.679 857278
3 826.679 855528
3 826.679 853779
3 826.679 852474
3 826.679 850656
3 840.239 961019
3 840.239 944379
3 840.239 944303
3 840.239 940769
3 840.239 940313
3 840.239 929874
3 840.239 921586
3 840.239 918555
3 840.239 915686
3 840.239 915263
3 840.239 914526
3 840.239 914335
3 840.239 907183
3 840.239 903030
3 840.737 900638
3 841.03 900215
3 842.187 899547
3 843.076 899085
3 843.076 899036
3 844.972 895690
3 844.972 892599
3 845.163 891748
3 845.163 890688
3 845.36 887154
3 854.326 931871
3 854.326 928757
3 854.326 928020
3 854.326 916715
3 854.326 904993
3 854.326 903633
3 854.326 898454
3 854.707 897765
3 854.707 890457
3 854.707 887251
3 855.089 886320
3 855.089 885685
3 855.407 884100
3 855.407 882358
3 855.407 882309
3 855.407 881572
3 868.142 930936
3 868.142 909152
3 868.142 904847
3 868.142 893831
3 868.142 884063
3 868.142 883246
3 868.142 881698
3 868.395 879387
3 868.395 875144
3 868.395 875098
3 868.395 866495
3 868.395 862846
3 868.76 857353
3 868.76 853624
3 868.76 847269
3 868.76 846472
3 868.76 846423
3 868.76 844155
3 882.12 955595
3 882.12 949965
3 882.12 925423
3 882.12 922244
3 882.12 921035
3 882.12 915294
3 882.12 904232
3 882.12 901109
3 896.125 908130
3 896.125 889859
3 896.125 888004
3 896.125 880456
3 896.125 878556
3 896.125 878554
3 896.125 876000
3 896.375 875345
3 896.375 875296
3 896.375 867092
3 896.375 862120
3 910.017 945969
3 910.017 944091
3 910.017 944042
3 910.017 924848
3 910.017 923744
3 910.017 922926
3 910.017 915993
1 910.017 913970
3 910.017 904608
3 910.017 901485
3 910.352 896060
3 910.352 893830
3 910.352 893564
3 910.352 891207
3 910.352 886006
3 910.352 885957
3 910.616 876931
3 910.616 875953
3 910.616 875793
3 910.616 872922
3 910.817 870739
3 910.817 870707
3 910.817 870658
3 924.243 940186
3 924.243 935404
3 924.243 929756
3 924.243 924126
3 924.243 920286
3 924.243 917949
3 924.243 914415
3 924.243 913087
3 924.651 909224
3 924.651 905135
3 938.083 946443
3 938.083 942821
3 938.083 939953
3 938.083 917165
3 938.083 903130
3 938.083 902379
3 938.083 897294
3 938.083 892415
3 938.083 876434
3 938.083 873305
3 938.459 869653
3 938.459 868420
3 938.677 867683
3 939.068 862053
3 952.258 922792
3 952.258 908765
3 952.258 905993
3 952.258 905880
3 952.258 905651
3 952.258 904429
3 952.665 893470
3 952.665 892390
3 952.665 889359
3 952.665 889310
3 953.006 887769
3 966.052 910585
3 966.052 909397
3 966.052 904643
3 966.052 897651
3 966.052 892927
3 966.052 892878
3 966.052 890187
3 966.052 876005
3 966.326 875268
3 966.79 872703
3 966.95 872533
3 967.137 871891
3 967.137 869580
3 967.137 865099
3 967.137 864404
3 967.463 864086
3 967.463 864043
3 967.757 864001
3 967.757 860921
3 980.088 920911
3 980.088 900269
3 980.088 892518
3 980.088 880927
3 980.088 878129
3 980.088 873206
3 980.088 866019
3 980.088 862378
3 980.559 859957
3 980.559 854185
3 980.559 848341
3 980.914 847504
3 981.233 844768
3 994.142 898725
3 994.142 896294
3 994.142 896245
3 994.142 888905
3 994.453 888186
3 994.453 885063
3 994.453 881590
3 994.453 879218
3 994.453 876437
3 994.683 872166
3 994.683 871671
3 994.683 867836
3 995.04 864064
3 995.04 863919
3 995.401 863611
3 995.401 863405
3 995.585 863071
3 995.757 856979
3 995.757 856279
3 996.385 853979
3 1008.16 909002
3 1008.16 901786
3 1008.16 896104
3 1008.16 880636
3 1008.16 875462
3 1008.16 873396
3 1008.16 870797
3 1008.54 864307
3 1008.54 861276
3 1008.54 861227
1 1022.09 1015983
3 1022.09 996171
3 1022.09 976977
3 1022.09 964844
3 1022.09 958354
3 1022.09 958305
1 1023.63 951868
1 1034.9 931752
3 1035.21 921588
3 1035.21 908412
3 1035.21 908358
3 1036.13 903736
3 1036.13 898091
3 1036.13 896455
3 1036.13 891563
3 1036.13 880258
3 1036.49 880227
3 1036.49 880178
3 1036.49 873616
3 1036.49 867721
3 1036.82 864519
3 1036.82 861405
3 1050.06 940499
3 1050.06 936306
3 1050.06 929767
3 1050.06 921751
3 1050.41 914147
3 1050.41 908090
3 1050.41 907353
3 1050.41 904223
3 1050.41 901109
3 1064.01 921881
3 1064.01 898804
3 1064.01 894014
3 1064.01 888384
3 1064.01 887499
3 1064.01 885023
3 1064.41 881865
3 1064.41 873115
3 1064.41 872378
3 1064.41 870087
3 1064.41 859802
3 1078.07 941137
3 1078.07 921943
3 1078.07 915923
3 1078.07 915186
3 1078.07 903464
3 1078.07 902945
3 1078.45 901550
3 1078.45 898829
3 1078.45 897011
3 1078.45 894660
3 1078.45 894273
3 1078.45 890506
3 1078.45 889769
3 1078.45 886170
3 1078.45 884109
3 1078.85 879597
3 1078.85 878860
3 1079.15 871647
3 1092.05 936776
3 1092.05 935209
3 1092.05 935064
3 1092.05 914903
3 1092.05 910746
3 1092.05 907623
3 1092.05 907574
3 1092.05 906134
3 1092.05 899511
3 1092.05 895651
3 1092.05 890552
3 1092.47 890222
3 1092.73 887180
3 1092.73 883453
3 1092.73 879044
3 1093.02 877333
3 1093.02 875800
3 1093.02 875210
3 1093.02 872329
3 1093.02 869580
3 1093.33 867435
3 1093.33 867117
3 1093.33 865102
3 1093.33 864781
3 1093.68 864738
3 1093.68 861658
3 1093.68 861424
3 1093.68 861390
3 1093.96 860936
3 1094.2 860921
3 1106.04 925471
3 1106.04 923904
3 1106.04 903262
3 1106.04 897837
3 1106.04 895654
3 1106.04 890024
3 1106.04 887212
3 1106.04 886998
3 1106.37 886232
3 1106.37 881039
3 1106.37 878682
3 1106.37 877916
3 1106.61 872590
3 1106.61 867051
3 1106.61 862341
3 1106.61 860705
3 1106.86 857582
3 1106.86 854646
3 1106.86 850656
3 1106.86 847595
3 1106.86 847100
3 1120.01 928539
3 1120.01 922798
3 1120.01 911736
3 1120.01 911040
3 1120.01 906076
3 1120.01 887509
3 1120.27 887333
3 1120.27 880870
3 1120.27 879034
3 1120.27 875920
3 1120.27 875901
3 1120.49 867560
3 1120.65 866230
3 1120.65 863370
3 1120.65 861351
3 1120.65 860256
3 1120.84 857905
3 1121.02 856905
3 1121.02 856012
3 1121.36 855963
3 1134.18 899132
3 1134.18 885526
3 1134.18 878490
3 1134.18 871145
3 1134.18 863744
3 1134.18 863144
3 1134.54 859977
3 1134.81 859610
3 1135.67 859242
3 1148.02 969146
3 1148.02 942075
3 1148.02 939868
3 1148.02 930770
3 1148.02 928806
3 1148.02 926381
3 1148.02 912825
3 1148.02 911152
3 1148.02 903554
3 1148.02 898148
3 1148.02 895025
3 1148.46 888893
3 1148.46 885700
3 1148.46 882577
3 1148.46 880904
3 1148.46 866630
3 1148.46 862243
3 1148.9 861976
3 1148.9 861239
3 1148.9 859003
3 1149.24 858954
3 1149.24 853477
3 1149.53 850090
3 1150.33 847537
1 1162.04 971515
3 1162.04 971193
3 1162.04 950551
3 1162.25 950502
3 1162.42 925339
3 1167.21 915400
3 1167.54 914277
3 1176.11 920063
3 1176.11 914798
3 1176.11 909251
3 1176.11 905682
3 1176.11 899553
3 1176.11 888181
3 1176.11 883258
3 1176.11 880761
3 1176.11 879809
3 1176.11 877342
3 1176.11 874219
3 1176.54 869699
3 1176.54 861454
3 1176.54 861405
3 1176.54 859268
3 1190.06 904623
3 1190.06 898993
3 1190.06 890289
3 1190.06 888724
3 1190.06 880301
3 1190.06 875915
3 1190.06 870353
3 1190.06 870304
3 1190.38 866576
3 1190.59 860135
3 1190.59 857313
3 1190.59 854592
3 1191 851192
3 1191 850455
3 1204.01 909299
3 1204.01 900931
3 1204.01 898953
3 1204.01 889123
3 1204.01 887231
3 1204.01 871250
3 1204.01 870237
3 1204.01 867683
3 1204.26 865366
3 1204.26 862053
3 1218.01 896495
3 1218.01 895081
3 1218.01 893514
3 1218.01 881862
3 1218.36 878248
3 1218.36 875134
3 1218.36 870615
3 1218.36 870566
3 1218.36 867837
3 1218.68 862440
3 1218.68 862391
3 1218.68 859587
3 1218.68 859268
3 1232.12 952610
3 1232.12 933145
3 1232.12 921840
3 1232.12 918717
3 1232.12 917980
3 1232.12 914366
3 1232.12 906962
3 1232.12 905289
3 1232.12 898786
3 1232.12 893415
3 1232.12 886423
3 1232.12 885349
3 1232.41 877467
3 1233.71 875944
3 1234.01 874287
3 1234.27 873680
3 1234.27 873473
3 1234.45 871421
3 1234.61 863997
3 1246.21 942821
3 1246.21 933714
3 1246.21 930600
3 1246.21 927883
3 1246.21 925771
3 1246.21 925722
3 1246.21 917518
3 1246.21 906213
3 1246.21 895298
3 1246.21 891832
3 1246.21 872047
3 1246.21 871190
3 1246.21 856366
3 1246.67 855960
3 1246.67 853451
3 1246.67 850337
3 1260.16 874903
3 1260.16 874584
3 1260.16 867944
3 1260.49 865693
3 1260.49 860373
3 1261.06 853883
3 1261.06 850386
3 1261.06 850337
3 1274.24 933725
3 1274.24 928885
3 1274.24 920632
3 1274.24 917518
3 1274.24 916935
3 1274.24 905630
3 1274.24 902507
3 1274.24 897584
3 1274.24 891602
3 1274.24 890560
3 1274.24 887446
3 1274.24 875381
3 1274.24 872314
3 1274.7 871789
3 1274.99 869229
3 1274.99 865824
3 1274.99 854894
3 1275.34 854845
3 1275.34 847100
3 1288.25 881980
3 1288.25 879237
3 1288.25 864494
3 1288.25 863757
3 1288.25 862839
3 1288.6 854845
3 1288.6 849654
3 1288.6 847100
3 1302.15 914480
3 1302.15 889646
3 1302.15 860716
3 1302.15 856958
3 1302.5 849654
3 1302.5 844519
3 1302.79 844155
3 1302.79 842482
3 1316.09 918415
3 1316.09 906693
3 1316.09 904342
3 1316.09 904293
3 1316.32 902752
1 1316.32 899875
3 1316.53 888138
3 1316.53 886476
3 1316.53 885584
3 1316.53 884103
3 1316.53 878473
3 1316.53 870311
3 1316.76 868236
3 1330.27 917226
3 1330.27 879957
3 1330.27 878526
3 1330.27 877221
3 1330.27 876484
3 1330.27 872229
3 1330.66 871981
3 1330.66 865237
3 1330.66 865009
3 1330.66 860705
3 1330.66 858379
3 1330.66 849654
3 1331.01 847278
3 1331.01 845605
3 1331.01 842482
3 1344.06 967753
3 1344.06 955206
3 1344.06 949482
3 1344.06 932842
3 1344.06 932793
3 1344.06 914104
3 1344.06 912981
3 1344.06 912553
3 1344.47 910058
3 1344.47 909897
3 1344.47 906866
1 1344.47 902472
3 1344.47 900163
3 1344.81 897901
3 1344.81 895910
3 1345.12 892859
3 1345.12 877031
3 1349.47 874233
3 1349.79 868438
3 1350.64 865122
3 1351.01 863996
3 1358.01 915035
3 1358.01 889958
3 1358.01 886874
3 1358.01 886081
3 1358.01 873698
3 1358.01 871412
3 1358.29 869710
3 1358.29 864771
3 1358.29 857779
3 1358.29 851153
3 1358.49 848241
3 1358.49 847504
3 1358.49 846441
3 1358.68 844155
3 1372.11 952823
3 1372.11 924573
3 1372.11 923735
3 1372.11 923686
3 1372.11 920563
3 1372.11 913650
3 1372.11 909031
3 1372.11 890252
3 1372.11 887570
3 1372.11 882467
3 1372.11 879607
3 1372.11 868545
3 1372.58 866804
3 1372.58 865237
3 1372.58 862286
3 1372.58 853029
3 1372.58 852469
3 1386.14 955799
3 1386.14 944494
3 1386.14 919741
3 1386.14 911959
3 1386.14 906580
3 1386.14 895518
3 1386.14 893427
3 1386.14 890313
3 1386.14 890264
3 1386.14 889722
3 1386.14 889362
3 1386.46 886691
3 1386.46 883157
3 1386.46 880403
3 1391.46 876515
3 1391.46 873392
3 1391.46 872655
3 1391.46 871868
3 1391.67 871038
3 1400.09 909233
3 1400.09 904485
3 1400.09 901931
3 1400.09 900269
3 1400.09 897715
3 1400.09 885993
3 1400.37 870256
3 1400.37 868304
3 1400.37 867112
3 1400.37 862334
3 1400.58 861454
3 1400.58 859387
3 1400.58 857075
3 1400.58 856773
3 1400.92 851153
3 1401.25 850090
3 1401.59 849988
3 1401.59 849964
3 1401.59 847537
3 1414.01 962589
3 1414.01 952177
3 1414.01 949385
3 1414.01 938323
3 1414.01 929299
3 1414.24 887769
3 1428.07 920180
3 1428.07 919797
3 1428.07 906106
3 1428.07 902227
3 1428.07 888932
3 1428.07 878635
3 1428.07 871278
3 1428.07 863955
3 1428.07 860896
3 1428.07 853979
3 1442.03 978513
3 1442.03 966791
3 1442.03 965851
3 1442.03 963257
3 1442.03 960872
3 1442.03 954382
3 1442.03 953979
3 1442.03 951259
3 1442.03 951210
3 1442.03 944148
3 1442.03 927508
3 1442.29 924227
3 1442.29 918999
3 1442.71 914773
3 1442.71 914036
3 1442.71 911308
3 1442.71 910502
1 1446.06 907704
3 1446.26 900653
3 1446.43 899954
1 1446.43 893517
3 1446.43 891200
3 1446.63 889931
3 1446.63 889134
3 1456.1 929089
3 1456.1 923459
3 1456.1 914733
3 1456.1 903428
3 1456.1 885528
3 1456.1 883094
3 1456.1 879480
3 1456.1 878791
3 1456.1 878742
3 1456.1 876357
3 1456.1 873645
3 1456.37 873336
3 1456.53 864182
3 1456.53 863386
3 1456.53 861684
3 1456.53 861593
3 1457.06 860605
3 1457.06 857765
3 1457.95 857582
3 1458.17 854646
3 1458.17 847620
3 1458.39 847178
3 1458.39 846423
3 1458.39 845505
3 1458.39 844768
3 1470.2 931527
3 1470.2 905142
3 1470.2 902019
3 1470.2 901970
3 1470.2 898856
3 1470.2 895322
3 1470.2 892430
3 1470.2 877051
3 1470.88 860437
3 1470.88 859700
3 1471.72 859507
3 1471.72 859458
3 1472.01 858194
3 1472.33 854660
3 1484.08 911462
3 1484.08 900517
3 1484.08 898558
3 1484.08 895444
3 1484.08 892836
3 1484.08 880707
3 1484.08 878058
3 1484.08 871916
3 1484.08 871421
3 1484.36 869854
3 1484.85 864882
3 1485.18 864699
3 1485.18 860437
3 1485.18 859700
3 1485.18 859507
3 1485.44 857774
3 1485.44 854660
1 1498.06 973104
3 1498.06 961382
3 1498.06 941048
3 1498.06 936942
3 1498.06 936893
3 1498.06 924760
3 1498.06 919130
3 1498.06 918273
3 1498.06 911745
3 1498.49 907162
3 1498.49 904557
3 1498.49 901443
3 1498.83 889310
3 1499.25 889127
3 1499.42 888078
3 1499.42 887401
3 1499.42 884955
3 1499.42 880908
3 1499.62 873619
3 1499.62 870505
3 1512.02 928086
3 1512.02 914776
3 1512.02 910976
3 1512.02 891164
3 1512.02 888405
3 1512.02 886469
3 1512.26 876292
3 1512.26 874820
3 1512.26 869395
3 1512.26 864891
3 1512.65 864733
3 1512.65 864684
3 1526.18 964719
3 1526.18 963034
3 1526.18 949343
3 1526.18 944077
3 1526.18 937441
3 1526.18 929895
3 1526.18 910611
3 1526.18 904019
3 1526.18 892957
3 1526.18 889926
3 1526.18 883436
3 1526.18 873865
3 1526.18 873816
3 1526.64 871665
3 1526.93 871348
3 1526.93 868234
3 1527.49 862113
3 1527.81 857066
3 1527.81 856483
3 1540.05 910988
3 1540.05 906397
3 1540.05 892425
3 1540.05 881120
3 1540.05 866480
3 1540.38 866377
3 1554.01 910268
3 1554.01 892614
3 1554.01 875794
3 1554.01 864648
3 1554.01 863684
3 1554.01 856409
3 1554.28 856390
3 1554.28 852301
3 1554.28 850656
3 1568.27 946409
3 1568.27 939952
3 1568.27 934132
3 1568.27 934083
3 1568.27 928453
3 1568.27 926548
3 1568.71 925339
1 1574.61 922998
3 1574.61 921732
3 1574.61 919471
3 1574.61 913417
3 1574.81 907183
3 1574.81 906564
3 1574.81 904060
3 1574.81 901993
3 1574.81 891748
3 1575.01 887154
3 1582.02 912492
3 1582.02 911722
3 1582.02 908744
3 1582.02 899810
3 1582.02 893540
3 1582.02 886545
3 1582.02 883376
3 1582.02 871427
3 1582.02 865797
3 1582.02 855816
3 1582.44 854735
3 1583.27 853299
3 1583.55 853228
3 1583.55 851606
3 1596.17 907459
3 1596.17 901070
3 1596.17 900722
3 1596.17 899985
3 1596.17 894355
3 1596.17 871758
3 1596.17 868644
3 1596.57 868173
3 1596.57 867146
3 1596.57 864737
3 1596.57 864000
3 1596.57 858547
3 1596.57 854113
3 1596.57 853936
3 1596.82 853802
3 1596.82 852469
3 1597.43 852292
3 1597.6 849346
3 1610.15 891668
3 1610.15 889812
3 1610.15 889023
3 1610.15 880853
3 1610.15 873585
3 1610.15 867955
3 1610.53 861015
3 1624.24 910667
3 1624.24 907133
3 1624.24 906396
3 1624.24 897555
3 1624.24 887202
3 1625.21 881572
3 1638.13 917316
3 1638.13 905417
3 1638.13 904643
3 1638.13 903625
3 1638.13 901529
3 1638.13 886786
3 1638.13 875871
3 1638.13 874676
3 1638.13 873071
3 1638.13 872682
3 1638.13 869537
3 1638.41 865664
3 1638.41 855960
3 1638.41 853500
3 1638.41 850386
3 1638.61 850337
3 1652.14 928540
3 1652.14 912834
3 1652.14 909711
3 1652.14 899586
3 1652.14 895212
3 1652.14 888524
3 1652.14 886958
1 1652.5 884137
3 1652.5 883828
3 1652.5 881023
3 1652.5 872271
3 1652.5 870563
3 1652.5 868449
3 1652.5 867712
3 1652.5 867015
3 1652.87 864774
3 1652.87 862097
3 1666.21 926007
3 1666.21 911387
3 1666.21 906813
3 1666.21 900771
3 1666.21 892518
3 1666.21 890932
3 1666.21 887595
3 1666.21 879234
3 1666.21 876290
3 1666.21 876241
3 1666.21 874113
3 1666.21 873127
3 1666.21 871499
3 1666.21 870762
3 1666.21 869570
3 1666.64 869491
3 1666.64 866377
3 1666.98 865693
3 1666.98 862570
3 1666.98 859489
3 1666.98 856839
3 1667.45 853492
3 1680.06 933884
3 1680.06 922162
3 1680.06 919048
3 1680.06 898406
3 1680.06 892157
3 1680.06 890484
3 1680.06 888569
3 1680.06 886831
3 1680.06 874001
3 1680.06 867944
3 1680.75 860771
3 1680.75 858153
3 1680.75 858104
3 1680.75 853779
3 1680.75 852474
3 1680.75 850656
3 1694.09 877875
3 1694.09 877692
3 1694.09 876120
3 1694.09 876096
3 1694.09 872710
3 1694.48 867144
3 1694.48 865375
3 1694.48 864113
3 1695.31 858599
3 1695.48 857658
3 1695.48 857528
3 1695.48 855749
3 1695.48 853544
3 1695.48 851737
3 1695.68 850656
3 1695.68 849703
3 1695.68 847739
3 1695.86 845605
3 1695.86 842846
3 1695.86 842482
3 1708.16 920198
3 1708.16 909162
3 1708.16 888520
3 1708.16 886782
3 1708.43 867944
3 1708.43 862920
3 1708.43 858369
3 1708.66 858361
3 1708.66 855338
3 1719.05 850391
3 1719.24 849157
3 1719.24 847838
3 1719.41 847595
3 1719.41 847100
3 1722.11 913612
3 1722.11 907428
3 1722.11 896034
3 1722.11 895468
3 1722.11 891741
3 1722.11 875302
3 1722.11 872223
3 1722.43 871588
3 1722.43 869672
3 1727.55 860821
3 1728.02 860111
3 1728.02 859802
3 1736.03 962780
3 1736.03 959051
3 1736.03 955517
3 1736.03 913987
3 1736.03 910873
3 1736.03 896416
3 1736.03 892274
3 1736.03 891537
3 1736.03 885354
3 1736.03 881516
3 1736.48 877421
3 1736.48 873681
3 1736.48 871778
3 1741.56 868891
3 1741.56 866718
3 1741.56 865310
3 1741.56 862554
3 1741.56 862505
3 1750.16 920686
3 1750.16 917572
3 1750.16 907458
3 1750.16 898893
3 1750.16 896840
3 1750.16 892988
3 1750.16 892084
3 1750.4 887116
3 1750.4 886379
3 1750.4 877943
3 1750.4 872533
3 1750.6 869810
3 1750.6 869761
3 1750.93 868586
3 1751.09 868580
3 1751.09 858053
3 1751.09 855048
3 1751.42 853834
3 1751.75 850337
3 1764.09 928504
3 1764.09 927859
3 1764.09 924828
3 1764.09 913106
3 1764.09 897774
3 1764.09 893863
3 1764.45 893410
3 1764.45 884454
3 1764.45 883757
3 1764.45 883708
3 1764.45 878078
3 1764.8 874955
3 1765.64 874742
3 1765.64 873484
3 1765.64 870412
3 1765.97 869533
3 1765.97 867289
3 1778.02 918011
3 1778.02 911278
3 1778.02 899556
3 1778.02 897131
3 1778.02 889029
3 1778.02 885906
3 1778.02 885418
3 1778.41 884827
3 1778.41 883575
3 1778.71 880461
3 1778.71 878788
3 1780.72 878740
3 1780.72 878691
3 1781.3 873885
3 1781.3 873127
3 1781.7 870762
3 1781.7 870207
3 1781.7 862370
3 1781.89 859504
3 1781.89 857868
3 1781.89 853779
3 1781.89 847278
3 1782.22 846146
3 1782.53 845855
3 1782.53 844155
3 1782.85 844088
3 1782.85 842846
3 1782.85 842482
3 1792 941640
3 1792 938517
3 1792 937048
3 1792 928114
3 1792 916119
3 1792 896903
3 1792 886629
3 1792 885892
3 1792 880263
3 1792 868541
3 1792.28 857479
3 1806.12 938853
3 1806.12 922977
3 1806.12 915650
3 1806.12 913346
3 1806.12 912609
3 1806.12 911119
3 1806.12 909345
3 1806.12 905859
3 1806.47 902631
3 1806.96 891074
3 1806.96 890823
3 1806.96 888050
3 1820.03 913497
3 1820.03 910374
3 1820.03 901537
3 1820.03 898348
3 1820.03 890232
3 1820.03 888644
3 1820.35 876511
3 1820.35 876462
3 1820.53 871910
3 1820.69 871038
3 1834.3 925013
3 1834.3 910632
3 1834.3 907509
3 1834.3 896447
3 1834.3 895752
3 1834.3 890817
3 1834.3 879512
3 1834.3 878775
3 1834.3 873665
3 1834.83 873586
3 1834.83 871058
3 1834.83 867944
3 1835.89 860122
3 1836.22 859347
3 1836.22 857290
3 1836.22 855669
3 1836.22 853936
3 1836.54 847268
3 1837.83 847100
3 1848.13 922064
3 1848.13 919787
3 1848.13 917755
3 1848.13 917233
3 1848.13 913880
3 1848.13 902158
3 1848.13 900633
3 1848.13 897835
3 1848.13 886530
3 1848.13 885518
3 1848.13 871827
3 1848.57 871778
3 1848.57 871531
3 1848.87 868408
3 1849.49 865958
3 1862.03 922204
3 1862.03 914000
3 1862.03 900309
3 1862.03 891649
3 1862.03 885889
3 1862.03 884178
3 1862.03 883094
3 1862.03 881593
3 1862.03 870637
3 1862.03 868541
3 1862.03 868492
3 1862.29 862029
3 1862.29 860140
3 1862.29 857011
3 1862.29 855338
3 1865.04 854689
3 1865.25 852663
3 1865.46 850990
3 1876.16 886345
3 1876.16 882811
3 1876.16 878169
3 1876.16 875765
3 1876.16 873039
3 1876.16 868685
3 1876.16 868636
3 1876.54 868074
3 1890.16 946588
3 1890.16 920203
3 1890.16 914191
3 1890.16 913454
3 1890.16 899318
3 1890.16 895811
3 1890.16 895260
3 1890.16 894523
3 1890.58 888058
3 1890.58 888009
3 1891.18 886018
3 1891.18 885212
3 1891.49 882089
3 1891.49 881352
3 1904.14 942536
3 1904.14 935375
3 1904.14 934310
3 1904.14 927771
3 1904.14 925722
3 1904.14 912546
3 1904.14 901241
3 1904.14 882047
3 1904.14 875731
3 1904.43 870637
3 1904.43 860762
3 1904.43 858915
3 1905.36 857909
3 1905.36 855896
3 1918.27 904432
3 1918.27 893033
3 1918.27 890697
3 1918.27 887749
3 1918.27 887700
3 1918.27 876445
3 1918.62 868368
3 1918.62 866857
3 1918.62 865383
3 1918.94 862903
3 1919.78 859802
3 1919.78 859753
3 1932.02 929089
3 1932.02 920840
3 1932.02 915210
3 1932.02 904266
3 1932.02 903905
3 1932.02 903289
3 1932.02 891248
3 1932.02 889044
3 1932.02 888134
3 1932.02 885580
3 1932.48 872137
3 1932.48 864085
3 1932.48 861054
3 1932.48 859498
3 1933 856375
3 1933 854883
3 1933.31 853979
3 1946.08 948609
3 1946.08 929415
3 1946.08 923886
3 1946.08 917396
3 1946.08 916526
3 1946.08 916346
3 1946.08 913304
3 1946.08 910190
3 1946.37 910141
3 1946.37 898419
3 1946.57 893659
3 1959.99 890450
3 1960.17 913066
3 1960.17 900599
3 1960.17 888867
3 1960.17 888818
3 1960.17 887201
3 1960.17 885787
3 1960.17 883180
3 1960.17 882705
3 1960.17 878224
3 1960.42 877555
3 1960.42 874242
3 1960.42 868947
3 1960.62 868798
3 1960.62 868752
3 1960.62 867210
3 1960.62 865667
3 1960.62 862748
3 1960.93 862553
3 1960.93 862550
3 1974.02 961634
3 1974.02 959880
3 1974.02 932159
3 1974.02 920437
3 1974.02 899416
3 1974.02 892877
3 1974.55 885766
3 1974.71 882309
3 1974.71 881572
3 1977.98 878774
3 1978.28 876004
3 1978.28 872881
3 1982.12 872541
3 1988.25 925285
3 1988.25 919482
3 1988.25 918705
3 1988.25 911685
3 1988.25 911542
3 1988.25 906572
3 1988.25 903774
3 1988.25 895392
3 1988.25 880423
3 1988.25 859781
3 1988.25 856658
3 1988.25 855150
3 1988.25 855101
3 1988.71 853544
3 1989 850705
3 1989 842846
3 1989 842800
3 1989 842482
3 2002.12 899412
3 2002.12 894085
3 2002.12 890971
3 2002.12 879666
3 2002.12 870474
3 2002.12 867867
3 2002.37 859771
3 2002.37 859722
3 2002.37 859347
3 2002.57 859332
3 2002.57 857815
3 2002.57 857766
3 2002.75 857422
3 2002.92 855749
3 2003.23 855415
3 2003.4 852301
3 2003.56 850656
3 2016.12 921685
3 2016.12 909963
3 2016.12 909640
3 2016.12 906517
3 2016.12 904430
3 2016.12 898901
3 2016.12 895367
3 2016.12 895044
3 2016.51 894179
3 2016.51 894130
3 2016.51 893983
3 2016.51 890449
3 2016.51 887981
3 2016.86 876131
3 2016.86 875186
3 2016.86 872720
3 2016.86 869749
3 2017.28 868891
3 2017.47 865758
3 2017.47 864167
3 2017.47 862505
3 2030.05 928910
3 2030.05 927306
3 2030.05 924275
3 2030.05 923425
3 2030.05 911875
3 2030.05 910164
3 2030.05 908777
3 2030.05 903682
3 2030.05 901497
3 2030.05 898450
3 2030.05 897460
3 2030.05 894283
3 2030.05 890970
3 2030.05 890921
3 2030.42 889010
3 2030.42 881748
3 2030.42 879675
3 2030.42 878577
3 2030.42 875068
3 2030.42 874208
3 2030.72 873442
3 2030.72 868797
3 2030.72 868748
3 2030.72 868528
3 2030.72 865717
3 2044.06 927155
3 2044.06 924041
3 2044.06 921010
3 2044.06 908342
3 2044.06 894599
3 2044.06 881376
3 2044.06 875595
3 2044.29 874315
3 2044.29 872472
3 2058.19 979496
3 2058.19 974906
3 2058.19 971589
3 2058.19 971540
3 2058.19 930010
3 2058.19 926476
3 2058.19 920937
3 2058.19 914754
3 2072.14 889446
3 2072.14 868703
3 2072.14 865372
3 2072.14 861217
3 2072.14 855875
3 2072.14 854311
3 2072.44 853486
3 2073.65 851786
3 2073.81 850705
3 2073.81 850656
3 2086.11 934320
3 2086.11 925105
3 2086.11 912569
3 2086.11 912520
3 2086.11 912305
3 2086.11 910462
3 2086.11 909191
3 2086.11 904388
3 2086.36 894140
3 2086.36 892028
3 2086.36 891723
3 2086.36 888559
3 2086.36 888510
3 2086.57 880500
3 2086.73 876480
3 2086.73 871297
3 2086.73 870891
3 2100.11 947742
3 2100.11 935572
3 2100.11 907775
3 2100.11 879542
3 2100.11 869522
3 2100.11 868813
3 2100.11 868076
3 2100.11 867771
3 2100.11 867740
3 2100.36 864626
3 2100.36 863059
3 2100.9 861927
3 2101.49 859718
3 2101.49 859504
3 2101.49 859299
3 2101.49 857868
3 2101.49 857695
3 2101.49 856958
3 2101.49 855875
3 2101.86 855826
3 2101.86 855285
3 2102.08 853486
3 2105.61 845218
3 2105.61 844155
3 2114.13 925195
3 2114.13 922641
3 2114.13 906887
3 2114.13 900288
3 2114.13 890247
3 2114.13 878199
3 2114.13 877786
3 2114.38 877131
3 2114.38 863955
3 2114.38 857038
3 2114.57 855456
3 2114.57 854972
3 2114.57 853979
3 2128.16 932990
3 2128.16 922982
3 2128.16 915363
3 2128.16 914626
3 2128.16 913417
3 2128.16 909640
3 2128.16 899080
3 2128.16 899036
3 2129.42 896064
3 2129.62 893266
3 2129.79 892892
3 2129.96 890275
3 2129.96 889239
3 2130.14 889190
3 2130.14 887449
3 2130.14 883058
3 2130.34 883009
3 2142.01 942669
3 2142.01 941932
3 2142.01 939902
3 2142.01 923661
3 2142.01 920547
3 2142.01 914158
3 2142.01 910624
3 2142.01 909185
3 2142.01 898123
3 2142.01 892536
3 2142.01 884578
3 2142.28 875674
3 2142.28 872611
3 2142.28 871402
3 2142.47 867417
3 2142.47 865512
3 2156.04 953478
3 2156.04 953429
3 2156.04 934235
3 2156.04 931204
3 2156.04 889674
3 2156.26 884605
3 2156.45 884532
3 2156.45 881482
3 2156.45 881418
3 2170.09 917900
3 2170.09 900186
3 2170.09 900032
3 2170.09 890474
3 2170.09 885269
3 2170.09 885220
3 2170.09 882827
3 2170.09 881784
3 2170.09 879713
3 2170.09 876902
3 2170.09 876853
3 2170.52 870087
3 2170.52 869136
3 2170.52 867209
3 2170.83 855048
3 2171.11 854863
3 2171.11 854814
3 2184.01 953904
3 2184.01 953167
3 2184.01 952561
3 2184.01 951498
3 2184.01 945666
3 2184.01 943761
3 2184.01 922740
3 2184.01 916453
3 2184.01 907801
3 2184.01 900010
3 2184.4 896828
3 2184.4 896195
3 2184.7 894826
3 2184.7 884473
1 2189.59 881675
3 2189.59 878565
3 2189.59 875442
3 2189.78 875020
3 2189.78 873278
3 2189.94 872881
3 2198.12 914637
3 2198.12 906537
3 2198.12 898649
3 2198.12 891857
3 2198.12 888743
3 2198.12 883121
3 2198.12 881390
3 2198.12 879100
3 2198.12 867218
3 2198.52 864894
3 2198.82 863025
3 2199.12 862288
3 2199.12 861015
3 2212.08 925251
3 2212.08 921322
3 2212.08 903570
3 2212.08 883847
3 2212.51 883664
3 2212.51 879710
3 2212.51 879661
3 2212.51 878771
3 2212.51 878034
3 2212.51 872138
3 2212.51 866285
3 2212.98 863250
3 2212.98 861038
3 2212.98 860989
3 2212.98 860136
3 2213.37 857872
3 2213.37 857229
3 2213.37 853498
3 2213.37 853449
3 2213.57 852712
3 2226.23 907541
3 2226.23 891665
3 2226.23 889957
3 2226.23 880818
3 2226.23 876232
3 2226.23 867153
3 2226.23 860485
3 2226.6 857764
3 2226.6 850955
3 2226.89 849795
3 2226.89 849515
3 2226.89 849423
3 2226.89 849122
3 2227.21 849073
3 2240.06 921180
3 2240.06 912927
3 2240.06 908148
3 2240.06 899627
3 2240.06 897984
3 2240.06 892354
3 2240.06 887905
3 2240.44 882801
3 2240.44 874214
3 2240.44 862326
3 2240.79 862243
3 2240.79 859259
3 2240.79 857586
3 2240.79 847620
3 2240.79 846472
3 2240.79 844155
3 2254.04 1003761
3 2254.04 988911
3 2254.04 962526
3 2254.04 958992
3 2254.04 956438
3 2254.04 944716
3 2254.04 935385
3 2254.04 918745
3 2254.04 918696
3 2254.04 906739
3 2254.04 905925
3 2254.04 901012
3 2254.04 900963
3 2254.04 895100
3 2254.35 893847
3 2254.35 892069
3 2254.69 889047
3 2254.69 888998
1 2255 877031
1 2255.72 874233
3 2256.09 868487
3 2256.09 868438
3 2257.37 865122
3 2257.37 863996
3 2268.11 894562
3 2268.11 891439
3 2268.11 876412
3 2268.11 873344
3 2268.11 873266
3 2268.11 870901
3 2268.11 870852
3 2268.11 868651
3 2268.35 867890
3 2268.35 866784
3 2268.52 863670
3 2268.68 860953
3 2268.68 857922
3 2268.84 856475
3 2269.02 855412
3 2282.23 962151
3 2282.23 945511
3 2282.23 935313
3 2282.23 926038
3 2282.23 925989
3 2282.23 909539
3 2282.59 907495
3 2282.59 906425
3 2282.59 894628
1 2282.59 892825
3 2282.89 890217
3 2282.89 886103
3 2283.07 884896
3 2283.07 884847
3 2283.24 883032
3 2283.24 878520
3 2283.24 878471
3 2283.43 877031
3 2285.76 873822
3 2286.24 868487
3 2286.24 868438
3 2286.24 865122
3 2286.43 863996
3 2296.05 925054
3 2296.05 924276
3 2296.05 909895
3 2296.05 909292
3 2296.05 906178
3 2296.05 893107
3 2296.05 888569
3 2296.05 888310
3 2296.37 885230
3 2296.37 878691
3 2296.91 871929
3 2297.08 868806
3 2297.08 867112
3 2297.08 865824
3 2297.4 865775
3 2297.4 864519
3 2297.4 862701
3 2297.72 862391
3 2297.72 860125
3 2297.72 859268
3 2310.14 929042
3 2310.14 923412
3 2310.14 907780
3 2310.14 888586
3 2310.14 888511
3 2310.14 878038
3 2310.14 871137
3 2310.14 871058
3 2310.14 867944
3 2310.14 861113
3 2310.57 859440
3 2310.57 858446
3 2310.57 857367
3 2310.57 854253
3 2310.57 853477
3 2310.57 852301
3 2310.95 850656
3 2324.13 933397
3 2324.13 932660
3 2324.13 927522
3 2324.47 908328
3 2324.47 908291
3 2324.47 902661
3 2324.47 901460
3 2324.47 899547
3 2324.81 898438
3 2325.13 895492
3 2325.13 895443
3 2325.13 894396
3 2325.13 890688
3 2325.13 889963
3 2325.46 887154
3 2338.02 937007
3 2338.02 930015
3 2338.02 921322
3 2338.02 916272
3 2338.02 909859
3 2338.02 909606
3 2338.02 904795
3 2338.02 897577
3 2338.02 896840
3 2338.02 893482
3 2338.02 890542
3 2338.02 890493
3 2338.02 888798
3 2338.5 887212
3 2338.5 880640
3 2338.5 879411
3 2338.5 874891
3 2338.5 872093
3 2338.5 869064
3 2338.5 869015
3 2338.88 865984
3 2338.88 863518
3 2338.88 863259
3 2339.2 862042
3 2339.2 861954
3 2339.2 854874
3 2339.2 854825
3 2339.2 854088
3 2339.55 853486
3 2347.03 845218
3 2347.03 844155
3 2352.11 996542
3 2352.11 983566
3 2352.11 966926
3 2352.11 953750
3 2352.11 936868
3 2352.11 934167
3 2352.11 931975
3 2352.11 931238
3 2352.11 919516
3 2352.52 919038
3 2352.52 917834
3 2352.83 916071
3 2352.83 903794
3 2352.83 899773
3 2352.83 899036
3 2358.93 898802
3 2358.93 893336
3 2358.93 892599
3 2359.32 890688
3 2359.32 887154
3 2366.1 938476
3 2366.1 932792
3 2366.1 931493
3 2366.1 924213
3 2366.1 918788
3 2366.1 909664
3 2366.1 897987
3 2366.1 891420
3 2366.1 887026
3 2366.1 883903
3 2366.45 879698
3 2366.65 878983
3 2366.65 878732
3 2366.65 875609
3 2367.17 873203
3 2367.17 873154
3 2367.47 872598
3 2367.47 869484
3 2380.14 913749
3 2380.14 909620
3 2380.14 905227
3 2380.14 888978
3 2380.14 884766
3 2380.14 880393
3 2380.14 870385
3 2380.6 869389
3 2380.6 860042
3 2380.6 859332
3 2380.6 859098
3 2380.6 858361
3 2380.95 855338
3 2383.78 853936
3 2383.78 853828
3 2384.12 852991
3 2384.12 852942
3 2384.12 852663
3 2384.12 850990
3 2394.15 890688
3 2394.15 887098
3 2394.15 885936
3 2394.15 881637
3 2394.15 878514
3 2394.15 874139
3 2394.53 872472
3 2394.53 871983
3 2394.53 870584
3 2394.53 870535
3 2394.53 864548
3 2394.53 861517
3 2395.14 857972
3 2395.14 857540
3 2395.33 857235
3 2408.14 948500
3 2408.14 947210
3 2408.14 941580
3 2408.14 938466
3 2408.14 910669
3 2408.14 907707
3 2408.14 907658
3 2408.14 899697
3 2408.14 896542
3 2408.54 896402
3 2408.72 896353
3 2408.72 892819
3 2409.08 883519
3 2409.08 879077
3 2409.08 878572
3 2409.08 877031
1 2418.45 868438
3 2418.45 865122
3 2418.64 863996
3 2422.08 937897
3 2422.08 917998
3 2422.08 914884
3 2422.08 900780
3 2422.08 895684
3 2422.08 893769
3 2422.08 890738
3 2422.08 883368
3 2422.08 881777
3 2422.48 880169
3 2422.48 879700
3 2422.78 878963
3 2422.78 871800
3 2422.78 871478
3 2422.78 871429
3 2436.03 925525
3 2436.03 918156
3 2436.03 886948
3 2436.03 881318
3 2436.03 876403
3 2436.03 874052
3 2436.39 870947
3 2436.7 870938
3 2436.7 867545
3 2450.18 937264
3 2450.18 937013
3 2450.18 929138
3 2450.18 915962
3 2450.18 914133
3 2450.18 913241
3 2450.55 910225
3 2450.55 900651
3 2450.55 889614
3 2450.55 885815
3 2450.9 884473
3 2452.19 882309
3 2452.19 881572
3 2464.17 913067
3 2464.17 912375
3 2464.17 905190
3 2464.17 892014
3 2464.17 880709
3 2464.17 876686
3 2464.17 874219
3 2464.57 874170
3 2464.57 871076
3 2464.57 869650
3 2465.09 866521
3 2465.09 862102
3 2465.09 859268
3 2478.12 933305
3 2478.12 926668
3 2478.12 925306
3 2478.12 920641
3 2478.12 916493
3 2478.12 903317
3 2478.12 901833
3 2478.12 899279
3 2478.12 898022
3 2478.12 895133
3 2478.12 884566
3 2478.44 884424
3 2492.15 938247
3 2492.15 936756
3 2492.15 932866
3 2492.15 924790
3 2492.15 924053
3 2492.15 921561
3 2492.15 908251
3 2492.15 891872
3 2492.15 889980
3 2492.87 881317
3 2492.87 875687
3 2492.87 874950
3 2494.61 871892
3 2506.18 940260
3 2506.18 919926
3 2506.18 913895
3 2506.18 913846
3 2506.18 901779
3 2506.18 891372
3 2506.57 890057
3 2506.85 888413
3 2506.85 883799
3 2507.15 882287
3 2507.15 879278
3 2507.46 873405
3 2518 872520
3 2520.04 926139
3 2520.04 922445
3 2520.04 911011
3 2520.04 899296
3 2520.04 898293
3 2520.04 896945
3 2520.04 896445
3 2520.04 886281
3 2520.04 886232
3 2520.04 884153
3 2520.51 882780
3 2520.51 880432
3 2520.51 879666
3 2520.51 873781
3 2520.51 872733
3 2520.51 869610
3 2520.51 862378
3 2520.88 855285
3 2521.98 853486
3 2525.9 851786
3 2525.9 850705
3 2525.9 850656
3 2525.9 844519
3 2525.9 842846
3 2526.24 842800
3 2526.24 842482
3 2534.03 889524
3 2534.03 886211
3 2534.03 878034
3 2534.03 875246
3 2534.03 873301
3 2534.03 864135
3 2534.03 859504
3 2534.26 857868
3 2534.26 847278
3 2534.44 846219
3 2534.44 846146
3 2534.75 845605
3 2534.93 842846
3 2534.93 842800
3 2535.11 842482
3 2548.14 903669
3 2548.14 893525
3 2548.14 890133
3 2548.35 887122
3 2548.35 883999
3 2548.35 878048
3 2548.35 872704
3 2548.35 869753
3 2548.35 869673
3 2548.35 866480
3 2548.35 862391
3 2548.35 861405
3 2548.35 859268
3 2562.03 919869
3 2562.03 913869
3 2562.03 903888
3 2562.03 901357
3 2562.03 895694
3 2562.03 894021
3 2562.03 884320
3 2562.03 882926
3 2562.29 869666
3 2562.29 866244
3 2562.29 864141
3 2562.29 859943
3 2562.29 856658
3 2562.29 853544
3 2563.38 853486
3 2570.72 844155
3 2576.08 922199
3 2576.08 919085
3 2576.08 915932
3 2576.08 912350
3 2576.08 901643
3 2576.08 896932
3 2576.08 893396
1 2576.08 890598
3 2576.08 890358
3 2576.8 887567
3 2577.09 887061
3 2577.09 887054
3 2577.42 886000
3 2577.42 883043
3 2577.42 882306
3 2577.42 880633
3 2577.42 880471
3 2577.77 877357
3 2577.77 875003
3 2577.77 873816
3 2578.08 873139
3 2578.08 872673
3 2590.15 903226
3 2590.15 891921
3 2590.15 888901
3 2590.15 887163
3 2590.15 886820
3 2590.4 884306
3 2590.4 878248
3 2590.4 875519
3 2590.4 867837
3 2590.61 863757
3 2590.77 862078
3 2590.77 858964
3 2590.94 858636
3 2604.01 915413
3 2604.01 903691
3 2604.01 893932
3 2604.01 891411
3 2604.01 889405
3 2604.01 878909
3 2604.01 877448
3 2604.01 875831
3 2604.42 871530
3 2604.42 870399
3 2604.75 864769
3 2604.75 864032
3 2605.32 862440
3 2605.61 859832
3 2605.61 859095
3 2605.61 857847
3 2606.03 856839
3 2607.86 855960
3 2608.03 853451
3 2608.21 850337
3 2618.06 946914
3 2618.06 921751
3 2618.06 907353
3 2618.06 904223
3 2618.06 904055
3 2618.06 901109
3 2632.1 935027
3 2632.1 918092
3 2632.1 914969
3 2632.1 912350
3 2632.1 910894
3 2632.1 907780
3 2632.1 906213
3 2632.1 887942
3 2632.1 873717
3 2632.51 867822
3 2632.51 863609
3 2632.51 862872
3 2632.51 862834
3 2632.51 861416
3 2632.85 859268
3 2646.06 929495
3 2646.06 920708
3 2646.06 908986
3 2646.06 902544
3 2646.06 898975
3 2646.06 885787
3 2646.06 883715
3 2646.06 880601
3 2646.76 875259
3 2646.76 873521
3 2646.76 873472
3 2646.76 870659
3 2660.08 909337
3 2660.08 908521
3 2660.08 908481
3 2660.08 899525
3 2660.08 889048
3 2660.08 882058
3 2660.38 878935
3 2660.38 870490
3 2660.38 869332
3 2660.57 868595
3 2660.57 866956
3 2660.57 866472
3 2660.57 866217
3 2660.57 865675
3 2660.57 865423
3 2660.57 863163
3 2660.78 862644
3 2660.95 862392
3 2674.03 929956
3 2674.03 926422
3 2674.03 919956
3 2674.03 919907
3 2674.28 917641
3 2674.47 917391
3 2674.47 916904
3 2685.79 907970
3 2685.79 904856
3 2686.1 899547
3 2686.41 899036
3 2688.16 941312
3 2688.16 938189
3 2688.16 929926
3 2688.16 920122
3 2688.16 917008
3 2688.16 916663
3 2688.16 900835
3 2688.16 900786
3 2688.16 900743
3 2688.57 892069
3 2688.87 888998
1 2694.56 877031
3 2702.21 926844
3 2702.21 908562
3 2702.21 908328
3 2702.21 906075
3 2702.21 878278
3 2702.21 875843
3 2702.21 875106
3 2702.21 873640
3 2702.21 873627
3 2702.54 870504
3 2702.54 868505
3 2702.73 866377
3 2702.73 864769
3 2702.73 864032
3 2702.91 862391
3 2702.91 859268
3 2716.26 899502
3 2716.26 892569
3 2716.26 882405
3 2716.26 872357
3 2716.26 872235
3 2716.26 871498
3 2716.26 865206
3 2716.64 860977
3 2716.64 850874
3 2716.64 850825
3 2716.64 849941
3 2716.95 847711
3 2730.18 949580
3 2730.18 946466
3 2730.18 943912
3 2730.18 938282
3 2730.18 921642
3 2730.18 909920
3 2730.55 898615
3 2732.95 895817
3 2733.29 886610
3 2733.29 884849
3 2733.81 884447
3 2733.81 883684
1 2736.43 871555
3 2736.43 868165
3 2737.01 867460
3 2737.32 864733
3 2737.32 864684
3 2743.57 862903
3 2743.76 859753
3 2744.08 909299
3 2744.08 907724
3 2744.08 907571
3 2744.08 890337
3 2744.08 890288
3 2744.08 888328
3 2744.08 878658
3 2744.08 875535
3 2744.35 875000
3 2744.67 874798
3 2758.13 937354
3 2758.13 935169
3 2758.13 930864
3 2758.13 927741
3 2758.13 925495
3 2758.13 897196
3 2758.13 894253
3 2758.13 886835
3 2758.5 884020
3 2758.5 883391
3 2758.5 880989
3 2762.31 878298
3 2762.31 877561
3 2762.62 876684
3 2762.62 864962
3 2772.13 936466
3 2772.13 925404
3 2772.13 922281
3 2772.13 921567
3 2772.13 901755
3 2772.13 901706
3 2772.53 898615
1 2773.66 895817
3 2773.66 886610
3 2773.66 884849
3 2773.66 883684
1 2776.97 871555
3 2777.26 870850
3 2777.26 867460
3 2777.26 864684
3 2782.05 862903
3 2782.05 861227
3 2782.05 857265
3 2782.05 856483
3 2786.01 938442
3 2786.01 925966
3 2786.01 920336
3 2786.01 909031
3 2786.01 899337
3 2786.01 887780
3 2786.01 886359
3 2786.01 885832
3 2786.01 882218
3 2786.33 878629
3 2786.53 876793
3 2786.53 873947
3 2786.93 873421
3 2786.93 861490
3 2787.5 860111
3 2787.5 859802
query_times: 75
Score = 851610
