    Blocking waiting for file lock on package cache
    Blocking waiting for file lock on package cache
    Blocking waiting for file lock on package cache
    Blocking waiting for file lock on package cache
    Blocking waiting for file lock on build directory
    Finished `release` profile [optimized] target(s) in 0.10s
     Running `target/release/tester ../a.out 0011`
3 0.017 1481591
3 0.017 1456377
3 0.017 1432571
3 0.017 1425506
3 0.017 1416818
3 0.017 1397268
3 0.017 1396558
3 0.017 1390282
3 0.017 1386801
3 0.017 1384923
3 0.017 1379810
3 0.017 1376318
3 0.723 1363228
3 0.723 1361346
3 0.723 1359158
3 0.723 1353629
3 0.723 1353605
3 0.723 1334899
3 1.348 1330744
3 1.807 1330434
3 1.807 1323497
3 1.807 1323057
3 1.807 1318860
3 2.812 1311220
3 3.266 1310510
3 3.266 1308853
3 3.266 1306638
3 3.794 1302847
3 5.139 1300358
3 5.139 1299955
3 5.139 1297151
3 14.154 1378587
3 14.154 1360077
3 14.154 1358656
3 14.154 1352161
3 14.154 1351664
3 15.125 1348444
3 15.125 1342891
3 15.125 1340830
3 15.125 1340133
3 15.125 1334679
3 15.125 1328342
3 16.079 1325161
3 16.079 1318459
3 16.888 1317367
3 17.681 1313185
3 17.681 1310059
3 17.681 1309607
3 17.681 1305534
3 18.548 1304285
3 19.316 1301689
3 20.837 1301379
3 28.14 1431444
3 28.14 1406567
3 28.14 1387017
3 28.14 1381556
3 28.14 1361964
3 28.14 1354845
3 28.14 1349672
3 29.118 1344042
3 29.118 1335531
3 29.118 1335515
3 29.933 1334101
3 29.933 1327832
3 29.933 1324496
3 29.933 1323448
3 29.933 1322120
3 29.933 1313690
3 31.577 1313674
3 32.336 1309958
3 32.336 1309519
3 42.687 1420958
3 42.687 1395744
3 42.687 1391552
3 42.687 1390890
3 42.687 1379255
3 42.687 1375745
3 43.631 1371595
3 43.631 1362892
3 43.631 1360682
3 44.531 1359400
3 44.531 1358653
3 44.531 1355266
3 44.531 1355221
3 44.531 1338872
3 44.531 1336611
3 46.268 1332565
3 54.855 1322648
3 54.855 1320276
3 54.855 1316659
3 56.342 1344233
3 56.342 1343857
3 56.342 1340365
3 56.342 1339132
3 56.342 1330761
3 56.342 1327269
3 56.342 1320306
3 56.342 1317954
3 56.342 1312865
3 57.338 1304526
3 57.338 1304017
3 57.338 1302706
3 59.617 1298990
3 60.367 1297528
3 60.367 1293848
3 60.367 1293529
3 60.367 1293138
3 60.367 1291607
3 61.224 1291488
3 61.952 1283342
3 69.805 1274892
3 69.805 1274114
3 70.633 1366577
3 70.633 1341700
3 70.633 1336681
3 70.633 1335202
3 70.633 1329833
3 70.633 1329788
3 70.633 1324785
3 71.629 1320780
3 71.629 1312037
3 71.629 1311727
3 72.576 1307764
3 72.576 1304228
3 72.576 1304010
3 73.519 1295522
3 73.519 1287011
3 73.519 1285634
3 77.434 1285581
3 82.028 1284341
3 84.313 1410639
3 84.313 1388611
3 84.313 1381397
3 84.313 1365735
3 84.313 1352392
3 84.313 1345097
3 84.313 1342171
3 85.317 1341354
3 85.317 1337391
3 85.317 1335348
3 85.317 1331607
3 85.317 1329173
3 85.317 1325332
3 85.317 1324847
3 85.317 1316417
3 86.341 1315972
3 86.341 1315262
3 87.133 1312687
3 87.133 1308868
3 87.133 1307260
3 87.133 1305803
3 88.011 1304632
3 88.788 1303648
3 88.788 1300987
3 88.788 1294938
3 88.788 1294922
3 89.653 1291902
3 91.115 1291460
3 91.115 1290959
3 98.392 1429797
3 98.392 1408260
3 98.392 1402707
3 98.392 1389590
3 98.392 1386098
3 99.164 1374937
3 99.164 1354299
3 99.164 1349898
3 99.164 1349853
3 99.848 1349389
3 101.794 1341348
3 102.442 1337092
3 103.159 1332900
3 103.894 1311041
3 104.62 1308530
3 106.776 1304472
3 107.509 1299961
3 107.509 1299354
3 112.361 1351904
3 112.361 1343009
3 112.361 1342613
3 112.361 1341903
3 112.361 1339804
3 112.361 1334108
3 113.072 1331091
3 113.072 1325675
3 113.072 1324965
3 113.67 1324905
3 113.67 1320588
3 113.67 1309875
3 113.67 1302078
3 117.316 1301827
3 117.316 1301782
3 117.878 1299733
3 117.878 1294545
3 117.878 1290795
3 118.472 1290313
3 118.472 1288586
3 119.023 1287699
3 119.023 1285363
3 119.023 1280075
3 121.186 1279931
3 124.272 1277208
3 124.846 1273194
3 125.4 1272318
3 125.4 1272302
3 126.455 1410953
3 126.455 1404243
3 126.455 1382992
3 126.455 1381284
3 126.455 1370499
3 126.455 1369649
3 126.455 1365686
3 126.455 1351123
3 126.455 1341130
3 126.455 1337339
3 126.455 1331783
3 126.455 1331743
3 127.351 1319465
3 127.351 1319420
3 127.351 1318710
3 128.162 1317562
3 128.162 1310396
3 128.712 1305705
3 129.22 1305660
3 129.883 1298208
3 129.883 1294764
3 129.883 1289241
3 129.883 1285355
3 130.904 1284800
3 130.904 1284336
3 132.447 1281635
3 133.315 1271952
3 133.315 1270992
3 133.315 1269892
3 136.458 1269096
3 137.957 1268868
3 140.128 1362595
3 140.128 1359432
3 140.128 1347135
3 140.128 1338397
3 140.128 1336925
3 140.128 1323343
3 140.128 1321699
3 141.088 1321654
3 141.088 1316376
3 141.088 1315613
3 141.088 1315151
3 141.088 1307084
3 141.977 1303865
3 142.707 1302774
3 142.707 1300669
3 143.49 1296007
3 143.49 1293224
3 143.49 1292596
3 144.343 1291975
3 144.343 1290410
3 144.343 1288858
3 145.151 1287924
3 145.892 1285874
3 145.892 1283161
3 146.653 1278863
3 146.653 1276424
3 148.234 1273982
3 149.044 1273909
3 154.172 1415172
3 154.172 1409756
3 154.172 1397784
3 154.172 1391075
3 154.172 1377245
3 154.172 1375135
3 154.172 1366755
3 154.172 1366739
3 154.172 1364457
3 155.224 1357164
3 155.224 1352871
3 155.224 1351303
3 155.224 1338330
3 155.224 1323656
3 155.224 1322449
3 156.144 1318957
3 156.144 1317215
3 156.144 1312329
3 156.144 1306679
3 156.994 1305172
3 156.994 1303925
3 157.782 1302399
3 157.782 1300158
3 158.536 1299879
3 159.253 1299236
3 159.253 1294463
3 160.04 1291494
3 160.04 1286318
3 160.901 1285889
3 160.901 1283579
3 160.901 1282473
3 160.901 1282163
3 162.034 1280780
3 163.569 1276201
3 163.569 1274260
3 166.462 1273650
3 168.353 1353769
3 168.353 1326336
3 168.353 1321780
3 168.353 1317917
3 168.353 1317872
3 168.353 1317116
3 168.353 1311459
3 168.353 1311194
3 169.091 1311012
3 169.091 1310182
3 169.636 1306690
3 169.636 1305605
3 169.636 1304297
3 169.636 1298601
3 169.636 1297078
3 170.273 1284990
3 170.846 1283081
3 171.359 1278889
3 171.359 1278310
3 171.902 1277519
3 172.441 1277503
3 172.961 1276063
3 173.476 1274882
3 173.476 1273712
3 174.035 1273206
3 174.035 1271394
3 174.035 1269022
3 174.035 1267239
3 174.649 1266505
3 174.649 1266195
3 174.649 1264969
3 174.649 1263132
3 175.723 1263100
3 175.723 1262496
3 175.723 1261218
3 176.297 1259148
3 176.83 1258933
3 176.83 1258917
3 177.851 1258743
3 177.851 1258396
3 178.401 1258389
3 178.401 1255900
3 178.993 1255190
3 179.508 1254087
3 180.023 1251543
3 181.503 1249347
3 182.019 1359320
3 182.019 1358610
3 182.019 1347763
3 182.019 1323256
3 182.652 1321641
3 182.652 1312383
3 183.217 1312368
3 183.217 1311627
3 183.217 1309363
3 183.217 1307714
3 183.217 1302298
3 183.217 1300852
3 185.398 1300380
3 185.929 1295257
3 186.944 1286886
3 186.944 1285870
3 187.991 1285344
3 188.515 1281984
3 189.05 1277713
3 189.56 1275135
3 196.386 1350233
3 196.386 1348294
3 196.386 1341900
3 196.386 1335581
3 196.986 1321829
3 196.986 1321071
3 196.986 1316916
3 197.552 1312103
3 197.552 1311069
3 197.552 1309046
3 197.552 1307483
3 197.552 1306886
3 197.552 1303560
3 197.552 1293468
3 198.222 1291216
3 198.764 1291200
3 199.737 1290603
3 199.737 1287357
3 200.292 1284019
3 200.292 1283394
3 202.287 1282399
3 202.798 1278413
3 203.311 1274861
3 203.837 1273605
3 203.837 1273589
3 204.374 1272255
3 204.374 1271913
3 204.374 1263744
3 204.942 1262719
3 205.433 1257389
3 205.93 1254865
3 205.93 1254828
3 206.461 1254124
3 206.96 1252773
3 207.448 1252757
3 210.253 1360118
3 210.253 1346507
3 210.253 1345119
3 210.253 1343633
3 210.253 1339117
3 210.253 1317582
3 210.253 1316740
3 211.026 1313887
3 211.026 1312474
3 211.026 1310438
3 211.613 1309605
3 211.613 1308630
3 211.613 1306838
3 211.613 1306753
3 212.213 1289183
3 212.213 1287012
3 212.213 1286302
3 212.213 1285736
3 212.213 1284177
3 212.213 1283847
3 212.86 1283759
3 212.86 1281233
3 212.86 1277146
3 213.423 1275165
3 213.423 1272787
3 213.969 1271074
3 213.969 1270833
3 213.969 1269637
3 214.536 1269592
3 224.292 1372172
3 224.292 1359875
3 224.292 1356084
3 224.292 1348903
3 224.292 1346986
3 224.292 1344475
3 224.292 1343767
3 224.292 1343057
3 224.997 1338053
3 224.997 1337699
3 225.583 1337389
3 225.583 1336690
3 226.114 1335627
3 226.114 1333155
3 226.114 1329372
3 226.114 1328605
3 226.114 1324814
3 226.114 1315634
3 226.114 1313467
3 226.761 1311439
3 238.063 1356715
3 238.063 1331272
3 238.063 1330476
3 238.063 1304226
3 238.063 1302486
3 238.974 1302470
3 238.974 1300658
3 239.568 1300202
3 239.568 1298810
3 239.568 1296498
3 240.118 1295679
3 240.118 1291524
3 240.118 1289931
3 240.118 1287771
3 241.205 1287755
3 243.071 1286200
3 243.589 1285824
3 243.589 1285808
3 245.926 1284749
3 245.926 1284515
3 252.351 1387518
3 252.351 1387131
3 252.351 1383639
3 252.351 1375808
3 252.351 1374822
3 252.351 1369284
3 252.351 1368974
3 252.351 1357836
3 252.351 1344734
3 253.14 1317558
3 253.652 1316217
3 253.652 1316172
3 254.185 1310900
3 254.703 1310884
3 256.135 1310619
3 266.458 1417681
3 266.458 1409804
3 266.458 1401299
3 266.458 1376929
3 266.458 1376619
3 266.458 1359107
3 267.129 1354575
3 267.129 1350722
3 267.129 1347230
3 267.129 1342578
3 267.129 1339680
3 267.129 1338348
3 267.129 1335889
3 267.812 1335844
3 268.77 1326788
3 269.27 1326078
3 269.27 1320956
3 269.27 1320646
3 269.27 1319662
3 269.927 1318559
3 269.927 1317997
3 269.927 1316293
3 270.509 1313209
3 271.494 1313164
3 272.479 1310924
3 272.479 1307611
3 278.693 1301888
3 278.693 1293377
3 278.693 1292046
3 280.263 1429519
3 280.263 1419128
3 280.263 1390566
3 280.263 1386603
3 280.263 1383277
3 280.263 1368393
3 280.263 1365575
3 280.263 1357230
3 280.263 1351677
3 280.263 1351632
3 280.263 1341444
3 280.263 1340450
3 280.263 1339740
3 281.12 1336031
3 281.12 1326958
3 281.12 1326745
3 281.12 1315795
3 281.12 1311832
3 281.12 1310853
3 281.793 1310808
3 282.284 1309509
3 282.284 1307780
3 282.284 1307070
3 282.284 1298731
3 282.284 1291847
3 282.935 1291522
3 283.436 1290256
3 283.929 1288030
3 284.432 1287668
3 284.432 1287652
3 284.957 1287078
3 284.957 1286324
3 285.979 1286148
3 287.403 1283235
3 287.893 1282185
3 287.893 1282140
3 293.135 1281948
3 293.135 1280321
3 294.193 1388677
3 294.193 1340119
3 294.193 1335023
3 294.193 1331060
3 294.193 1327715
3 294.193 1319810
3 294.193 1297781
3 294.845 1297422
3 294.845 1297083
3 294.845 1293459
3 294.845 1289862
3 295.446 1281518
3 295.446 1280545
3 296.016 1279279
3 296.016 1277621
3 297.047 1270033
3 297.993 1269006
3 297.993 1267649
3 298.504 1266869
3 298.504 1266593
3 299.025 1264875
3 299.025 1263339
3 299.547 1263136
3 299.547 1262600
3 299.547 1262517
3 299.547 1262193
3 306.189 1261688
3 306.189 1258090
3 306.189 1257641
3 307.258 1256902
3 308.241 1358696
3 308.241 1356633
3 308.241 1343510
3 308.241 1333902
3 308.241 1332826
3 308.241 1328341
3 308.241 1316116
3 308.241 1315795
3 308.958 1313983
3 308.958 1307180
3 308.958 1303709
3 308.958 1296624
3 308.958 1295914
3 308.958 1292523
3 308.958 1291279
3 309.617 1287929
3 309.617 1283180
3 310.147 1283173
3 310.147 1283135
3 310.147 1280778
3 310.794 1275120
3 310.794 1274881
3 311.358 1274697
3 311.358 1274477
3 311.358 1273091
3 311.358 1272699
3 311.955 1268215
3 311.955 1268199
3 311.955 1266939
3 312.516 1265839
3 313.026 1265418
3 313.026 1260613
3 313.565 1260479
3 313.565 1259865
3 322.128 1415590
3 322.128 1413459
3 322.128 1390028
3 322.128 1377229
3 322.128 1367483
3 322.128 1367159
3 322.128 1361606
3 322.128 1361561
3 322.128 1353343
3 323.384 1328129
3 323.384 1307980
3 323.384 1302875
3 323.941 1300631
3 323.941 1298590
3 323.941 1296039
3 323.941 1294309
3 323.941 1292034
3 323.941 1290978
3 323.941 1290962
3 324.606 1288258
3 325.094 1287171
3 325.581 1286829
3 325.581 1285944
3 326.1 1285685
3 326.594 1284772
3 326.594 1284223
3 326.594 1282338
3 326.594 1278694
3 332.793 1277944
3 332.793 1276516
3 332.793 1276128
3 333.809 1274491
3 334.795 1273783
3 335.282 1273073
3 335.775 1269419
3 335.775 1266170
3 335.775 1266017
3 336.329 1420825
3 336.329 1415129
3 336.329 1414760
3 336.329 1411268
3 336.329 1406533
3 336.329 1399649
3 336.329 1381422
3 336.329 1380741
3 337.036 1367595
3 337.036 1355487
3 337.036 1354639
3 337.036 1354594
3 337.036 1352127
3 337.036 1350278
3 337.036 1348785
3 337.036 1348635
3 337.036 1346618
3 337.036 1328661
3 337.804 1327538
3 337.804 1323465
3 337.804 1320548
3 337.804 1311139
3 337.804 1309069
3 340.714 1305428
3 341.26 1305412
3 341.26 1295046
3 341.26 1293357
3 342.751 1291653
3 342.751 1289768
3 346.001 1289623
3 346.001 1288913
3 346.001 1287333
3 347.01 1286649
3 348.875 1280933
3 350.322 1416181
3 350.322 1415036
3 350.322 1396526
3 350.322 1389642
3 350.322 1381212
3 351.508 1379136
1 352.019 1345536
3 352.019 1344953
3 352.019 1343394
3 352.589 1342472
3 353.186 1340136
3 353.186 1337933
3 353.186 1334583
3 354.226 1334567
3 364.236 1417941
3 364.236 1417279
3 364.236 1369025
3 364.236 1363472
3 364.236 1362840
3 364.236 1362178
3 364.895 1361693
3 364.895 1359689
3 364.895 1351858
3 364.895 1342838
3 365.487 1322514
3 365.487 1319567
3 365.487 1305727
3 365.487 1286857
3 365.487 1285989
3 366.093 1284862
3 366.093 1277516
3 366.093 1273089
3 367.12 1273073
3 369.861 1271402
3 370.804 1271357
3 371.283 1269941
3 371.761 1269668
3 372.236 1269652
3 378.015 1349252
3 378.015 1343458
3 378.015 1337762
3 378.015 1333744
3 378.015 1325076
3 378.015 1314211
3 378.679 1314048
3 378.679 1308587
3 378.679 1286851
3 378.679 1282502
3 378.679 1282329
3 379.271 1280889
3 379.769 1277563
3 380.245 1277251
3 380.718 1273628
3 380.718 1273615
3 380.718 1273588
3 381.761 1270895
3 382.247 1268475
3 392.357 1402667
3 392.357 1394155
3 392.357 1375285
3 392.357 1368576
3 392.357 1358884
3 392.357 1346587
3 392.357 1346542
3 392.357 1337420
3 392.357 1334504
3 392.357 1318728
3 395.488 1318285
3 395.488 1315752
3 396.5 1309043
3 402.573 1308996
1 402.573 1307290
3 402.573 1297032
3 403.126 1295420
3 403.126 1294083
3 403.638 1289976
3 403.638 1289903
3 403.638 1286909
3 404.183 1284554
3 404.183 1283672
3 404.183 1281390
3 404.183 1278517
3 404.746 1276657
3 405.676 1273990
3 406.15 1431393
3 406.15 1425977
3 406.15 1423469
3 406.15 1388693
3 406.15 1386304
3 406.15 1377793
3 406.15 1377589
3 406.15 1376992
3 406.15 1373572
3 406.15 1368223
3 406.9 1361597
3 406.9 1359016
3 406.9 1354824
3 407.455 1354478
3 407.455 1333501
3 407.455 1330108
3 408.001 1329364
3 408.001 1322538
3 408.001 1322348
3 408.001 1311171
3 408.567 1311142
3 408.567 1307597
3 408.567 1294488
3 408.567 1292661
3 409.137 1288582
3 409.137 1287063
3 409.137 1283939
3 409.137 1283923
3 409.137 1283678
3 409.137 1281326
3 409.137 1275239
3 409.808 1273480
3 409.808 1272479
3 410.883 1271541
3 410.883 1268743
3 410.883 1267275
3 411.43 1266828
3 411.933 1266783
3 420.386 1447862
3 420.386 1445993
3 420.386 1418498
3 420.386 1399413
1 420.386 1386031
3 420.386 1380239
3 420.386 1371626
3 420.386 1360888
3 420.386 1351196
3 420.386 1342978
3 420.386 1330681
3 421.256 1322191
3 421.256 1321542
3 421.256 1320681
3 421.256 1319053
3 421.256 1319032
3 421.256 1319008
3 421.256 1318339
3 421.919 1316890
3 421.919 1316530
3 421.919 1314886
3 421.919 1314076
3 421.919 1310750
3 421.919 1310705
3 422.546 1304656
3 423.045 1304027
3 423.045 1300968
3 423.045 1294471
3 423.566 1288570
3 423.566 1287860
3 424.077 1286256
3 424.077 1282764
3 424.077 1279026
3 424.682 1278981
3 425.278 1278585
3 425.278 1278440
3 426.45 1274458
3 427.049 1274016
3 427.049 1271637
3 434.174 1335507
3 434.174 1332154
3 434.174 1332094
3 434.174 1332049
3 434.174 1313521
3 434.174 1311492
3 434.837 1304478
3 434.837 1303486
3 435.376 1303470
3 435.376 1300659
3 435.907 1295364
3 436.413 1293664
3 436.911 1293496
3 437.88 1284985
3 438.405 1282749
3 438.902 1282424
3 439.397 1277692
3 448.022 1408171
3 448.022 1403051
1 448.022 1389027
3 448.022 1371911
3 448.022 1357751
3 448.909 1356515
3 449.639 1334487
3 449.639 1331449
3 450.393 1317894
3 450.393 1316252
3 450.393 1315602
3 451.898 1311447
3 451.898 1306882
3 452.646 1306572
3 454.704 1305161
3 455.413 1303185
3 455.413 1300346
3 456.14 1299641
3 456.867 1299222
3 462.516 1391936
3 462.516 1383873
3 462.516 1377879
3 462.516 1376741
3 462.516 1372183
3 462.516 1371864
3 463.456 1362845
3 463.456 1356598
3 463.456 1342554
3 464.259 1342217
3 464.259 1337503
3 464.259 1331807
3 464.259 1329904
3 464.259 1327713
3 465.124 1327403
3 465.124 1324877
3 465.124 1311904
3 465.124 1304252
3 465.124 1302468
3 465.99 1296955
3 465.99 1296547
3 466.761 1289127
3 466.761 1286728
3 468.178 1285946
3 468.178 1282573
3 468.954 1282460
3 476.705 1396287
3 476.705 1388069
3 476.705 1385005
3 476.705 1381679
3 476.705 1357309
3 476.705 1341026
3 476.705 1332717
3 476.705 1322225
3 476.705 1319475
3 477.753 1307270
3 477.753 1298840
3 479.193 1298294
3 479.91 1295419
3 481.312 1293136
3 482.025 1291650
3 482.759 1289802
3 483.468 1289786
3 483.468 1289659
3 483.468 1285696
3 484.262 1284460
3 484.262 1283351
3 484.262 1283031
3 484.262 1282443
3 487.795 1282355
3 487.795 1280417
3 488.53 1279956
3 488.53 1279654
3 488.53 1277044
3 490.068 1395351
3 490.068 1389798
3 490.068 1373678
3 490.068 1362043
3 490.068 1357424
3 490.068 1343431
3 490.068 1340941
3 491.007 1323266
3 491.007 1322953
3 491.007 1292755
3 491.007 1292045
3 491.843 1290294
3 491.843 1287697
3 491.843 1285178
3 492.624 1285133
3 492.624 1278322
3 493.37 1271245
3 493.37 1271109
3 494.146 1270815
3 494.146 1269114
3 494.146 1267765
3 495.008 1267686
3 495.008 1267670
3 495.777 1265185
3 496.489 1262493
3 497.18 1260719
3 499.223 1260225
3 504.283 1406923
3 504.283 1402779
3 504.283 1400318
3 504.283 1393609
3 504.283 1369093
3 504.283 1363642
3 504.283 1360069
3 505.239 1347772
3 505.239 1341454
3 506.019 1334161
3 508.217 1329895
3 508.998 1325740
3 512.674 1325056
3 512.674 1323673
3 513.468 1315162
3 518.048 1393470
3 518.048 1392760
3 518.048 1381449
3 518.048 1376310
3 518.048 1369017
3 518.048 1350407
3 518.989 1337883
3 519.74 1329453
3 519.74 1322848
3 520.514 1321036
3 528.597 1320546
3 528.597 1320055
3 530.211 1310004
3 530.211 1308850
3 531.049 1308121
3 532.51 1444468
3 532.51 1434736
3 532.51 1409405
3 532.51 1405913
3 532.51 1381543
3 532.51 1368420
3 532.51 1363623
3 532.51 1359465
3 532.51 1344634
3 532.51 1341240
3 532.51 1324169
3 532.51 1324142
3 533.623 1315155
3 533.623 1310733
3 533.623 1310392
3 533.623 1305628
3 533.623 1304079
3 534.5 1299103
3 534.5 1286806
3 534.5 1281749
3 534.5 1274394
3 537.395 1274089
3 538.115 1269143
3 538.115 1267779
3 546.108 1353003
3 546.108 1352288
3 546.108 1348848
3 546.108 1347693
3 546.108 1339823
3 546.108 1339113
3 546.108 1325444
3 548.575 1318517
3 548.575 1314457
3 548.575 1313490
3 556.623 1310446
3 557.378 1304238
3 557.378 1303772
3 557.378 1302424
3 557.378 1300207
3 557.378 1296987
3 557.378 1296339
3 557.378 1292184
3 559.103 1292168
3 559.979 1290295
3 560.853 1458499
3 560.853 1436945
3 560.853 1422658
3 560.853 1414440
3 560.853 1406966
3 560.853 1394688
3 560.853 1390897
3 560.853 1371055
3 561.87 1367111
3 561.87 1362657
3 561.87 1360653
3 561.87 1347080
3 561.87 1346370
3 562.768 1335300
3 562.768 1334145
3 562.768 1325806
3 564.979 1322961
3 565.716 1317545
3 565.716 1315541
3 565.716 1309355
3 566.515 1308734
3 566.515 1303956
3 566.515 1302513
3 567.303 1298574
3 567.303 1298259
3 567.303 1298065
3 568.104 1298049
3 572.287 1296740
3 572.287 1295504
3 573.091 1295435
3 573.091 1288317
3 574.65 1424264
3 574.65 1405463
3 574.65 1401535
3 574.65 1396873
3 574.65 1342497
3 574.65 1334087
3 574.65 1320964
3 574.65 1320919
3 575.657 1318226
3 575.657 1312620
3 577.147 1312351
3 577.147 1309467
3 577.915 1308759
3 577.915 1306369
3 577.915 1305993
3 577.915 1302168
3 577.915 1300017
3 577.915 1292724
3 577.915 1292675
3 578.873 1292381
3 580.306 1292122
3 580.306 1288331
3 581.085 1286589
3 584.654 1286327
3 584.654 1284910
3 585.432 1284551
3 585.432 1283735
3 585.432 1283451
3 586.23 1283004
3 586.23 1282404
3 586.23 1282121
3 587.095 1278734
3 587.095 1273321
3 587.095 1272637
3 587.095 1272330
3 587.996 1269050
3 587.996 1268663
3 588.781 1330270
3 588.781 1317147
3 588.781 1308928
3 588.781 1308912
3 588.781 1306239
3 588.781 1306011
3 589.757 1301273
3 589.757 1294513
3 590.534 1294496
3 590.534 1292264
3 591.29 1288515
3 592.033 1288301
3 592.033 1287756
3 592.749 1286297
3 592.749 1283433
3 593.286 1283123
3 596.709 1282943
3 597.214 1277786
3 602.444 1375895
3 602.444 1370199
3 602.444 1361800
3 602.444 1360700
3 602.444 1349713
3 602.444 1332891
3 602.444 1324552
3 602.444 1319922
3 602.444 1306512
3 602.444 1304846
3 602.444 1301960
3 603.216 1298097
3 603.216 1295603
3 603.216 1291715
3 603.216 1291670
3 603.81 1282486
3 603.81 1281573
3 603.81 1280251
3 604.381 1279771
3 604.381 1276804
3 604.381 1276759
3 604.967 1276719
3 605.464 1276280
3 605.464 1274387
3 605.464 1272083
3 606.025 1267559
3 606.025 1267059
3 614.796 1264491
3 616.25 1317725
3 616.25 1313829
3 616.25 1313099
3 616.25 1312172
3 616.25 1311895
3 616.899 1303581
3 616.899 1303318
3 616.899 1302308
3 616.899 1294716
3 616.899 1293101
3 616.899 1291422
3 617.552 1291377
3 619.472 1280764
3 620.007 1280412
3 621.468 1279080
3 622.889 1277626
3 623.837 1277313
3 623.837 1277268
3 630.456 1356021
3 630.456 1348637
3 630.456 1348116
3 630.456 1344325
3 630.456 1332736
3 630.456 1332028
3 631.394 1323810
3 631.394 1320368
3 631.394 1316176
3 632.202 1310134
3 632.202 1309424
3 632.202 1304673
3 632.202 1301711
3 633.061 1300182
3 633.061 1299339
3 633.061 1294690
3 633.9 1294608
3 633.9 1289133
3 633.9 1289117
3 633.9 1284719
3 634.851 1283978
3 634.851 1283813
3 634.851 1283553
3 636.418 1282100
3 636.418 1280831
3 636.418 1277296
3 637.949 1276672
3 637.949 1275109
3 637.949 1275069
3 638.8 1274286
3 641.631 1269698
3 643.167 1266064
3 643.167 1265948
3 643.167 1265903
3 644.705 1387854
3 644.705 1382438
3 644.705 1376742
3 644.705 1371170
3 644.705 1355223
3 644.705 1349807
3 645.625 1341797
3 645.625 1338897
3 645.625 1334767
3 646.444 1333344
3 646.444 1329381
3 646.444 1328288
3 646.444 1321955
3 647.288 1320764
3 647.288 1302254
3 647.288 1301037
3 648.128 1300536
3 648.128 1291674
3 648.128 1291291
3 648.897 1290581
3 648.897 1290271
3 648.897 1287475
3 649.726 1285084
3 649.726 1282014
3 655.217 1279062
3 655.924 1277786
3 656.617 1273509
3 656.617 1270397
3 658.125 1491355
3 658.125 1470913
1 658.125 1458739
3 658.125 1451093
3 658.125 1444397
3 658.125 1432100
3 658.125 1415673
3 658.125 1408380
3 658.125 1407670
3 658.125 1406359
3 659.193 1386809
3 659.193 1378298
3 659.193 1373175
3 659.193 1353084
3 660.056 1352925
3 660.056 1351825
3 660.056 1351741
3 660.847 1345415
3 660.847 1344702
3 660.847 1340739
3 662.349 1339377
3 663.113 1335586
3 664.525 1334755
3 664.525 1332095
3 665.278 1322258
3 665.278 1322242
3 665.278 1312510
3 666.102 1308355
3 666.839 1304368
3 666.839 1302967
3 666.839 1298538
3 666.839 1293852
3 666.839 1292842
3 667.704 1292106
3 667.704 1292090
3 668.444 1290273
3 668.444 1288224
3 669.195 1285200
3 669.93 1284321
3 669.93 1280817
3 669.93 1274342
3 670.741 1273134
3 670.741 1272859
3 670.741 1272149
3 671.57 1271119
3 672.302 1359838
3 672.302 1354422
3 672.302 1350770
3 672.302 1349780
3 672.302 1349118
3 672.302 1328676
3 672.302 1324143
3 673.429 1323970
3 673.429 1315407
3 673.429 1312335
3 673.429 1309278
3 674.942 1298972
3 675.701 1288653
3 675.701 1287167
3 675.701 1287151
3 676.488 1286665
3 676.488 1286024
3 677.256 1285947
3 677.256 1284355
3 677.256 1278873
3 678.042 1277317
3 679.451 1276233
3 679.451 1275089
3 679.451 1272584
3 679.451 1272245
3 679.451 1272229
3 681.728 1271519
3 682.438 1270866
3 685.341 1268422
3 685.341 1268366
3 686.163 1390463
3 686.163 1372506
3 686.163 1372015
3 686.163 1369510
3 686.163 1345140
3 686.163 1339582
3 686.163 1335233
3 686.163 1330229
3 686.163 1325590
3 686.163 1321596
3 686.163 1321588
3 687.223 1314060
3 687.223 1311851
3 687.223 1306912
3 687.223 1304401
3 687.223 1304356
3 687.223 1302004
3 687.223 1292949
3 688.114 1292926
3 688.114 1291512
3 688.892 1290485
3 688.892 1288998
3 688.892 1288723
3 688.892 1285460
3 688.892 1282889
3 689.496 1278784
3 689.496 1278739
3 689.496 1275659
3 689.496 1272528
3 690.066 1271253
3 690.066 1268825
3 690.066 1268103
3 690.606 1267938
3 690.606 1264801
3 691.219 1264756
3 692.819 1263737
3 692.819 1249369
3 693.812 1249082
3 693.812 1248657
3 695.752 1248646
3 695.752 1245546
3 697.645 1245150
3 700.446 1420398
3 700.446 1394107
3 700.446 1380041
3 700.446 1379405
1 700.446 1372146
3 700.446 1363097
3 700.446 1362186
3 700.446 1361385
3 700.446 1360863
3 700.446 1357298
3 700.446 1352147
3 700.446 1320839
3 701.269 1314977
3 701.269 1314315
3 701.269 1310823
3 701.269 1306860
3 701.269 1298069
3 701.879 1295340
3 701.879 1290947
3 701.879 1290563
3 702.948 1288631
3 703.445 1287071
3 714.262 1382405
3 714.262 1363502
3 714.262 1361166
3 714.262 1360456
3 714.262 1354595
3 714.262 1351205
3 714.92 1348716
3 714.92 1343523
3 714.92 1340031
3 714.92 1339395
3 714.92 1338376
3 714.92 1332790
3 714.92 1325032
3 714.92 1314522
3 714.92 1314477
3 715.65 1312364
3 715.65 1312348
3 715.65 1304130
3 716.202 1291007
3 716.202 1290587
3 716.726 1288570
3 716.726 1282882
3 717.251 1281224
3 717.251 1278674
3 717.251 1276131
3 717.808 1267576
3 718.301 1266929
3 718.301 1266924
3 728.057 1381732
3 728.057 1339766
3 728.057 1331276
3 728.057 1326153
3 728.057 1301783
3 728.674 1296184
3 728.674 1293260
3 728.674 1287799
3 729.215 1287518
3 729.708 1286098
3 729.708 1278826
3 729.708 1277607
3 729.708 1275728
3 729.708 1275683
3 730.309 1274973
3 733.14 1274631
3 733.14 1273683
3 733.14 1268659
3 733.14 1261188
3 733.709 1260584
3 733.709 1258387
3 733.709 1257773
3 733.709 1257739
3 734.274 1256220
3 734.756 1256180
3 742.24 1399187
3 742.24 1389495
3 742.24 1383055
3 742.24 1369296
3 742.24 1362075
3 742.24 1346791
3 742.24 1344899
3 742.24 1343484
3 742.24 1342774
3 742.24 1328391
3 743.198 1322837
3 743.198 1319397
3 743.198 1319306
3 743.748 1317365
3 743.748 1316356
3 743.748 1313904
3 743.748 1313859
3 743.748 1304184
3 744.351 1298620
3 744.351 1296382
3 744.351 1296206
3 744.351 1294944
3 744.351 1292920
3 744.931 1289253
3 744.931 1288943
3 744.931 1286211
3 744.931 1282726
3 745.504 1281211
3 745.504 1279660
3 746.033 1279063
3 746.033 1276131
3 746.033 1276124
3 746.627 1276031
3 746.627 1275797
3 746.627 1275752
3 747.165 1272688
3 747.64 1272575
3 747.64 1270370
3 747.64 1269660
3 756.276 1385031
3 756.276 1375595
3 756.276 1366388
3 756.863 1355606
3 756.863 1355590
3 756.863 1348166
3 756.863 1344603
3 757.47 1342480
3 757.47 1341006
3 757.47 1330023
3 757.47 1328245
3 757.47 1314880
3 757.47 1307587
3 758.221 1305036
3 758.221 1303201
3 758.221 1302786
3 758.799 1302076
3 759.365 1294957
3 759.365 1291166
3 761.585 1290579
1 770.149 1392311
3 770.149 1387294
3 770.149 1386040
3 770.149 1383425
3 770.149 1379610
3 770.149 1373568
3 770.835 1349198
3 770.835 1343645
3 770.835 1340358
3 770.835 1340313
3 770.835 1336799
3 771.904 1336057
3 771.904 1329368
3 772.429 1325992
3 772.429 1325921
3 772.429 1324383
3 772.97 1322352
3 772.97 1310628
3 772.97 1282853
3 772.97 1282111
3 772.97 1282066
3 774.011 1276380
3 774.586 1273549
3 775.769 1273504
3 781.85 1272914
3 781.85 1270181
3 781.85 1268759
3 784.395 1365886
3 784.395 1347857
3 784.395 1346670
3 784.395 1343558
3 784.395 1331144
3 784.395 1330435
3 784.395 1327549
3 784.395 1322298
3 785.108 1309693
3 785.108 1302400
3 785.108 1299849
3 785.108 1299583
3 785.712 1299524
3 785.712 1299402
3 785.712 1297584
3 786.261 1296670
3 786.261 1288901
3 786.777 1287218
3 786.777 1283791
3 787.313 1281941
3 787.313 1281925
3 787.313 1280562
3 787.865 1275590
3 788.366 1275007
3 788.366 1274967
3 788.366 1274880
3 790.323 1273328
3 798.424 1454086
3 798.424 1450594
3 798.424 1440349
3 798.424 1427599
3 798.424 1422277
3 798.424 1397957
3 798.424 1394922
3 798.424 1393916
3 798.424 1389984
3 799.184 1356538
3 799.184 1356493
3 799.184 1355954
3 799.184 1346262
3 799.184 1346091
3 799.806 1337580
3 800.314 1335880
3 800.314 1334780
3 800.314 1333789
3 800.314 1331074
3 800.314 1328449
3 800.314 1321802
3 801.027 1321757
3 802.021 1321012
3 802.538 1308426
3 802.538 1301381
3 802.538 1294145
3 802.538 1285806
3 803.144 1282527
3 803.144 1272268
3 806.028 1270107
3 806.028 1269820
3 806.557 1269789
3 806.557 1268089
3 806.557 1267842
3 807.109 1267070
3 807.109 1264350
3 807.623 1263784
3 808.107 1263297
3 809.54 1263111
3 810.032 1260249
3 810.032 1259539
3 811.042 1258665
3 812.006 1391192
3 812.006 1380208
3 812.006 1371283
3 812.006 1370573
3 812.633 1368545
3 812.633 1366547
3 812.633 1366265
3 813.3 1365725
3 813.3 1365415
3 813.3 1363837
3 813.3 1362780
3 813.915 1356175
3 813.915 1351856
3 813.915 1349069
3 813.915 1337498
3 814.526 1334272
3 814.526 1324963
3 814.526 1321299
3 814.526 1321066
3 814.526 1316976
3 814.526 1316074
3 814.526 1315657
3 815.243 1314946
3 815.753 1313579
3 815.753 1313292
3 815.753 1310733
3 816.305 1310611
3 816.305 1295534
3 822.104 1294828
3 822.606 1287409
3 822.606 1287393
3 822.606 1281557
3 822.606 1279774
3 823.207 1279064
3 823.207 1279048
3 823.207 1277402
3 824.265 1275795
3 824.77 1275085
3 826.283 1450679
3 826.283 1437920
3 826.283 1435871
3 826.283 1423593
3 826.283 1423339
3 826.283 1407508
3 826.283 1390510
3 826.283 1385094
3 826.283 1379053
3 826.283 1377144
3 826.283 1364490
3 826.283 1362581
3 827.139 1335486
3 827.139 1324071
3 827.139 1318518
3 827.717 1318235
3 827.717 1317190
3 828.268 1314555
3 828.268 1314510
3 828.813 1307898
3 829.35 1304679
3 829.35 1301189
3 829.908 1300017
3 829.908 1298822
3 829.908 1295168
3 831.468 1295152
3 831.468 1294570
3 832.002 1292118
3 832.002 1290807
3 832.537 1289597
3 834 1289296
3 838.854 1283903
3 838.854 1281835
3 839.402 1281773
3 840.407 1421428
3 840.407 1420665
3 840.407 1388995
3 840.407 1387320
3 840.407 1381770
3 840.407 1377907
3 841.128 1366665
3 841.128 1356228
3 841.128 1347932
3 841.128 1344657
3 841.128 1334643
3 841.128 1334063
3 841.128 1333827
3 841.818 1333136
3 841.818 1331996
3 841.818 1306025
3 841.818 1302893
3 841.818 1301338
3 842.509 1300014
3 842.509 1299969
3 843.117 1298060
3 843.117 1295172
3 843.117 1294442
3 843.117 1293963
3 843.722 1293897
3 844.573 1287260
3 844.573 1286554
3 845.409 1285242
3 845.409 1281750
3 845.409 1281140
3 848.364 1279477
3 848.364 1277761
3 849.14 1277079
3 849.903 1276025
3 850.65 1276009
3 851.399 1273798
3 851.399 1270007
3 853.62 1268272
3 854.44 1413110
3 854.44 1398475
3 854.44 1391082
3 854.44 1388012
3 854.44 1384764
3 854.44 1366099
3 855.436 1366075
3 855.436 1343952
3 856.3 1338367
3 857.069 1337657
3 857.839 1334601
3 858.609 1333599
3 858.609 1333554
3 859.474 1325976
3 860.274 1308803
3 860.274 1303720
3 861.093 1303226
3 861.093 1303002
3 861.093 1299071
3 861.938 1298958
3 861.938 1297193
3 868.49 1402272
3 868.49 1378760
3 868.49 1369042
3 868.49 1352609
3 868.49 1347538
3 868.49 1344858
3 868.49 1332561
3 868.49 1328598
3 868.49 1308156
3 869.496 1302834
3 869.496 1297745
3 869.496 1297515
3 870.28 1297475
3 870.28 1296833
3 870.28 1292719
3 871.088 1289704
3 871.809 1286948
3 871.809 1286808
3 871.809 1285542
3 872.63 1284946
3 872.63 1284018
3 872.63 1280190
3 872.63 1276725
3 873.45 1274348
3 874.168 1270760
3 874.971 1270099
3 875.607 1270083
3 877.142 1263374
3 877.656 1262765
3 879.52 1261928
3 879.52 1261912
3 880.985 1259047
3 880.985 1257949
3 882.416 1407336
3 882.416 1407329
3 882.416 1406619
3 882.416 1397115
3 882.416 1396357
3 882.416 1391345
3 882.416 1384675
3 882.416 1376245
3 882.416 1367734
3 882.416 1365161
3 883.207 1365145
3 883.207 1363346
3 883.207 1361534
3 883.807 1360339
3 883.807 1359218
3 883.807 1359173
3 884.879 1359157
3 885.399 1355575
3 885.399 1353696
1 888.901 1347684
3 888.901 1343761
3 888.901 1342385
3 896.263 1426660
3 896.263 1406218
3 896.263 1402026
3 896.263 1398063
3 896.263 1394272
3 896.263 1388371
3 896.263 1382062
3 896.263 1379553
3 896.263 1374137
3 896.263 1367819
3 896.263 1360526
3 896.263 1360481
3 897.118 1359414
1 897.118 1356925
3 897.118 1354158
3 897.118 1349264
3 897.118 1345401
3 897.118 1338743
3 897.789 1329059
3 897.789 1325956
3 897.789 1311659
3 897.789 1310949
3 897.789 1300964
3 897.789 1299468
3 898.41 1297960
3 898.41 1297547
3 898.41 1295949
3 898.41 1293096
3 898.41 1291764
3 899.05 1289568
3 899.05 1284954
3 899.05 1284547
3 899.66 1284244
3 899.66 1284047
3 899.66 1282731
3 900.226 1280772
3 900.226 1270506
3 900.226 1270490
3 900.226 1269171
3 901.274 1268982
3 901.274 1268861
3 904.166 1261986
3 905.731 1261941
3 910.401 1462007
3 910.401 1419386
3 910.401 1406890
3 910.401 1400431
3 910.401 1400359
3 910.401 1385796
3 910.401 1385273
3 910.401 1357755
3 910.401 1353792
3 910.401 1345175
3 910.401 1342213
3 910.401 1336443
3 910.401 1334852
3 910.401 1331400
3 910.401 1330300
3 911.294 1322082
3 911.294 1321616
3 911.294 1313182
3 911.294 1312577
3 911.913 1310614
3 911.913 1309269
3 911.913 1302525
3 911.913 1292477
3 912.537 1291828
3 912.537 1282593
3 912.537 1278606
3 913.17 1277690
3 913.702 1277645
3 914.272 1276198
3 914.272 1276158
3 914.272 1274462
3 914.843 1274417
3 915.349 1274304
3 915.855 1273594
3 915.855 1269730
3 915.855 1269678
3 915.855 1268694
3 916.449 1265250
3 916.949 1264903
3 924.072 1435543
3 924.072 1435058
3 924.072 1433859
3 924.072 1428834
3 924.072 1419102
3 924.072 1419057
3 924.072 1397029
3 924.072 1389519
3 924.072 1389079
3 924.072 1380272
3 924.072 1375504
3 924.072 1368501
3 924.072 1361711
3 924.072 1359222
3 925.107 1355730
3 925.107 1347170
3 925.107 1346460
3 925.107 1338121
3 925.107 1336239
3 925.883 1327292
3 925.883 1326042
3 926.492 1326002
3 926.492 1325957
3 927.077 1319381
3 928.062 1318955
3 928.547 1318916
3 928.547 1318871
3 928.547 1316190
3 929.12 1310579
3 929.12 1307192
3 929.12 1302995
3 929.703 1302979
3 935.404 1296122
3 935.404 1289804
3 935.404 1289264
3 935.404 1287512
3 935.984 1283430
3 935.984 1279467
3 936.526 1274466
3 936.526 1273644
3 938.44 1402640
3 938.44 1401523
3 938.44 1382184
3 938.44 1375920
3 938.44 1355596
3 938.44 1350180
3 939.082 1349050
3 939.082 1347268
3 939.082 1339744
3 939.644 1333332
3 940.142 1331870
3 940.142 1331560
3 940.142 1331473
3 940.142 1325920
3 940.765 1324475
3 940.765 1320684
3 942.646 1320407
3 942.646 1319248
1 942.646 1315910
3 942.646 1315894
3 943.315 1314643
3 943.315 1312117
3 943.315 1303724
3 943.883 1302478
3 943.883 1301976
3 943.883 1301570
3 943.883 1298713
3 943.883 1298697
3 944.515 1294205
3 945.013 1293514
3 945.513 1290713
3 945.513 1287818
3 952.237 1424032
3 952.237 1399692
3 952.237 1392404
3 952.237 1384543
3 952.237 1380580
3 952.237 1352018
3 952.237 1346989
3 952.237 1339084
1 952.237 1327315
3 952.237 1310983
3 952.237 1295656
3 952.237 1295611
3 953.611 1291292
3 953.611 1290582
3 954.264 1288787
3 954.797 1287740
3 955.775 1287602
3 956.787 1280056
3 956.787 1279918
3 957.401 1276525
3 957.401 1271407
3 957.953 1270326
3 957.953 1264938
3 959.129 1264228
3 960.104 1263833
3 960.104 1262522
3 964.46 1261321
3 965.054 1260564
3 965.054 1259754
3 966.098 1395173
3 966.098 1394463
1 966.098 1384771
3 966.098 1372474
3 966.098 1352032
3 966.098 1350187
3 966.098 1347484
3 966.823 1340765
3 966.823 1326416
3 966.823 1322288
3 966.823 1321705
3 966.823 1317905
3 966.823 1316467
3 966.823 1311404
3 967.526 1302422
3 967.526 1299782
3 967.526 1295911
3 967.526 1295895
3 968.131 1288220
3 968.646 1286615
3 969.153 1286575
3 969.153 1280796
3 970.213 1278974
3 970.779 1275462
3 971.773 1274719
3 971.773 1273905
3 971.773 1273860
3 972.337 1270179
3 972.337 1263649
3 972.337 1263633
3 972.899 1262115
3 980.191 1470846
3 980.191 1466710
3 980.191 1458805
3 980.191 1449891
3 980.191 1442164
3 980.191 1438246
3 980.191 1432830
3 980.191 1430341
3 980.191 1429679
3 980.191 1425487
3 981.046 1400818
3 981.046 1397326
3 981.046 1349072
3 981.046 1349056
3 981.046 1327028
3 981.046 1326975
3 981.046 1326409
3 981.046 1322116
3 981.046 1316700
3 981.779 1316660
3 981.779 1316615
3 981.779 1312638
3 981.779 1306410
3 981.779 1297195
3 981.779 1295343
3 982.428 1294633
3 982.428 1292742
3 982.428 1289836
3 982.428 1287773
3 982.999 1282195
3 982.999 1280901
3 983.559 1278742
3 983.559 1278361
3 983.559 1277651
3 984.119 1277611
3 985.102 1268852
3 985.626 1268439
3 985.626 1266057
3 986.151 1264240
3 986.721 1262358
3 988.609 1261764
3 988.609 1260849
3 994.031 1475143
3 994.031 1454701
3 994.031 1442404
3 994.031 1418598
3 994.031 1393721
3 994.031 1388965
3 994.031 1385104
3 994.031 1383412
3 994.031 1376047
3 994.031 1354493
3 994.031 1349108
3 994.031 1348184
3 994.031 1344327
3 994.031 1339694
3 994.031 1339649
3 994.969 1338694
3 994.969 1338444
3 995.522 1337785
3 995.522 1337740
3 997.028 1336785
3 997.549 1333205
3 998.063 1331718
3 998.063 1330399
3 999.083 1330121
3 999.586 1330076
3 1001.66 1329207
3 1002.17 1320345
3 1002.17 1320054
3 1002.17 1319344
3 1002.17 1317438
3 1002.17 1315227
3 1002.17 1314630
3 1002.82 1312994
3 1002.82 1311221
3 1002.82 1307876
3 1003.83 1307654
3 1004.8 1298431
3 1004.8 1297734
3 1005.35 1297096
3 1005.35 1294408
3 1005.35 1273802
3 1005.35 1273786
3 1005.95 1271064
3 1006.91 1269916
3 1007.41 1269447
3 1007.95 1269185
3 1007.95 1266835
3 1008.61 1406326
3 1008.61 1397043
3 1008.61 1382480
3 1008.61 1346918
3 1008.61 1342955
1 1008.61 1342524
3 1008.61 1334222
3 1008.61 1325033
3 1009.31 1323587
3 1009.31 1320765
3 1009.31 1320072
3 1009.89 1301084
3 1009.89 1297268
3 1009.89 1294998
3 1010.54 1294953
3 1010.54 1292800
3 1010.54 1292053
3 1010.54 1290923
3 1010.54 1290690
3 1010.54 1284386
3 1010.54 1277583
3 1011.24 1273365
3 1011.24 1270605
3 1011.24 1266413
3 1011.8 1266061
3 1012.3 1265579
3 1012.81 1261587
3 1013.31 1260690
3 1013.81 1260645
3 1021.08 1255891
3 1022.07 1322398
3 1022.07 1319988
3 1022.07 1318296
3 1022.07 1300012
3 1022.07 1291650
3 1022.07 1290408
3 1022.76 1287495
3 1022.76 1282270
3 1022.76 1281469
3 1023.33 1280374
3 1023.33 1278706
3 1023.87 1275917
3 1024.46 1274220
3 1024.46 1273623
3 1025.73 1272294
3 1025.73 1271954
3 1028.6 1270934
3 1030.01 1268787
3 1032.1 1268282
3 1032.1 1267483
3 1035.86 1266237
3 1036.35 1419523
3 1036.35 1407298
3 1036.35 1402185
3 1036.35 1394834
3 1036.35 1381784
3 1036.35 1375075
3 1036.35 1364222
3 1036.35 1335577
3 1036.35 1326929
3 1036.35 1325802
3 1036.35 1316746
3 1036.35 1313524
3 1037.15 1312507
3 1037.15 1306827
3 1037.15 1303763
3 1037.15 1301225
3 1037.15 1297733
3 1037.77 1297710
3 1038.27 1294572
3 1038.27 1290781
3 1038.81 1288702
3 1039.35 1286721
3 1040.77 1286636
3 1040.77 1283263
3 1040.77 1282553
3 1040.77 1280138
3 1042.89 1279550
3 1043.41 1278951
3 1043.91 1275459
3 1050.19 1408940
3 1050.19 1403387
3 1050.19 1396678
3 1050.19 1382836
3 1050.19 1360830
3 1050.19 1345317
3 1050.19 1345301
3 1050.88 1339843
3 1051.39 1331353
3 1051.39 1329823
3 1051.39 1329113
3 1051.39 1326717
3 1051.39 1323225
3 1051.39 1319899
3 1052.04 1319720
3 1052.04 1319033
3 1052.6 1310569
3 1052.6 1305564
3 1052.6 1302631
3 1053.14 1301672
3 1053.64 1296785
3 1053.64 1296194
3 1053.64 1293609
3 1054.19 1293082
3 1055.17 1292551
3 1055.66 1281547
3 1056.16 1275571
3 1056.16 1273350
3 1056.7 1272734
3 1057.21 1270638
3 1057.9 1269403
3 1058.95 1269387
3 1061.15 1268886
3 1064.35 1449355
3 1064.35 1429805
3 1064.35 1425512
3 1064.35 1421320
3 1064.35 1416252
3 1064.35 1395928
3 1064.35 1391882
3 1064.35 1379143
3 1064.35 1365110
3 1064.35 1364625
3 1064.35 1344183
3 1065.11 1326448
3 1065.11 1326408
3 1065.11 1324359
3 1065.11 1315027
3 1065.11 1309981
3 1065.11 1309572
3 1065.78 1307523
3 1065.78 1301470
3 1065.78 1294835
3 1065.78 1292304
3 1066.36 1291005
3 1066.36 1286608
3 1066.89 1286538
3 1067.39 1286521
3 1067.39 1284218
3 1067.39 1283459
3 1067.39 1281774
3 1067.93 1281760
3 1067.93 1280661
3 1067.93 1279812
3 1067.93 1276320
3 1067.93 1275977
3 1068.52 1275214
3 1068.52 1272186
3 1068.52 1271362
3 1069.07 1269306
3 1069.07 1269274
3 1069.07 1268451
3 1070.54 1268199
3 1071.53 1268101
3 1071.53 1266500
3 1071.53 1264558
3 1072.08 1264249
3 1072.08 1264204
3 1072.08 1264164
3 1072.08 1263610
3 1073.08 1260285
3 1073.08 1258865
3 1074.05 1256856
3 1074.05 1254775
3 1075.65 1254076
3 1076.34 1254036
3 1076.34 1253709
3 1078.23 1386265
3 1078.23 1364237
3 1078.23 1359830
3 1078.81 1359201
3 1078.81 1353766
3 1078.81 1348648
3 1079.42 1347057
3 1079.42 1345374
3 1079.42 1333511
3 1080.01 1325419
3 1080.01 1324329
3 1080.01 1322559
3 1080.01 1319988
3 1080.62 1318700
3 1080.62 1317109
3 1081.2 1316799
3 1081.71 1306390
3 1081.71 1304583
3 1082.25 1299120
3 1082.25 1297464
3 1084.2 1288400
3 1085.69 1288306
3 1086.19 1288290
3 1087.16 1287780
3 1087.16 1287041
3 1087.72 1286527
3 1089.19 1286217
3 1090.19 1286196
3 1090.76 1285699
3 1090.76 1285245
3 1091.7 1284935
3 1092.54 1402080
3 1092.54 1398438
3 1092.54 1392885
3 1092.54 1381809
3 1092.54 1377949
3 1092.54 1370989
3 1092.54 1352379
3 1092.54 1344474
3 1092.54 1340511
3 1092.54 1331792
3 1093.67 1327528
3 1093.67 1324965
3 1093.67 1317623
3 1093.67 1317161
3 1093.67 1307626
3 1093.67 1305253
3 1093.67 1302855
3 1095.21 1297857
3 1095.21 1294637
3 1095.21 1290985
3 1095.21 1289447
3 1095.95 1278688
3 1097.51 1278377
3 1106.24 1348420
3 1106.24 1347320
3 1106.24 1346610
3 1106.24 1340914
3 1106.24 1337379
3 1106.24 1330476
3 1106.24 1319140
3 1106.24 1311276
3 1106.24 1301914
3 1106.24 1301459
3 1106.24 1297496
3 1106.24 1289217
3 1107.71 1285296
3 1107.71 1284368
3 1108.37 1284151
3 1109.04 1282669
3 1109.04 1274812
3 1109.75 1272963
3 1110.59 1272175
3 1120.04 1446530
3 1120.04 1422160
3 1120.04 1413610
3 1120.04 1410118
3 1120.04 1404565
3 1120.81 1396580
3 1120.81 1385839
3 1120.81 1371936
3 1120.81 1368610
3 1120.81 1346833
3 1121.47 1343733
3 1121.47 1336337
3 1121.47 1326605
3 1121.47 1321450
3 1122.06 1318807
3 1122.06 1317958
3 1122.6 1317785
3 1122.6 1309527
3 1123.14 1306777
3 1123.14 1303355
3 1123.67 1302858
3 1124.33 1302813
3 1125.61 1301156
3 1125.61 1301073
3 1128.25 1298751
3 1128.25 1296990
3 1129.87 1295447
3 1129.87 1293497
3 1131.53 1292602
3 1133.93 1288811
3 1134.47 1405692
3 1134.47 1400276
3 1134.47 1386116
3 1134.47 1375868
3 1134.47 1370931
3 1134.47 1370221
3 1135.16 1363512
3 1135.16 1360797
3 1135.16 1347166
3 1135.16 1347053
3 1135.16 1344564
3 1135.16 1340518
3 1135.83 1339612
3 1135.83 1335978
3 1135.83 1334297
3 1135.83 1332153
3 1135.83 1329999
3 1135.83 1327525
3 1135.83 1325934
3 1135.83 1322127
3 1135.83 1314453
3 1135.83 1298051
3 1135.83 1298006
3 1136.64 1297700
3 1136.64 1295313
3 1136.64 1289554
3 1136.64 1286126
3 1137.23 1285002
3 1137.23 1283093
3 1137.77 1282335
3 1137.77 1280481
3 1137.77 1280454
3 1137.77 1275175
3 1138.37 1275130
3 1138.37 1271801
3 1139.84 1271091
3 1140.36 1271064
3 1140.87 1270282
3 1142.12 1267484
3 1142.12 1266711
3 1143.22 1266125
3 1148.32 1347695
3 1148.32 1346149
3 1148.32 1343045
3 1148.32 1333473
3 1148.32 1324586
3 1148.32 1317989
3 1148.32 1317350
3 1148.32 1310808
3 1148.32 1307968
3 1149.08 1307670
3 1149.58 1307625
3 1149.58 1304134
3 1149.58 1301363
3 1150.15 1297049
3 1150.15 1294141
3 1150.15 1292450
3 1150.15 1292140
3 1150.72 1291451
3 1150.72 1289259
3 1150.72 1287361
3 1151.34 1286976
3 1151.34 1274364
3 1151.89 1273310
3 1151.89 1271079
3 1151.89 1270194
3 1152.46 1269818
3 1152.46 1268810
3 1153 1268529
3 1153.97 1267274
3 1153.97 1266964
3 1162.19 1467521
3 1162.19 1462570
3 1162.19 1454668
3 1162.19 1447686
3 1162.19 1439163
3 1162.19 1404632
3 1162.19 1393341
3 1162.19 1391509
3 1162.19 1381195
3 1162.19 1380569
3 1163.13 1370311
3 1163.13 1361861
3 1163.13 1357227
3 1163.13 1351653
3 1163.13 1346380
3 1163.13 1321503
3 1163.13 1313740
3 1163.84 1313627
3 1163.84 1309581
3 1163.84 1305790
3 1163.84 1305261
3 1163.84 1302403
3 1163.84 1302259
3 1164.49 1301957
3 1164.49 1300518
3 1164.49 1300391
3 1164.49 1292088
3 1164.49 1290351
3 1165.15 1288226
3 1165.15 1285390
3 1165.15 1281091
3 1165.15 1280107
3 1165.15 1278468
3 1165.77 1275142
3 1165.77 1272784
3 1166.3 1272670
3 1167.28 1272654
3 1167.28 1272539
3 1167.28 1271498
3 1167.28 1269460
3 1167.28 1268863
3 1167.28 1268858
3 1167.94 1267235
3 1167.94 1267122
3 1167.94 1267077
3 1168.51 1263031
1 1176.35 1378968
3 1176.35 1365057
3 1176.35 1362302
3 1176.35 1355850
3 1176.35 1344325
3 1177 1343853
3 1177 1341635
3 1177 1326555
3 1177.59 1322670
3 1177.59 1313107
3 1177.59 1310951
3 1177.59 1296093
3 1177.59 1292288
3 1178.24 1291022
3 1178.24 1289314
3 1178.24 1288807
3 1178.24 1288791
3 1178.24 1287265
3 1178.88 1285245
3 1178.88 1284605
3 1179.42 1284589
3 1179.42 1282845
3 1179.98 1280711
3 1179.98 1280630
3 1180.52 1280585
3 1180.52 1279874
3 1180.52 1279858
3 1180.52 1276606
3 1181.17 1272853
1 1189.95 1272476
3 1190.46 1430316
3 1190.46 1426124
3 1190.46 1425328
3 1190.46 1404886
3 1190.46 1384907
3 1190.46 1382998
3 1190.46 1377480
3 1191.24 1370899
1 1191.24 1359057
3 1191.24 1357148
3 1191.24 1355266
3 1191.24 1351954
3 1191.24 1351262
3 1192.01 1350854
3 1192.01 1345709
3 1192.01 1344999
3 1192.01 1344082
3 1192.74 1332957
3 1193.39 1331513
3 1193.92 1330571
3 1194.44 1329676
3 1194.44 1329631
3 1196.41 1326717
3 1199.31 1325213
3 1201.87 1317599
3 1202.61 1315756
3 1202.61 1315446
3 1204.44 1385074
3 1204.44 1383526
3 1204.44 1377984
3 1204.44 1370143
3 1204.44 1367031
3 1204.44 1366483
3 1205.21 1360787
3 1205.21 1345186
3 1205.21 1328115
3 1205.21 1327789
3 1205.21 1324007
3 1205.85 1318667
3 1205.85 1293835
3 1206.39 1293819
3 1206.39 1289136
3 1206.39 1287563
3 1206.96 1287547
3 1207.49 1285610
3 1208.04 1285565
3 1208.04 1282115
3 1208.04 1280433
3 1208.72 1277058
3 1210.48 1276856
3 1210.48 1276546
3 1210.48 1275100
3 1211.09 1275084
3 1211.6 1274397
3 1211.6 1274352
3 1212.14 1273642
3 1216.43 1267923
3 1218.51 1395883
3 1218.51 1391955
3 1218.51 1389565
3 1218.51 1355580
3 1218.51 1344823
3 1218.51 1328036
3 1218.51 1320743
3 1218.51 1311829
3 1218.51 1310006
3 1219.46 1304953
3 1219.46 1297927
3 1219.46 1295139
3 1219.46 1292578
3 1219.46 1282572
3 1220.07 1278540
3 1220.07 1277875
3 1220.07 1273630
3 1220.63 1273614
3 1220.63 1273057
3 1220.63 1267338
3 1220.63 1267322
3 1220.63 1264262
3 1220.63 1263599
3 1221.3 1260511
3 1221.3 1258659
3 1222.31 1255886
3 1222.31 1255625
3 1222.31 1255580
3 1224.31 1250369
3 1224.88 1250170
3 1232.22 1400483
3 1232.22 1383103
3 1232.22 1373896
3 1232.22 1365000
3 1232.22 1359304
3 1232.22 1359288
3 1232.22 1339309
3 1232.22 1318892
3 1232.22 1317591
3 1232.22 1299081
3 1233.05 1297135
3 1233.05 1292136
3 1233.05 1290016
3 1233.64 1282723
3 1236.47 1282705
3 1236.47 1281261
3 1236.47 1280113
3 1236.47 1280068
3 1236.47 1279771
3 1237.23 1278552
3 1237.23 1272067
3 1237.23 1267569
3 1238.19 1265030
3 1238.19 1262864
3 1238.71 1261881
3 1238.71 1259435
3 1239.78 1259180
3 1239.78 1257980
3 1239.78 1255400
3 1240.32 1255388
3 1240.32 1255197
3 1240.32 1251875
3 1240.87 1247502
3 1241.39 1244386
3 1241.92 1244334
3 1241.92 1243941
3 1242.47 1242942
3 1242.95 1242548
3 1246.19 1395676
3 1246.19 1382553
3 1246.19 1381843
3 1246.19 1380237
3 1246.19 1374541
1 1246.19 1371375
3 1246.19 1362110
3 1246.19 1358897
3 1246.19 1351558
3 1246.19 1350193
3 1246.19 1350177
3 1246.19 1340741
3 1246.19 1337249
3 1246.19 1330130
3 1246.19 1326651
3 1246.19 1319984
3 1247.22 1309488
3 1247.22 1308317
3 1247.22 1306428
3 1247.22 1302220
3 1247.81 1298364
3 1247.81 1295967
3 1247.81 1295951
3 1247.81 1291922
3 1247.81 1291605
3 1248.42 1291498
3 1248.42 1291262
3 1248.95 1291246
3 1250.41 1287283
3 1260.44 1482742
3 1260.44 1446368
3 1260.44 1421154
3 1260.44 1372524
3 1260.44 1364762
3 1260.44 1360570
3 1260.44 1347109
3 1260.44 1330146
3 1260.44 1327012
3 1261.27 1319375
3 1261.27 1317780
3 1261.27 1312227
3 1261.27 1310945
3 1261.27 1305909
3 1261.96 1304884
3 1261.96 1297591
3 1262.51 1297194
3 1262.51 1290332
3 1263.09 1289622
3 1263.09 1287346
3 1263.09 1284741
3 1263.09 1284656
3 1265.13 1280486
3 1265.67 1279944
3 1265.67 1276568
3 1265.67 1276523
3 1266.21 1276145
3 1266.21 1274023
3 1267.19 1271672
3 1267.19 1271627
3 1267.19 1268568
3 1267.73 1267238
3 1267.73 1266134
3 1267.73 1264426
3 1268.81 1263308
3 1269.44 1256252
3 1269.44 1253717
3 1274.31 1420615
3 1274.31 1412125
3 1274.31 1381554
3 1274.31 1381244
3 1274.31 1373139
3 1274.31 1352697
3 1274.31 1337813
3 1275.03 1332729
3 1275.03 1325010
3 1275.03 1320451
3 1275.65 1316483
3 1275.65 1312641
3 1275.65 1312581
3 1275.65 1305820
3 1276.37 1303672
3 1276.37 1301407
3 1276.37 1298602
3 1276.37 1294639
3 1277.05 1290447
3 1277.54 1283586
3 1277.54 1278163
3 1278.04 1277525
3 1278.04 1273434
3 1278.04 1272726
3 1281.41 1271927
3 1282.36 1269880
3 1283.31 1269864
3 1285.46 1268763
3 1288.33 1352603
3 1288.33 1347130
3 1288.33 1340421
3 1288.33 1335481
3 1288.33 1319079
3 1288.98 1313240
3 1288.98 1311124
3 1288.98 1308152
3 1289.53 1306841
3 1289.53 1306155
3 1289.53 1306115
3 1290.09 1296650
3 1290.09 1296383
3 1290.64 1293359
3 1291.95 1293049
3 1302.37 1391359
3 1302.37 1380631
3 1302.37 1357461
3 1302.37 1354135
3 1302.37 1338632
3 1303.02 1332027
3 1303.02 1330033
3 1303.02 1320138
3 1303.02 1305887
3 1303.02 1302019
3 1303.02 1300966
3 1303.02 1300950
3 1303.71 1298620
3 1303.71 1296240
3 1304.24 1295490
3 1305.22 1292589
3 1305.72 1289862
3 1306.34 1289715
3 1306.34 1285657
3 1306.34 1284758
3 1307.15 1284742
3 1316.24 1370200
3 1316.24 1367795
3 1316.24 1361861
3 1316.24 1359177
3 1316.24 1347900
3 1316.24 1344621
3 1316.24 1344605
3 1317.29 1342678
1 1317.29 1337236
3 1317.29 1312359
3 1317.29 1307313
3 1317.29 1304186
3 1317.29 1302782
3 1318.21 1299182
3 1318.21 1298663
3 1318.21 1297188
3 1318.21 1297101
3 1319.1 1294291
3 1319.1 1294275
3 1319.1 1287752
3 1319.1 1284546
3 1319.1 1282336
3 1319.96 1280200
3 1319.96 1280184
3 1319.96 1277516
3 1322.87 1274665
3 1322.87 1274269
3 1323.67 1265062
3 1330.45 1328557
3 1330.45 1326046
3 1330.45 1321300
3 1330.45 1320838
3 1330.45 1314289
3 1330.45 1310361
3 1330.45 1307625
3 1331.48 1305576
3 1332.98 1301236
3 1333.76 1299184
3 1335.25 1296695
3 1335.25 1295331
3 1335.25 1295286
3 1336.08 1292224
3 1336.08 1291732
3 1336.88 1288435
3 1336.88 1281664
3 1336.88 1277606
3 1337.8 1275205
3 1338.57 1272808
3 1338.57 1272211
3 1339.4 1272166
3 1339.4 1271998
3 1340.27 1267907
3 1340.27 1267794
3 1340.27 1265442
3 1341.94 1261492
3 1342.69 1261396
3 1343.52 1259942
3 1343.52 1258332
3 1344.35 1397837
3 1344.35 1397552
3 1344.35 1396842
3 1344.35 1394098
3 1344.35 1388545
3 1344.35 1383323
3 1344.35 1382849
3 1344.35 1367996
3 1345.43 1364033
3 1345.43 1341549
3 1345.43 1335786
3 1345.43 1335741
3 1346.36 1334286
3 1347.15 1333779
3 1347.15 1333319
3 1347.15 1332588
3 1347.15 1328733
3 1347.15 1326026
3 1348.06 1325064
3 1348.06 1321572
3 1349.61 1318091
3 1350.4 1316112
3 1350.4 1315051
3 1350.4 1312421
3 1351.31 1312405
3 1351.31 1311288
3 1351.31 1310063
3 1352.17 1309753
3 1352.94 1305149
3 1353.76 1300718
3 1354.65 1296733
3 1355.44 1293911
3 1355.44 1292868
3 1355.44 1292121
3 1356.27 1291811
3 1356.27 1284539
3 1356.27 1281223
3 1358.69 1361014
3 1358.69 1312202
3 1358.69 1307523
3 1358.69 1307507
3 1358.69 1304292
3 1359.62 1304035
3 1359.62 1303477
3 1360.45 1303461
3 1361.22 1303416
3 1361.99 1302540
3 1362.76 1302362
3 1362.76 1300790
3 1362.76 1298647
3 1363.62 1295757
3 1367.36 1295697
3 1367.36 1295552
3 1367.36 1292880
1 1368.92 1286170
3 1369.73 1282287
3 1371.36 1282142
3 1372.15 1389634
3 1372.15 1382689
3 1372.15 1381692
3 1372.15 1380419
3 1372.15 1372905
3 1372.15 1368219
3 1372.15 1362803
3 1372.15 1359311
3 1372.15 1355520
3 1372.15 1354720
3 1372.15 1341597
3 1372.15 1338334
3 1373.24 1337405
3 1373.24 1335401
3 1374.02 1298510
3 1374.82 1298465
3 1374.82 1297916
3 1374.82 1297650
3 1374.82 1294883
3 1375.76 1291244
3 1375.76 1290759
3 1376.56 1289695
3 1376.56 1288755
3 1377.37 1287891
3 1378.09 1287874
3 1381 1287829
3 1381 1286845
3 1381 1285627
3 1381.82 1283512
3 1381.82 1283127
3 1381.82 1282976
3 1381.82 1280967
3 1384.01 1280927
3 1384.78 1280534
3 1385.57 1273634
3 1386.35 1371794
3 1386.35 1353284
3 1386.35 1353268
3 1387.22 1349187
3 1387.22 1343522
3 1387.22 1339037
3 1388.06 1334315
3 1388.06 1331006
3 1388.06 1330491
3 1388.06 1328107
3 1388.06 1327098
3 1388.06 1322152
1 1389.67 1320864
3 1389.67 1320144
3 1389.67 1317367
3 1389.67 1307191
3 1389.67 1294953
3 1390.55 1294937
3 1390.55 1288765
3 1390.55 1284915
3 1390.55 1284563
3 1390.55 1282688
3 1390.55 1277958
3 1396.27 1276601
3 1400.65 1373526
3 1400.65 1373056
3 1400.65 1361848
3 1400.65 1359496
3 1400.65 1356043
3 1400.65 1337899
3 1400.65 1330224
3 1401.67 1329523
3 1401.67 1329010
3 1402.51 1325828
3 1402.51 1316553
3 1402.51 1316243
3 1403.37 1315086
3 1403.37 1310894
3 1404.15 1301900
3 1404.15 1292667
3 1404.15 1289175
3 1404.95 1289130
3 1404.95 1284648
3 1404.95 1282763
3 1405.77 1279842
3 1406.55 1279242
3 1406.55 1272816
3 1406.55 1266764
3 1406.55 1266537
3 1406.55 1259828
3 1407.44 1259493
3 1407.44 1259004
3 1408.18 1258546
3 1408.18 1257747
3 1408.94 1257037
3 1408.94 1256825
3 1409.67 1256325
3 1410.41 1254916
3 1414.05 1440031
3 1414.05 1434840
3 1414.05 1431198
3 1414.05 1418901
3 1414.05 1416549
3 1414.05 1413057
3 1414.05 1391458
3 1414.05 1382947
3 1414.05 1373144
3 1414.05 1361187
3 1415.13 1358875
3 1415.13 1357475
3 1415.13 1347822
3 1415.13 1340942
3 1416.02 1340309
3 1416.02 1330085
3 1416.02 1330064
3 1416.02 1321177
3 1416.02 1314164
3 1416.02 1310190
3 1416.02 1306018
3 1417 1304557
3 1417 1304536
3 1418.49 1302248
3 1419.94 1300225
3 1419.94 1299915
3 1419.94 1296984
3 1420.76 1295472
3 1420.76 1294290
3 1420.76 1292829
3 1420.76 1287184
3 1421.64 1285564
3 1422.37 1282826
3 1422.37 1280673
3 1422.37 1278918
3 1423.15 1275749
3 1423.15 1269162
3 1423.92 1267693
3 1424.66 1265811
3 1428.25 1361033
3 1428.25 1358307
3 1428.25 1356660
3 1428.25 1350964
3 1428.25 1344255
3 1428.25 1337064
3 1428.25 1331543
3 1428.25 1327251
3 1428.25 1313519
3 1429.33 1310822
3 1429.33 1309698
3 1429.33 1307758
3 1430.18 1304350
3 1430.18 1299206
3 1430.18 1298104
3 1430.18 1292601
3 1430.18 1290661
3 1430.18 1289109
3 1431.83 1288281
3 1433.32 1285997
3 1433.32 1285784
3 1433.32 1279075
3 1433.32 1278878
3 1433.32 1276492
3 1434.19 1276017
3 1434.19 1275863
3 1434.19 1275847
3 1435 1274809
3 1435 1273666
3 1435 1271131
3 1435.81 1267117
3 1437.25 1264813
3 1437.25 1263326
3 1437.25 1262934
3 1438.79 1261825
3 1442.5 1353256
3 1442.5 1344745
3 1442.5 1339405
3 1442.5 1330915
3 1442.5 1330870
3 1442.5 1330567
3 1442.5 1327132
3 1443.46 1326280
3 1443.46 1317919
3 1443.46 1314732
3 1443.46 1305040
3 1443.46 1303644
3 1443.46 1295047
3 1443.46 1282036
3 1444.43 1281726
3 1445.21 1279848
1 1445.94 1277801
3 1445.94 1269909
3 1446.72 1269371
3 1447.53 1269355
3 1449 1269241
3 1449.74 1268058
3 1449.74 1268042
3 1450.53 1267267
3 1452 1267018
3 1456.35 1432328
3 1456.35 1425173
3 1456.35 1398343
3 1456.35 1398051
3 1456.35 1388475
3 1456.35 1387375
3 1456.35 1377375
3 1456.35 1375578
3 1456.35 1369483
3 1457.4 1368821
3 1457.4 1368776
3 1457.4 1367556
3 1457.4 1353862
3 1458.25 1349525
3 1458.25 1348446
3 1458.25 1339956
3 1458.25 1337190
3 1458.25 1328472
3 1459.11 1316409
3 1459.89 1311465
3 1459.89 1309209
3 1460.69 1308642
3 1460.69 1306212
3 1460.69 1304487
3 1460.69 1301469
3 1460.69 1298914
3 1460.69 1298604
3 1460.69 1294412
3 1461.7 1285476
3 1461.7 1283594
3 1461.7 1279631
3 1462.53 1272369
3 1464.01 1271182
3 1464.8 1271166
3 1465.55 1268418
3 1465.55 1267486
3 1466.36 1267012
3 1467.76 1266663
3 1469.89 1264416
3 1470.63 1482471
3 1470.63 1458688
3 1470.63 1454897
3 1470.63 1441774
3 1470.63 1440505
3 1470.63 1433324
3 1470.63 1418761
3 1470.63 1412052
3 1470.63 1411540
3 1470.63 1403322
3 1470.63 1373536
3 1470.63 1344974
3 1470.63 1343605
3 1470.63 1338473
3 1471.85 1333415
3 1471.85 1325698
3 1471.85 1322390
3 1471.85 1321256
3 1471.85 1315840
3 1471.85 1312073
3 1471.85 1311259
3 1472.79 1310353
3 1472.79 1310144
3 1473.63 1310024
3 1473.63 1309550
3 1474.42 1308332
3 1474.42 1303891
3 1475.21 1303563
3 1475.21 1303213
3 1475.21 1299220
3 1476.06 1289474
3 1476.06 1283324
3 1481.76 1280731
3 1481.76 1277908
3 1484.05 1409866
3 1484.05 1397641
3 1484.05 1387949
3 1484.05 1386006
3 1484.05 1361146
3 1484.05 1358366
3 1484.05 1353253
3 1484.05 1344763
3 1484.05 1330200
3 1484.05 1324701
3 1485.13 1319283
3 1485.13 1312775
3 1485.13 1309619
3 1486 1309445
3 1486 1306855
3 1486 1306274
3 1486 1303524
3 1486.84 1295031
3 1486.84 1284937
3 1486.84 1283450
3 1487.68 1282666
3 1487.68 1282650
3 1487.68 1278055
3 1488.49 1278010
3 1489.25 1276142
3 1489.25 1274102
3 1490.06 1273008
3 1490.06 1272416
3 1490.83 1271156
3 1490.83 1271151
3 1491.6 1270617
3 1492.34 1269743
3 1492.34 1269433
3 1492.34 1268449
3 1492.34 1267268
3 1493.92 1266558
3 1495.38 1264504
3 1495.38 1264488
3 1498.44 1386144
3 1498.44 1385942
3 1498.44 1364388
3 1498.44 1360597
3 1498.44 1339176
3 1498.44 1326053
3 1498.44 1319873
3 1498.44 1319851
3 1498.44 1317355
3 1499.47 1315508
3 1499.47 1294280
3 1500.27 1294127
3 1500.27 1293843
3 1500.27 1293827
3 1500.27 1286189
3 1500.27 1285565
3 1501.15 1283870
3 1501.91 1281943
3 1503.38 1280118
3 1503.38 1277629
3 1504.91 1277593
3 1507.76 1276614
3 1509.19 1270959
3 1509.19 1268910
3 1509.19 1266287
3 1509.19 1265418
3 1512.29 1468314
3 1512.29 1450357
3 1512.29 1438060
3 1512.29 1434097
3 1512.29 1422521
3 1512.29 1420169
3 1512.29 1407891
3 1512.29 1404100
3 1512.29 1393225
3 1512.29 1383780
3 1512.29 1378662
3 1512.29 1370444
3 1512.29 1356776
3 1512.29 1347314
3 1512.29 1343397
3 1512.29 1335418
3 1513.58 1333137
3 1513.58 1323455
3 1513.58 1308312
3 1513.58 1303125
3 1514.43 1296046
3 1514.43 1296006
3 1514.43 1288061
3 1514.43 1288021
3 1514.43 1285761
3 1514.43 1284758
3 1514.43 1283658
3 1515.37 1283524
3 1516.13 1281299
3 1516.13 1277516
3 1516.94 1275603
3 1517.7 1270535
3 1517.7 1267141
3 1517.7 1266946
3 1517.7 1266175
3 1518.56 1266135
3 1519.27 1264958
3 1519.27 1264913
3 1520.05 1264880
3 1520.82 1260688
3 1521.58 1253547
3 1521.58 1249619
3 1526.58 1401851
3 1526.58 1390722
3 1526.58 1373662
3 1526.58 1372212
3 1526.58 1371205
3 1526.58 1370326
3 1526.58 1369397
3 1526.58 1368248
3 1527.63 1365237
3 1527.63 1364137
3 1528.43 1361843
3 1528.43 1361568
3 1528.43 1358076
3 1528.43 1352523
3 1528.43 1350711
3 1530.08 1350695
3 1530.88 1344999
1 1533.99 1334383
3 1533.99 1331370
3 1534.58 1324021
3 1534.58 1320504
3 1534.58 1320230
3 1535.14 1318678
3 1535.67 1317734
3 1536.2 1313323
3 1536.2 1311045
3 1536.2 1304161
3 1537.26 1299615
3 1537.26 1294619
3 1538.05 1293215
3 1538.61 1292435
1 1538.61 1288639
3 1538.61 1288623
3 1540.38 1484808
3 1540.38 1458596
3 1540.38 1454633
3 1540.38 1436123
3 1540.38 1423826
3 1540.38 1410853
3 1540.38 1410808
3 1540.38 1404732
3 1540.38 1376170
3 1541.35 1376009
3 1541.35 1371897
3 1541.35 1364262
3 1541.35 1356301
3 1541.35 1339786
3 1542.12 1333181
3 1542.12 1324723
3 1542.12 1319937
3 1542.82 1313423
3 1542.82 1312854
3 1543.38 1309656
3 1543.38 1297492
3 1543.38 1295973
3 1543.38 1293304
3 1543.38 1273945
3 1544.55 1271769
3 1545.09 1270453
3 1550.07 1269326
3 1552.29 1265039
3 1554.44 1459448
3 1554.44 1439006
3 1554.44 1424443
3 1554.44 1402574
3 1554.44 1391948
3 1554.44 1379670
3 1554.44 1375707
3 1554.44 1350642
3 1554.44 1348770
3 1554.44 1346893
3 1555.48 1342378
3 1555.48 1339976
3 1555.48 1337372
3 1555.48 1325075
3 1555.48 1324130
3 1555.48 1323026
3 1555.48 1322961
3 1556.56 1310683
3 1556.56 1309173
3 1556.56 1301992
3 1556.56 1301900
3 1556.56 1295936
3 1556.56 1288906
3 1557.55 1287946
3 1558.33 1285774
3 1558.33 1285448
3 1558.33 1282674
3 1558.33 1281918
3 1559.2 1279429
3 1559.2 1277799
3 1559.94 1272552
3 1560.68 1265964
3 1564.69 1265478
3 1564.69 1265416
3 1564.69 1264941
3 1566.73 1264896
3 1567.37 1264723
3 1568.03 1365162
3 1568.03 1356651
3 1568.03 1353850
3 1568.81 1351653
3 1568.81 1347498
3 1568.81 1345627
3 1568.81 1339754
3 1568.81 1328986
3 1568.81 1328489
3 1569.7 1326436
3 1569.7 1326391
3 1570.44 1323562
3 1570.44 1316560
3 1570.44 1315476
3 1572.46 1314959
3 1572.46 1309238
3 1573.8 1308654
3 1574.47 1304796
3 1574.47 1303198
3 1582.32 1405470
3 1582.32 1390572
3 1582.32 1382863
3 1582.32 1369740
3 1582.32 1364082
3 1582.32 1358666
3 1582.32 1357917
3 1582.32 1355414
3 1583.25 1353011
3 1583.25 1348121
3 1583.25 1347161
3 1583.97 1346886
3 1583.97 1322516
1 1585.9 1313989
3 1585.9 1311438
3 1586.65 1305752
3 1586.65 1298005
3 1586.65 1297418
3 1587.24 1297220
3 1587.76 1296120
3 1587.76 1293445
3 1587.76 1293400
3 1588.35 1291679
3 1588.88 1290969
3 1590.88 1286923
3 1592.94 1284539
3 1592.94 1281988
3 1595.99 1280176
3 1596.52 1399571
3 1596.52 1393863
3 1596.52 1389900
3 1596.52 1370350
3 1596.52 1368578
3 1596.52 1359371
3 1597.73 1343441
3 1597.73 1341162
3 1597.73 1322652
3 1600.38 1321894
3 1601.01 1321269
3 1601.01 1317739
3 1610.28 1414986
3 1610.28 1397048
3 1610.28 1394589
3 1610.28 1376255
3 1610.28 1370219
3 1610.28 1367947
3 1610.28 1361238
3 1611.07 1361124
3 1611.07 1361116
3 1611.07 1358897
3 1611.07 1355405
3 1611.07 1347420
3 1611.07 1330861
3 1611.8 1323568
3 1611.8 1321216
3 1611.8 1319563
3 1611.8 1317236
3 1612.43 1314172
3 1614.47 1304440
3 1620.54 1299832
3 1623.62 1296592
3 1623.62 1295980
3 1624.2 1462003
3 1624.2 1454832
3 1624.2 1429955
3 1624.2 1427603
3 1624.2 1408401
3 1624.2 1403228
3 1624.2 1390105
3 1624.2 1386413
3 1624.2 1364910
3 1625.06 1358762
3 1625.06 1356853
3 1625.06 1345283
3 1625.06 1320701
3 1625.06 1320656
3 1625.06 1315690
3 1625.75 1312588
3 1625.75 1304477
3 1626.81 1300557
3 1626.81 1299457
3 1626.81 1299057
3 1626.81 1298589
3 1627.42 1294572
3 1627.95 1293213
3 1629.44 1291705
3 1629.44 1290110
3 1629.44 1289613
3 1629.44 1288375
3 1630.07 1287702
3 1630.07 1286784
3 1630.63 1286562
3 1630.63 1282771
3 1631.24 1279415
3 1632.25 1278705
3 1633.74 1273549
3 1634.27 1271458
3 1634.78 1270748
3 1635.31 1269938
3 1635.31 1268287
3 1635.85 1268155
3 1635.85 1266662
3 1636.42 1265377
3 1636.95 1265332
3 1638.44 1455534
3 1638.44 1453943
3 1638.44 1410657
1 1638.44 1382597
3 1638.44 1378613
3 1638.44 1374822
3 1638.44 1374112
3 1639.18 1372933
3 1639.18 1364486
3 1639.18 1363497
3 1639.18 1361095
3 1639.84 1355679
3 1639.84 1342929
3 1639.84 1339815
3 1639.84 1333197
3 1640.5 1327043
3 1640.5 1324979
3 1642.61 1321591
3 1642.61 1321308
3 1651.88 1318088
3 1651.88 1314015
3 1652.45 1387060
3 1652.45 1370046
3 1652.45 1366650
3 1652.45 1362687
3 1652.45 1359783
3 1653.14 1355992
3 1653.14 1354936
3 1653.14 1348148
3 1653.14 1345707
3 1653.77 1332584
3 1653.77 1332281
3 1653.77 1331436
3 1653.77 1331176
3 1653.77 1330146
3 1654.41 1326654
3 1654.41 1323721
3 1654.41 1323676
3 1655.01 1303234
3 1661.08 1298158
3 1661.08 1296524
1 1664.14 1295903
3 1664.14 1293459
3 1666.44 1415478
3 1666.44 1410361
3 1666.44 1398064
3 1666.44 1398019
3 1666.44 1387241
3 1666.44 1368830
3 1667.4 1366844
3 1667.4 1366534
3 1667.4 1357206
3 1668.26 1356179
3 1668.26 1327865
3 1669.05 1324957
3 1669.05 1316653
3 1669.05 1312762
3 1669.87 1309769
3 1680.15 1354108
3 1680.15 1353273
3 1680.15 1353232
3 1680.15 1350184
3 1680.15 1347161
3 1680.15 1341821
3 1680.15 1335192
3 1680.15 1334932
3 1681.16 1333916
3 1681.16 1333900
3 1681.16 1325470
3 1681.16 1316263
3 1681.16 1310567
3 1681.16 1310171
3 1682.73 1304068
3 1682.73 1303129
3 1683.49 1303113
3 1683.49 1302717
3 1683.49 1298266
3 1685.65 1297164
3 1685.65 1290286
3 1685.65 1289070
3 1694.27 1339410
3 1694.27 1337855
3 1694.27 1327683
3 1695.08 1324413
3 1695.08 1317808
3 1695.08 1314288
3 1695.08 1313578
3 1695.08 1313544
3 1695.94 1313257
3 1695.94 1308069
3 1695.94 1307848
3 1695.94 1305569
3 1695.94 1304356
3 1697.49 1304201
3 1697.49 1302873
3 1697.49 1300782
3 1698.32 1300295
3 1699.09 1298035
3 1699.09 1294072
3 1699.89 1294032
3 1699.89 1293910
3 1700.67 1293311
3 1700.67 1286435
3 1701.47 1282472
3 1701.47 1281535
3 1701.47 1281490
3 1701.47 1276304
3 1702.37 1272641
3 1703.14 1269788
3 1703.14 1269246
3 1703.14 1268536
3 1703.14 1264296
3 1703.14 1262323
3 1703.14 1260588
3 1703.14 1260363
3 1705.5 1260048
3 1706.24 1254798
3 1707.01 1250756
3 1707.01 1250358
3 1707.77 1249818
3 1708.48 1423392
3 1708.48 1404625
3 1708.48 1403630
3 1708.48 1399839
3 1708.48 1398922
3 1708.48 1398212
3 1708.48 1389701
3 1709.48 1385738
3 1709.48 1370161
3 1709.48 1367228
3 1709.48 1366807
3 1709.48 1350293
3 1709.48 1344832
3 1709.48 1336402
3 1710.44 1333081
3 1710.44 1332247
3 1711.26 1329094
3 1711.26 1325133
3 1711.26 1323036
3 1712.08 1316643
3 1712.08 1316242
3 1712.08 1303949
3 1712.08 1297378
3 1712.08 1294205
3 1712.96 1289348
3 1712.96 1285385
3 1712.96 1285362
3 1712.96 1280962
3 1712.96 1274051
3 1713.81 1268521
3 1713.81 1268505
3 1714.62 1268318
3 1714.62 1267325
3 1715.49 1265424
3 1717.05 1264714
3 1717.05 1264324
3 1718.6 1259920
3 1722.32 1423304
1 1722.32 1416123
3 1722.32 1406391
3 1722.32 1379033
3 1722.32 1378625
3 1722.32 1376743
3 1722.32 1372780
3 1722.32 1370871
3 1723.33 1366283
3 1723.33 1356824
3 1723.33 1349658
3 1724.18 1340306
3 1724.18 1339543
3 1724.18 1339206
3 1725 1339129
3 1725 1332601
3 1725 1330458
3 1725 1305685
3 1725 1298286
3 1725 1296629
3 1725 1290985
3 1725.95 1290135
3 1726.7 1289350
3 1726.7 1288548
3 1727.5 1286623
3 1728.26 1283944
3 1729.03 1283179
3 1734.34 1268941
3 1734.34 1268794
3 1735.17 1264427
3 1735.92 1263963
3 1736.68 1348723
3 1736.68 1340233
3 1736.68 1328770
3 1736.68 1326348
3 1736.68 1293328
3 1736.68 1285992
3 1736.68 1281315
3 1736.68 1281303
3 1737.69 1278518
3 1737.69 1277731
3 1737.69 1271595
3 1737.69 1269379
3 1737.69 1269363
3 1737.69 1267182
3 1737.69 1266736
3 1738.62 1266284
3 1744.19 1263853
3 1747.18 1263142
3 1748.66 1260761
3 1748.66 1257882
3 1750.26 1439175
3 1750.26 1429183
3 1750.26 1416886
3 1750.26 1412650
3 1750.26 1371997
3 1750.26 1363013
3 1750.26 1362900
3 1750.26 1362855
3 1750.26 1362632
3 1751.4 1355357
3 1751.4 1336847
3 1751.4 1331151
3 1751.4 1329786
3 1752.31 1329249
3 1752.31 1323833
3 1753.1 1318389
3 1753.87 1315121
3 1753.87 1312317
3 1754.7 1311771
3 1755.47 1308390
3 1755.47 1307463
3 1756.25 1305435
3 1757.77 1299281
3 1757.77 1298551
3 1764.46 1441129
3 1764.46 1419088
3 1764.46 1407361
3 1764.46 1406038
3 1764.46 1400054
3 1764.46 1396728
3 1764.46 1391175
3 1764.46 1369576
3 1764.46 1349994
3 1764.46 1333655
3 1765.53 1333598
3 1765.53 1331143
3 1765.53 1325437
3 1767.09 1315981
3 1767.09 1307470
3 1767.91 1307454
3 1767.91 1302428
3 1767.91 1299024
3 1771.58 1296875
3 1778.68 1417506
3 1778.68 1413715
3 1778.68 1404023
3 1778.68 1399776
3 1778.68 1395813
3 1778.68 1381250
3 1778.68 1377762
3 1778.68 1376662
3 1778.68 1348295
3 1778.68 1340213
3 1778.68 1335545
3 1779.81 1326890
3 1779.81 1324454
3 1782.79 1320645
3 1782.79 1310762
3 1782.79 1308018
3 1782.79 1302144
3 1783.64 1293121
3 1792.07 1428730
3 1792.07 1418737
3 1792.07 1401354
3 1792.07 1384752
3 1792.07 1383435
3 1792.07 1380946
3 1792.07 1374045
3 1792.07 1371214
3 1792.07 1367232
3 1792.07 1364905
3 1793.14 1360858
3 1793.14 1331859
3 1793.14 1329840
3 1793.96 1328537
3 1793.96 1327657
3 1793.96 1324280
3 1793.96 1323682
3 1793.96 1319527
3 1794.84 1318987
3 1794.84 1314843
3 1794.84 1313347
3 1794.84 1311220
3 1795.71 1308501
3 1795.71 1301896
3 1795.71 1296203
3 1795.71 1293469
3 1795.71 1293429
3 1795.71 1292240
3 1795.71 1292224
3 1795.71 1287345
3 1795.71 1286546
3 1796.59 1284946
3 1797.07 1284508
3 1797.57 1284385
3 1797.57 1282225
3 1797.57 1276672
3 1797.57 1276136
3 1798.57 1276096
3 1802.24 1275446
3 1803.18 1275430
3 1803.18 1269637
3 1803.18 1268863
3 1804.18 1268553
3 1805.14 1266808
3 1805.66 1264968
3 1805.66 1264908
3 1806.18 1365124
3 1806.18 1359428
3 1806.18 1345345
3 1806.18 1323625
3 1806.18 1322915
3 1806.18 1315010
3 1806.18 1311518
3 1806.18 1305028
3 1806.18 1303973
3 1806.18 1303007
3 1806.94 1295381
3 1806.94 1295311
3 1806.94 1284103
3 1807.62 1281124
3 1808.13 1280929
3 1808.13 1280913
3 1809.79 1279632
3 1809.79 1279035
3 1810.31 1278990
3 1810.87 1278331
3 1811.38 1277317
3 1811.38 1276180
3 1811.38 1271622
3 1811.95 1269766
3 1812.45 1269721
3 1812.95 1268863
3 1813.44 1268194
3 1813.93 1268180
3 1813.93 1268067
3 1813.93 1265907
3 1813.93 1264746
3 1813.93 1264701
3 1814.53 1264643
3 1815.02 1262313
3 1815.02 1261377
3 1815.53 1258750
3 1816.03 1255995
3 1816.51 1252204
3 1820.2 1418188
3 1820.2 1412772
3 1820.2 1401137
3 1820.2 1392647
3 1820.2 1352792
3 1820.2 1349138
3 1820.2 1335782
3 1820.2 1327158
3 1820.94 1322452
3 1820.94 1309329
3 1820.94 1302732
3 1820.94 1302719
3 1820.94 1299421
3 1820.94 1294699
3 1821.59 1290214
3 1821.59 1289561
3 1822.12 1289516
3 1822.12 1288657
3 1822.12 1286197
3 1822.12 1285553
3 1822.12 1285000
3 1822.12 1284955
3 1822.74 1279006
3 1822.74 1278507
3 1823.27 1277797
3 1823.27 1277501
3 1823.79 1276777
3 1823.79 1275894
3 1823.79 1275478
3 1823.79 1273222
3 1824.47 1272754
3 1826.63 1272181
3 1826.63 1271081
3 1827.17 1270990
3 1828.15 1270945
3 1829.11 1267806
3 1829.11 1267366
3 1829.11 1266629
3 1829.68 1265362
3 1830.18 1265317
3 1834.45 1371377
3 1834.45 1361645
3 1834.45 1343135
3 1834.45 1337857
3 1835.07 1335482
3 1835.07 1316019
3 1835.07 1303855
3 1835.07 1298302
3 1835.07 1298070
3 1835.07 1294107
3 1836.73 1293248
3 1836.73 1292671
3 1836.73 1284641
3 1836.73 1284596
3 1836.73 1283419
3 1837.36 1283053
3 1837.36 1281250
3 1837.36 1281228
3 1837.93 1280213
3 1837.93 1277192
3 1838.93 1276789
3 1839.44 1275940
3 1839.94 1275850
3 1840.44 1275834
3 1840.44 1274623
3 1845.12 1274180
3 1845.12 1273940
3 1845.65 1273644
3 1845.65 1273599
3 1845.65 1269899
3 1846.73 1268680
3 1846.73 1267464
3 1847.26 1267325
3 1848.27 1390448
3 1848.27 1356463
3 1848.27 1353630
3 1848.27 1350767
3 1848.27 1348196
3 1848.27 1345449
3 1848.27 1340847
3 1848.27 1339978
3 1848.27 1336015
3 1848.27 1321452
3 1849.2 1318684
3 1849.2 1314893
3 1849.2 1312941
3 1849.2 1312896
3 1849.8 1307531
3 1850.33 1307141
3 1850.33 1307101
3 1850.89 1303609
3 1850.89 1303564
3 1851.42 1300022
3 1851.42 1299977
3 1851.42 1299202
3 1851.42 1293649
3 1852.03 1291092
3 1852.03 1290709
3 1854.96 1288319
3 1854.96 1281026
3 1856.93 1279959
3 1856.93 1275329
3 1857.62 1273553
3 1858.79 1272778
3 1862.35 1455245
3 1862.35 1441790
3 1862.35 1428667
3 1862.35 1424475
3 1862.35 1369904
3 1862.35 1332628
3 1863.11 1328837
3 1863.11 1319526
3 1863.11 1318278
3 1863.7 1318157
3 1863.7 1316439
3 1865.71 1315322
3 1865.71 1312952
3 1865.71 1307066
3 1865.71 1300536
3 1865.71 1291724
3 1866.35 1289372
3 1866.35 1289327
3 1866.35 1281496
3 1866.35 1277163
3 1866.95 1277050
3 1866.95 1276537
3 1866.95 1273986
3 1867.54 1272204
3 1867.54 1270812
3 1868.08 1269985
3 1868.57 1269940
3 1870 1267451
3 1876.17 1401021
3 1876.17 1392682
3 1876.17 1391102
3 1876.17 1391057
1 1876.17 1357005
3 1876.17 1353936
3 1876.17 1353226
3 1876.17 1327302
3 1876.17 1325165
3 1876.17 1321202
3 1876.96 1312984
3 1877.47 1307154
3 1877.47 1303172
3 1878.01 1298045
3 1878.53 1293480
3 1880.94 1290781
3 1880.94 1286770
3 1888.9 1285775
3 1889.42 1285630
3 1890.37 1381341
3 1890.37 1375925
3 1890.37 1363628
3 1890.37 1351865
3 1890.37 1347710
3 1891.11 1347000
3 1891.11 1346356
3 1891.11 1345987
3 1891.11 1340221
3 1891.11 1338701
3 1891.77 1328494
3 1891.77 1320970
3 1891.77 1320641
3 1891.77 1319508
3 1891.77 1312221
3 1892.4 1310684
3 1892.4 1310592
1 1892.4 1308908
3 1893.01 1308013
3 1893.01 1305524
3 1893.01 1299828
3 1893.01 1299351
3 1893.63 1289945
3 1894.14 1289795
3 1894.14 1288451
3 1894.14 1287135
3 1894.71 1287095
3 1894.71 1284007
3 1894.71 1283641
3 1894.71 1283331
3 1894.71 1282888
3 1895.83 1282650
3 1895.83 1282120
3 1895.83 1281244
3 1895.83 1281061
3 1896.43 1279443
3 1896.94 1278733
3 1897.92 1276197
3 1898.89 1275466
3 1898.89 1275156
3 1900.88 1274979
3 1900.88 1271938
3 1901.42 1270619
3 1901.92 1267899
3 1902.4 1267686
3 1904.32 1391127
3 1904.32 1377341
3 1904.32 1369002
3 1904.32 1349452
3 1904.32 1347735
3 1904.95 1343772
3 1904.95 1331547
3 1904.95 1330346
3 1905.52 1317600
3 1906.52 1310557
3 1906.52 1306621
3 1909.49 1306485
3 1910.02 1303106
3 1910.53 1301617
3 1911.8 1299143
3 1911.8 1299127
3 1918.29 1387077
3 1918.29 1380368
3 1918.29 1377304
3 1918.29 1356755
3 1918.9 1354717
3 1919.41 1348059
3 1919.41 1346274
3 1919.41 1339390
3 1919.41 1334662
3 1920.08 1334121
3 1920.08 1331103
3 1920.08 1330871
3 1920.08 1329308
3 1920.08 1326965
3 1920.71 1324470
3 1920.71 1308762
3 1920.71 1308298
3 1921.32 1308052
3 1921.82 1306883
3 1921.82 1303138
3 1921.82 1301298
3 1921.82 1299943
3 1922.42 1298393
3 1922.94 1297797
3 1924.4 1297259
3 1924.4 1297214
3 1924.98 1291209
3 1925.49 1289748
3 1925.49 1289310
3 1926.01 1287323
3 1926.51 1286272
3 1926.51 1286227
3 1927.03 1285974
3 1928.02 1285519
3 1932.3 1347654
3 1932.3 1346789
3 1932.3 1341236
3 1932.3 1334527
3 1932.3 1328576
3 1932.3 1328253
3 1932.3 1327543
3 1932.3 1321502
3 1932.3 1314793
3 1933.04 1314203
3 1933.04 1311331
3 1933.04 1308199
3 1933.04 1298612
3 1933.04 1295902
3 1933.65 1291066
3 1933.65 1286170
3 1935.12 1285511
3 1938.5 1280010
3 1938.5 1273772
3 1939.03 1273140
3 1939.03 1272323
3 1939.03 1270012
3 1939.6 1269967
3 1940.56 1269926
3 1940.56 1268503
3 1940.56 1267108
3 1941.64 1267063
3 1946.31 1404100
3 1946.31 1387951
3 1946.31 1372030
3 1946.31 1370860
3 1946.31 1366897
3 1946.31 1358407
1 1946.31 1347913
3 1946.31 1347897
3 1946.31 1344106
3 1946.31 1335676
3 1947.04 1321307
3 1947.04 1319793
3 1947.04 1315206
3 1947.6 1314810
3 1947.6 1310730
3 1947.6 1310477
3 1947.6 1296328
3 1947.6 1292599
3 1948.21 1290719
3 1948.21 1289106
3 1948.21 1284772
3 1948.21 1283720
3 1948.21 1278641
3 1948.82 1278625
3 1948.82 1275209
3 1948.82 1268625
3 1949.86 1265493
3 1949.86 1262001
3 1950.38 1261985
3 1951.37 1260353
3 1951.37 1258932
3 1951.37 1258928
3 1951.96 1258916
3 1952.91 1258247
3 1953.41 1257570
3 1953.92 1257554
3 1958.61 1257519
3 1959.55 1256896
3 1959.55 1256880
3 1960.07 1420418
3 1960.07 1414286
3 1960.07 1375588
3 1960.07 1374284
3 1960.07 1369331
3 1960.07 1367266
3 1960.07 1363936
3 1960.07 1319091
3 1960.07 1319046
3 1960.84 1316672
3 1960.84 1309963
3 1963.74 1304780
3 1963.74 1304667
3 1964.27 1300039
3 1964.27 1295374
3 1964.27 1295329
3 1965.28 1291528
3 1970.97 1291283
3 1972.43 1290033
3 1974.38 1416482
3 1974.38 1396932
3 1974.38 1387240
3 1974.38 1371459
3 1974.38 1370564
3 1974.38 1366293
3 1974.38 1365011
3 1974.38 1355720
3 1974.38 1350375
3 1974.38 1349089
3 1974.38 1346412
1 1975.17 1345287
3 1975.17 1345247
3 1975.17 1344816
3 1975.17 1342455
3 1975.17 1340907
3 1975.17 1337403
3 1975.83 1337363
3 1975.83 1336396
3 1976.37 1334903
3 1976.37 1334636
3 1977.38 1333600
3 1977.38 1329567
3 1977.38 1327518
3 1977.38 1321460
3 1977.38 1321017
3 1977.38 1312506
3 1978.02 1312466
3 1978.02 1308974
3 1979.04 1296799
3 1980.52 1294580
3 1980.52 1294535
3 1981.1 1291070
3 1981.6 1291043
3 1985.97 1287772
3 1985.97 1287463
3 1988.37 1342771
3 1988.37 1320096
3 1988.37 1319175
3 1988.37 1313759
3 1988.37 1311982
3 1988.37 1308730
3 1989.01 1306607
3 1989.01 1304273
3 1989.01 1303267
3 1989.01 1303185
3 1990.1 1302669
3 1990.1 1299895
3 1990.1 1282018
3 1990.67 1281385
3 1990.67 1277863
3 1991.73 1268978
3 1992.23 1264026
3 1992.23 1261824
3 1992.76 1261813
3 1992.76 1258718
3 1993.29 1258508
3 1993.29 1256594
3 1994.32 1255687
3 1995.29 1252959
3 1995.79 1252825
3 2002.28 1344278
3 2002.28 1337394
3 2002.28 1313578
3 2002.28 1309285
3 2002.28 1307580
3 2002.28 1302824
3 2002.28 1301731
3 2003.01 1301661
3 2003.01 1301509
3 2003.01 1301199
3 2003.01 1286803
3 2003.01 1285829
3 2003.64 1285232
3 2003.64 1280165
3 2003.64 1273469
3 2003.64 1272084
3 2004.23 1271602
3 2004.76 1269902
3 2005.71 1267088
3 2006.19 1266537
3 2006.68 1261119
3 2006.68 1260723
3 2007.2 1260522
3 2007.71 1259812
3 2009.09 1258744
3 2009.09 1256639
3 2009.64 1256329
3 2010.16 1256157
3 2010.16 1255246
3 2014.76 1255206
3 2016.3 1426379
3 2016.3 1415934
3 2016.3 1414037
3 2016.3 1402811
3 2016.3 1399319
3 2016.3 1380809
3 2016.97 1367212
3 2016.97 1361796
3 2016.97 1359988
3 2016.97 1356496
3 2017.56 1351053
3 2017.56 1345500
3 2018.09 1341779
3 2018.09 1334255
3 2018.09 1331337
3 2019.6 1328559
1 2024.89 1327003
3 2024.89 1323511
3 2025.43 1322634
3 2025.43 1321348
3 2025.43 1320820
3 2025.43 1311820
3 2025.43 1311775
3 2026.49 1307612
3 2026.98 1304873
3 2026.98 1302867
3 2026.98 1297406
3 2027.54 1296699
3 2028.03 1294676
3 2029.96 1294392
3 2030.45 1394952
3 2030.45 1382727
3 2030.45 1360278
3 2030.45 1347415
3 2030.45 1337825
3 2030.45 1328133
3 2030.45 1328109
3 2030.45 1325153
3 2030.45 1325108
3 2030.45 1323015
3 2030.45 1322991
3 2031.27 1317718
3 2031.27 1317295
3 2031.27 1315849
3 2031.27 1313040
3 2031.84 1312690
3 2032.41 1311437
3 2032.92 1310479
3 2032.92 1308515
3 2032.92 1303892
3 2032.92 1302792
3 2033.53 1302049
3 2034.03 1298380
3 2034.03 1297313
3 2034.03 1292505
3 2034.03 1291795
3 2034.59 1289653
3 2034.59 1285800
3 2035.56 1285256
3 2035.56 1284529
3 2035.56 1283973
3 2039.3 1281781
3 2044.09 1395489
3 2044.09 1394932
3 2044.09 1391141
3 2044.09 1381486
3 2044.09 1380776
3 2044.09 1371891
3 2044.09 1371865
3 2044.81 1364150
3 2044.81 1361764
3 2044.81 1358471
3 2044.81 1350833
3 2045.41 1339961
3 2045.41 1334066
3 2045.96 1329198
3 2046.5 1325706
3 2046.5 1319720
3 2046.5 1312565
3 2047.54 1305864
3 2048.04 1303839
3 2048.04 1301757
3 2048.62 1299438
3 2048.62 1297815
3 2048.62 1295040
3 2049.67 1292513
3 2051.6 1292117
3 2058.41 1434527
3 2058.41 1409650
3 2058.41 1398621
3 2058.41 1390261
3 2058.41 1387791
3 2058.41 1378099
3 2058.41 1377019
3 2058.41 1368680
3 2058.41 1359489
3 2058.41 1347696
3 2058.41 1347410
1 2059.16 1343159
3 2059.16 1335060
3 2059.16 1323852
3 2059.16 1323477
3 2060.3 1321856
3 2060.3 1318364
3 2060.3 1308451
3 2060.3 1303721
3 2061.01 1299060
3 2061.01 1291886
3 2061.01 1290630
3 2061.01 1285111
3 2061.86 1279664
3 2061.86 1279211
3 2061.86 1278650
3 2062.65 1276243
3 2062.65 1276227
3 2062.65 1273840
3 2063.45 1267716
3 2069.97 1267660
3 2069.97 1266950
3 2071.45 1266905
3 2072.2 1386714
3 2072.2 1385916
3 2072.2 1384310
3 2072.2 1378490
3 2072.2 1369717
3 2072.2 1364030
3 2072.2 1360013
3 2072.2 1356050
3 2072.2 1337540
3 2073.23 1330421
3 2073.23 1327139
3 2073.23 1321541
3 2073.23 1320831
3 2074.09 1316418
3 2074.09 1309938
3 2074.09 1306615
3 2074.09 1306599
3 2074.97 1305979
3 2074.97 1302595
3 2074.97 1297853
3 2074.97 1294291
3 2074.97 1293581
3 2077.78 1284499
3 2078.32 1283535
3 2078.32 1282329
3 2078.87 1280353
3 2078.87 1277802
3 2079.48 1277237
3 2079.48 1274852
3 2080.04 1271041
3 2081.11 1268951
3 2081.11 1268708
3 2084 1264516
3 2086.36 1394528
3 2086.36 1392100
3 2086.36 1388848
3 2086.36 1388803
3 2086.36 1368361
3 2086.36 1362665
3 2086.36 1355518
3 2087.41 1350102
3 2087.41 1343183
3 2087.41 1334693
3 2087.41 1323579
3 2089.07 1318226
3 2089.84 1313291
3 2090.63 1309799
3 2092.15 1309217
3 2092.15 1308117
3 2092.15 1307144
3 2092.99 1306569
3 2092.99 1303077
3 2094.53 1303061
3 2098.87 1301846
3 2100.41 1376497
3 2100.41 1339744
3 2100.41 1335797
3 2100.41 1334484
3 2100.41 1333269
3 2100.41 1324738
3 2100.41 1323875
3 2101.37 1320764
3 2101.37 1316986
3 2102.14 1311433
3 2102.14 1304054
3 2102.9 1302364
3 2102.9 1299144
3 2102.9 1298434
3 2102.9 1295543
3 2102.9 1290805
3 2103.76 1286643
3 2103.76 1285109
3 2104.55 1284399
3 2106.71 1280716
3 2106.71 1277690
3 2114.51 1447852
3 2114.51 1441333
3 2114.51 1434623
3 2114.51 1424931
3 2114.51 1417888
3 2114.51 1414869
3 2114.51 1408456
3 2114.51 1406399
3 2114.51 1401382
3 2114.51 1398056
3 2114.51 1389465
3 2114.51 1379782
3 2114.51 1377830
3 2115.68 1376689
1 2115.68 1345142
3 2115.68 1344600
3 2115.68 1341586
1 2115.68 1340067
3 2116.66 1330384
3 2116.66 1326741
3 2116.66 1326126
3 2116.66 1320004
3 2116.66 1319240
3 2116.66 1316969
3 2116.66 1313544
3 2116.66 1305931
3 2116.66 1303574
3 2117.69 1302599
3 2117.69 1301193
3 2117.69 1300082
3 2119.25 1297075
3 2120.03 1286754
3 2120.03 1286722
3 2120.03 1284557
3 2121.62 1282963
3 2128.3 1464637
3 2128.3 1456075
3 2128.3 1446343
3 2128.3 1434179
3 2128.3 1428552
3 2128.3 1421901
3 2128.3 1403291
3 2128.3 1384826
3 2128.3 1378970
3 2128.3 1377235
3 2128.3 1377011
3 2129.47 1373685
3 2129.47 1371776
3 2129.47 1361679
3 2129.47 1359797
3 2129.47 1354381
3 2130.4 1348275
3 2130.4 1347500
3 2131.25 1335882
3 2131.25 1335866
3 2131.25 1327860
3 2131.25 1326558
3 2131.25 1323066
3 2132.14 1322950
3 2132.14 1321018
3 2132.14 1319640
3 2132.97 1319624
1 2132.97 1308973
3 2133.75 1308274
3 2138.22 1302430
3 2138.98 1302099
3 2138.98 1298947
3 2140.48 1298558
3 2141.3 1298542
3 2142.12 1385177
3 2142.12 1370183
3 2142.12 1351673
3 2142.12 1349764
3 2142.12 1348912
3 2142.12 1334775
3 2142.12 1334168
3 2142.12 1333098
3 2143.17 1305038
3 2143.17 1300901
3 2143.17 1291776
3 2143.98 1290878
3 2145.44 1290515
3 2145.44 1290499
3 2146.21 1281063
3 2148.36 1279026
3 2149.09 1278825
3 2149.83 1277905
3 2156.25 1366533
3 2156.25 1360672
3 2156.25 1360362
3 2156.25 1358358
3 2156.25 1356311
3 2156.25 1352119
3 2156.25 1351791
3 2156.25 1346375
3 2157.22 1339847
3 2157.22 1338964
3 2157.96 1337190
1 2157.96 1334617
3 2157.96 1331698
3 2157.96 1317645
3 2157.96 1312229
3 2158.81 1301773
3 2160.22 1289048
3 2160.22 1287421
3 2160.22 1279649
3 2160.22 1278343
3 2161.06 1277689
3 2161.77 1277238
3 2161.77 1277222
3 2162.51 1277182
3 2162.51 1275553
3 2163.26 1271669
3 2168.64 1271629
3 2170.1 1355895
3 2170.1 1353702
3 2170.1 1350524
3 2170.1 1346561
3 2170.1 1337949
3 2170.1 1337614
3 2170.1 1333133
3 2170.1 1332198
3 2170.1 1318592
3 2170.1 1317669
3 2170.1 1312040
3 2170.1 1311902
3 2170.95 1297143
3 2170.95 1291727
3 2170.95 1288116
3 2171.55 1284434
3 2171.55 1280952
3 2172.09 1278812
3 2172.65 1277604
3 2172.65 1277588
3 2174.09 1277503
3 2174.58 1273311
3 2174.58 1272087
3 2174.58 1270983
3 2180.19 1270787
3 2184.02 1431084
3 2184.02 1423404
3 2184.02 1409485
3 2184.02 1399793
3 2184.02 1391303
3 2184.02 1384802
3 2184.02 1379249
3 2184.02 1375757
3 2184.02 1373367
3 2184.02 1369576
3 2184.02 1362283
3 2184.02 1359225
3 2184.86 1358515
3 2184.86 1357853
3 2184.86 1356098
3 2184.86 1345267
3 2184.86 1345251
3 2184.86 1344567
3 2185.57 1343857
3 2185.57 1339829
3 2185.57 1331331
3 2185.57 1331071
3 2185.57 1327455
3 2186.21 1316451
3 2186.21 1312690
3 2186.21 1306128
3 2186.21 1294454
3 2186.21 1283847
3 2186.21 1279651
3 2187.37 1273597
3 2187.37 1272933
3 2187.37 1271198
3 2187.37 1268758
3 2187.97 1268333
3 2187.97 1263208
3 2187.97 1263163
3 2187.97 1262063
3 2189.98 1261986
3 2190.49 1258110
3 2190.49 1257497
3 2191.07 1255305
3 2196.95 1252272
3 2196.95 1252227
3 2198.44 1430485
3 2198.44 1424789
3 2198.44 1418307
3 2198.44 1408125
3 2198.44 1399797
3 2198.44 1396545
3 2198.44 1386506
3 2198.44 1378694
3 2198.44 1377725
3 2198.44 1363144
3 2198.44 1353020
3 2198.44 1337832
3 2199.26 1334523
3 2199.26 1328970
3 2199.26 1325491
3 2199.26 1316745
3 2199.26 1307502
3 2199.26 1307068
3 2199.91 1298469
3 2199.91 1290666
3 2200.46 1290260
3 2200.46 1290215
3 2201.03 1288122
3 2201.55 1287414
3 2212.03 1364115
3 2212.03 1363919
3 2212.03 1363494
3 2212.03 1358699
3 2212.03 1356118
3 2212.03 1352626
3 2212.03 1335857
3 2212.03 1333756
3 2212.03 1330543
3 2212.03 1320851
3 2212.79 1319898
3 2212.79 1319502
3 2212.79 1317147
3 2212.79 1316010
3 2212.79 1309300
3 2212.79 1307375
3 2213.47 1306901
3 2213.47 1306160
3 2213.47 1301824
3 2213.47 1301710
3 2214.07 1300106
3 2214.07 1296886
3 2215.09 1295150
3 2219.93 1295131
3 2219.93 1292813
3 2221.51 1288138
3 2221.51 1288122
3 2223.05 1288077
3 2226.58 1363625
3 2226.58 1355526
3 2226.58 1350110
3 2226.58 1338819
3 2226.58 1335045
3 2226.58 1331351
3 2227.55 1322767
3 2227.55 1319094
3 2228.37 1318245
3 2228.37 1312947
3 2228.37 1312637
3 2229.26 1305125
3 2229.26 1301843
3 2229.26 1299758
3 2229.26 1298891
3 2229.26 1296927
3 2230.23 1290401
3 2230.23 1290202
3 2230.23 1283662
3 2230.23 1282183
3 2230.23 1282017
3 2230.23 1279670
3 2231.17 1277787
3 2231.91 1277498
3 2231.91 1274504
3 2231.91 1273445
3 2234.16 1272107
3 2234.16 1272091
3 2236.37 1270647
3 2239.2 1269290
3 2240.68 1468470
3 2240.68 1468435
3 2240.68 1462882
3 2240.68 1443332
3 2240.68 1402679
3 2240.68 1389556
3 2240.68 1386304
3 2241.67 1374007
3 2241.67 1368311
3 2242.48 1353942
3 2243.34 1337753
3 2243.34 1330229
3 2254.52 1375246
3 2254.52 1356736
3 2254.52 1348347
3 2254.52 1346120
3 2254.52 1339754
3 2255.45 1339743
3 2255.45 1338042
3 2255.45 1335118
3 2255.45 1322821
3 2255.45 1322125
3 2256.35 1318334
3 2257.16 1314049
3 2257.16 1305682
3 2258.05 1302012
3 2258.05 1301562
3 2258.05 1301377
3 2258.9 1301067
3 2258.9 1296513
3 2258.9 1291335
3 2258.9 1290203
3 2259.76 1286412
3 2261.25 1285671
3 2261.25 1284985
3 2261.25 1283488
3 2262.06 1278892
3 2262.06 1275640
3 2262.06 1271849
3 2268.2 1371031
3 2268.2 1368382
3 2268.2 1358907
3 2268.2 1356871
3 2268.2 1348514
3 2268.2 1343748
3 2268.2 1323306
3 2268.2 1315462
3 2268.2 1301752
3 2269.24 1299871
3 2269.24 1293963
3 2269.24 1291838
3 2269.24 1288723
3 2269.24 1285146
3 2270.15 1284459
3 2270.15 1278906
3 2270.15 1276830
3 2282.42 1436355
3 2282.42 1414756
3 2282.42 1385342
3 2282.42 1373045
3 2282.42 1360154
3 2282.42 1354668
3 2282.42 1338201
3 2282.42 1336342
3 2282.42 1336292
3 2282.42 1324128
3 2282.42 1318575
3 2283.5 1312982
3 2283.5 1311073
3 2284.28 1310900
3 2285.11 1306506
3 2285.11 1303479
3 2285.11 1299932
3 2287.41 1296141
3 2296.27 1377829
3 2296.27 1369844
3 2296.27 1360112
3 2296.27 1352022
3 2296.27 1349602
3 2296.27 1348364
3 2296.27 1343808
3 2297.26 1340017
3 2297.26 1339971
3 2297.26 1322279
3 2297.26 1322153
3 2297.26 1315112
3 2297.26 1311321
3 2297.26 1301090
3 2298.17 1300365
3 2298.17 1293150
3 2298.17 1293019
3 2298.97 1287613
3 2298.97 1287190
3 2298.97 1285204
3 2298.97 1282388
3 2299.82 1279969
3 2308.17 1275261
3 2308.99 1274930
3 2308.99 1273021
3 2309.8 1271071
3 2309.8 1270530
3 2310.59 1420530
3 2310.59 1414834
3 2310.59 1388413
3 2310.59 1382997
3 2310.59 1375524
3 2310.59 1367034
3 2310.59 1366324
3 2311.62 1363888
3 2311.62 1362221
3 2311.62 1360013
3 2311.62 1347716
3 2312.46 1338943
3 2312.46 1336941
1 2313.26 1334348
3 2313.26 1332715
3 2313.26 1332405
3 2314.07 1330480
3 2314.07 1329140
3 2314.07 1327534
3 2314.93 1323242
3 2315.68 1319487
3 2315.68 1309949
3 2315.68 1308493
3 2316.51 1306738
3 2316.51 1305876
3 2316.51 1297732
3 2317.31 1294815
3 2317.31 1291616
3 2318.09 1291045
3 2318.09 1291029
3 2318.09 1285568
3 2319.62 1285172
3 2320.38 1279972
3 2320.38 1278288
3 2323.34 1275850
3 2324.14 1495368
1 2324.14 1400440
3 2324.14 1398558
3 2324.14 1390571
3 2324.14 1386379
3 2324.14 1384600
3 2324.14 1369475
3 2324.14 1367426
3 2324.14 1358181
3 2324.14 1355282
3 2325.19 1354972
3 2325.19 1350817
3 2325.98 1347325
3 2325.98 1340126
3 2325.98 1338244
3 2326.79 1329913
3 2326.79 1324548
3 2327.56 1322386
3 2327.56 1319767
3 2327.56 1311549
3 2328.35 1310752
3 2329.15 1310676
3 2329.15 1303738
3 2329.15 1299672
3 2331.35 1295569
3 2331.35 1294873
3 2331.35 1293243
3 2332.13 1289220
3 2332.86 1289193
3 2333.6 1284813
3 2336.39 1284783
3 2336.39 1281940
3 2337.24 1281900
3 2338.05 1424295
3 2338.05 1391115
3 2338.05 1379480
3 2338.05 1361428
3 2338.05 1344732
3 2338.05 1344470
3 2338.05 1339487
3 2338.05 1337700
3 2338.05 1333545
3 2338.05 1331337
3 2338.05 1327845
3 2339.15 1327535
3 2339.15 1323242
3 2339.15 1312693
3 2339.15 1307164
3 2339.15 1305295
3 2339.15 1305255
3 2339.15 1302879
3 2339.15 1298546
3 2339.15 1293263
3 2340.15 1291414
3 2340.15 1288946
3 2340.15 1288859
3 2340.15 1277718
3 2340.15 1274902
3 2340.15 1271487
3 2340.8 1271200
3 2341.32 1269300
3 2341.81 1263999
3 2341.81 1263059
3 2342.34 1261867
3 2342.83 1260736
3 2342.83 1260720
3 2343.34 1260545
3 2344.29 1260170
3 2344.82 1259699
3 2346.74 1257462
3 2347.22 1256171
3 2352.26 1411501
3 2352.26 1392272
3 2352.26 1391451
3 2352.26 1375301
3 2352.26 1372841
3 2352.26 1371220
3 2352.91 1364327
3 2352.91 1351450
3 2352.91 1348124
3 2353.6 1341157
3 2353.6 1335627
3 2353.6 1334448
3 2354.17 1332178
3 2354.17 1326762
3 2354.17 1326030
3 2354.75 1310056
3 2354.75 1309555
3 2355.8 1308071
3 2355.8 1304745
3 2356.87 1301426
3 2356.87 1301381
3 2356.87 1298037
3 2357.45 1297551
3 2357.45 1297406
3 2357.99 1295871
3 2358.51 1295657
3 2358.51 1293212
3 2358.51 1286318
3 2358.51 1285794
3 2358.51 1285778
3 2359.12 1280971
3 2360.12 1278458
3 2360.12 1277382
3 2366.32 1363690
3 2366.32 1344140
3 2366.32 1337777
3 2366.92 1328662
3 2366.92 1327889
3 2366.92 1327844
3 2366.92 1324135
3 2367.54 1320756
3 2367.54 1319726
3 2367.54 1316326
3 2368.11 1315203
3 2368.67 1313958
3 2368.67 1309686
3 2368.67 1305552
3 2369.28 1301589
3 2369.28 1299209
3 2369.28 1298899
3 2369.86 1297062
3 2369.86 1292907
3 2369.86 1286875
3 2370.43 1286818
3 2370.43 1283049
3 2370.43 1280878
3 2371.03 1275988
3 2372.91 1274330
3 2373.41 1273405
3 2373.41 1272736
3 2378.62 1271580
3 2378.62 1270795
3 2379.19 1269646
3 2379.19 1267887
3 2380.18 1389902
3 2380.18 1382498
3 2380.18 1380544
3 2380.18 1375104
3 2380.18 1367776
3 2380.18 1362360
3 2380.18 1361611
3 2380.18 1356058
3 2380.18 1352095
3 2380.18 1335513
1 2380.18 1332443
3 2381.01 1330774
3 2381.01 1326344
3 2381.01 1326034
3 2381.01 1319693
3 2381.61 1317326
3 2382.11 1316235
3 2382.11 1313700
3 2382.11 1307382
3 2382.11 1303764
3 2382.7 1303312
3 2382.7 1300832
3 2383.23 1300424
3 2384.23 1299357
3 2384.23 1295974
3 2390.58 1295903
3 2391.33 1292766
3 2391.33 1292750
3 2391.33 1291684
3 2394.39 1439903
3 2394.39 1414689
3 2394.39 1394247
3 2394.39 1382504
3 2394.39 1365804
3 2394.39 1361457
3 2394.39 1356943
3 2395.34 1349656
3 2395.34 1346894
3 2395.34 1342931
3 2395.34 1330634
3 2395.34 1329020
3 2396.22 1326843
3 2396.22 1326534
3 2396.99 1324485
3 2398.42 1318932
3 2399.88 1318841
3 2399.88 1314878
3 2401.37 1311023
3 2404.22 1306831
3 2404.97 1302903
3 2407.23 1301453
3 2407.97 1299497
3 2408.71 1485953
3 2408.71 1480400
3 2408.71 1449810
3 2408.71 1449148
3 2408.71 1404303
3 2408.71 1394518
3 2408.71 1379615
3 2408.71 1370937
3 2408.71 1362586
3 2408.71 1357964
3 2408.71 1353890
3 2408.71 1351359
3 2408.71 1351049
3 2409.84 1344112
3 2409.84 1344096
3 2410.6 1343075
3 2411.38 1341087
3 2411.38 1337460
3 2411.38 1334297
3 2411.38 1331131
3 2411.38 1326802
3 2411.38 1326786
3 2412.99 1322995
3 2422.34 1368741
3 2422.34 1364564
3 2422.34 1359534
3 2422.34 1358823
3 2422.34 1355331
3 2422.34 1348524
3 2422.34 1347549
3 2423.28 1347145
3 2423.28 1343893
3 2424.78 1336541
3 2424.78 1334686
3 2424.78 1332433
3 2424.78 1329838
3 2425.68 1329133
3 2425.68 1320208
3 2426.46 1317408
3 2426.46 1311855
3 2426.46 1309538
3 2427.27 1308443
3 2427.27 1307026
3 2428.05 1301473
3 2428.05 1300327
3 2430.11 1298551
3 2436.07 1371375
3 2436.07 1352024
3 2436.07 1351761
3 2436.07 1345315
3 2436.07 1344605
3 2436.07 1342083
3 2436.07 1341578
3 2437.04 1338872
3 2437.04 1334857
3 2437.04 1334579
3 2437.04 1333676
3 2437.04 1331985
3 2437.04 1331038
3 2437.04 1328804
3 2437.04 1327163
3 2437.04 1320314
3 2438.1 1317825
3 2438.1 1317680
3 2438.91 1316347
3 2439.66 1315426
3 2439.66 1312927
3 2439.66 1312546
3 2439.66 1309054
3 2440.51 1307254
3 2440.51 1305568
3 2441.33 1302142
3 2441.33 1301767
3 2441.33 1301369
3 2442.12 1297971
3 2443.57 1295908
3 2443.57 1290679
3 2444.35 1290369
3 2444.35 1288466
3 2444.35 1285725
3 2444.35 1285542
3 2444.35 1282233
3 2445.18 1281002
3 2445.9 1280543
3 2445.9 1276581
3 2445.9 1271165
3 2446.68 1270132
3 2447.44 1267673
3 2447.44 1266869
3 2448.21 1263095
3 2449.01 1262356
3 2449.01 1259864
3 2449.83 1258565
3 2450.59 1394968
3 2450.59 1378490
3 2450.59 1376458
3 2450.59 1374692
3 2450.59 1368996
3 2450.59 1358012
3 2451.54 1348805
3 2451.54 1346607
3 2453.09 1343115
3 2453.09 1330523
3 2453.09 1330507
1 2457.49 1321619
3 2457.49 1310510
3 2457.49 1310483
3 2458.3 1306721
3 2459.03 1306189
3 2459.03 1302854
3 2459.03 1302323
3 2461.3 1299077
3 2461.3 1297514
3 2462.11 1295104
3 2462.11 1293405
3 2462.11 1291303
3 2462.11 1288673
3 2463.03 1288363
3 2463.81 1282735
3 2464.57 1373177
3 2464.57 1370648
3 2464.57 1360282
3 2464.57 1354697
3 2464.57 1350844
3 2464.57 1350799
3 2464.57 1348201
3 2465.54 1346483
3 2465.54 1340093
3 2465.54 1339774
3 2465.54 1334358
3 2465.54 1333283
3 2466.41 1332973
3 2467.16 1321450
3 2467.89 1321065
3 2467.89 1315897
3 2469.38 1315576
3 2469.38 1308692
3 2470.13 1306502
3 2470.13 1305531
3 2473.02 1301161
3 2473.02 1287006
3 2473.02 1286296
3 2473.83 1286280
3 2475.31 1282652
3 2475.31 1278797
3 2476.13 1278752
3 2477.61 1263719
3 2478.38 1373666
3 2478.38 1365283
3 2478.38 1340193
3 2478.38 1326895
3 2478.38 1316964
3 2478.38 1316220
3 2478.38 1302560
3 2479.39 1297210
3 2479.39 1293910
3 2479.39 1288739
3 2479.39 1286611
3 2479.39 1286227
3 2481.01 1285662
3 2483.12 1284149
3 2483.12 1277737
3 2483.12 1277265
3 2483.92 1273953
3 2484.67 1273056
3 2486.07 1270461
3 2492.34 1459116
3 2492.34 1412373
3 2492.34 1381783
3 2492.34 1361919
3 2492.34 1359661
3 2492.34 1351220
3 2492.34 1344992
3 2492.34 1338147
3 2492.34 1317212
3 2492.34 1316694
3 2492.34 1313852
3 2492.34 1313807
3 2493.43 1308254
3 2493.43 1301374
3 2493.43 1298603
3 2494.23 1297268
3 2494.96 1296057
3 2494.96 1296017
3 2494.96 1292667
3 2494.96 1291431
3 2495.79 1290997
3 2497.16 1288369
3 2497.87 1288324
3 2500.61 1283457
3 2500.61 1278609
3 2500.61 1276105
3 2500.61 1273003
3 2500.61 1270624
3 2501.48 1268377
3 2501.48 1268181
3 2502.22 1264689
3 2503.64 1262982
3 2503.64 1262313
3 2504.45 1261786
3 2504.45 1261770
3 2504.45 1260713
3 2505.27 1259330
3 2505.27 1258849
3 2506.06 1332573
3 2506.06 1325755
3 2506.06 1323763
3 2506.06 1322287
3 2506.06 1313138
3 2506.06 1308983
3 2506.06 1306917
3 2506.06 1305014
3 2507 1303589
3 2507 1302672
3 2507.76 1293465
3 2507.76 1293155
3 2508.52 1290613
3 2512.04 1288209
3 2512.04 1282656
3 2513.54 1282346
3 2513.54 1281015
3 2519.25 1277944
3 2519.99 1275583
3 2519.99 1275559
3 2519.99 1275519
3 2520.81 1371763
3 2520.81 1365769
3 2520.81 1352304
3 2520.81 1349973
3 2520.81 1343992
3 2520.81 1337661
3 2520.81 1324538
3 2520.81 1321313
3 2520.81 1316565
3 2521.84 1316538
3 2521.84 1314677
1 2521.84 1312159
1 2521.84 1298713
3 2521.84 1298493
3 2522.72 1297250
3 2522.72 1293375
3 2522.72 1290752
3 2522.72 1288333
3 2524.96 1282637
3 2524.96 1282241
3 2527.11 1281530
3 2528.63 1281323
3 2529.59 1276491
3 2529.59 1266498
3 2530.18 1264244
3 2534.03 1400759
3 2534.03 1395626
3 2534.03 1384015
3 2534.03 1378134
3 2534.03 1362889
3 2534.7 1356719
3 2534.7 1356009
3 2534.7 1350456
3 2535.3 1349001
3 2535.3 1339815
3 2535.3 1339779
3 2535.3 1338934
3 2535.3 1338918
3 2535.3 1338087
3 2535.3 1321179
3 2536.1 1320209
3 2536.1 1315368
3 2536.86 1312730
3 2536.86 1309718
3 2536.86 1308030
3 2536.86 1299427
3 2537.6 1298763
3 2537.6 1298397
3 2537.6 1294905
3 2538.2 1291060
3 2538.2 1290575
3 2538.2 1290350
3 2538.8 1285056
3 2538.8 1285040
3 2538.8 1283178
3 2539.41 1283158
3 2539.92 1281159
3 2548.16 1402856
3 2548.16 1396186
3 2548.16 1391167
3 2548.16 1387968
3 2548.16 1360578
3 2548.16 1359908
3 2548.9 1352988
3 2548.9 1350350
3 2548.9 1348269
3 2548.9 1341664
3 2548.9 1338553
3 2548.9 1331344
3 2548.9 1325472
3 2548.9 1322270
3 2548.9 1321820
3 2548.9 1321710
3 2549.68 1318211
3 2549.68 1318098
3 2550.22 1317731
3 2550.22 1314772
3 2550.22 1311475
3 2550.22 1309324
3 2550.22 1309006
3 2550.94 1301731
3 2550.94 1301686
3 2551.49 1297699
3 2552.5 1295664
3 2553.01 1295648
3 2553.53 1288839
3 2553.53 1288312
3 2553.53 1287571
3 2553.53 1284330
3 2559.03 1283825
3 2562.16 1372864
3 2562.16 1372848
3 2562.16 1371158
3 2562.16 1369572
3 2562.16 1360354
3 2562.16 1356775
3 2562.16 1351711
3 2562.16 1345767
3 2562.16 1339912
3 2562.16 1337428
3 2562.16 1323822
3 2563.03 1319269
3 2563.03 1319253
3 2563.03 1318675
3 2563.03 1318670
3 2563.03 1318608
3 2563.7 1314899
3 2563.7 1311770
3 2563.7 1306074
3 2563.7 1299190
3 2563.7 1294581
3 2564.4 1294326
3 2564.4 1293896
3 2564.4 1292492
3 2564.4 1283575
3 2564.4 1280351
3 2565.04 1278798
3 2565.57 1276709
3 2565.57 1275364
3 2565.57 1274651
3 2565.57 1272132
3 2565.57 1270496
3 2566.22 1269785
3 2566.22 1268930
3 2567.24 1268311
3 2567.24 1267601
3 2574.09 1264411
3 2574.09 1264395
3 2576.23 1388438
3 2576.23 1373112
3 2576.23 1354242
3 2576.23 1337840
3 2576.23 1330034
3 2576.23 1317870
3 2576.23 1312963
3 2576.92 1312918
3 2576.92 1309956
3 2576.92 1308955
3 2577.5 1303539
3 2577.5 1294271
3 2577.5 1293112
3 2579.19 1288915
3 2579.7 1286879
3 2580.23 1281401
3 2580.77 1278912
3 2580.77 1278602
3 2581.82 1276929
3 2582.34 1264229
3 2582.34 1263712
3 2582.34 1263402
3 2582.91 1260379
3 2582.91 1258808
3 2583.46 1257438
3 2583.97 1257393
3 2590.28 1449021
3 2590.28 1429471
3 2590.28 1427422
3 2590.28 1427119
3 2590.28 1421566
3 2590.28 1402971
3 2590.28 1393004
3 2590.28 1392278
3 2591.11 1391000
3 2591.11 1372390
3 2591.11 1370524
3 2591.11 1366561
3 2591.11 1366516
3 2591.81 1356833
3 2591.81 1352505
3 2591.81 1345784
3 2591.81 1345584
3 2591.81 1344218
3 2591.81 1337509
3 2591.81 1330659
3 2592.57 1329726
3 2592.57 1327816
3 2592.57 1322751
3 2592.57 1321452
3 2593.3 1320519
3 2593.3 1306779
3 2593.3 1306306
3 2593.3 1299635
3 2593.3 1293492
3 2593.96 1285848
3 2593.96 1283470
3 2593.96 1283454
3 2593.96 1279372
3 2594.58 1277317
3 2594.58 1275024
3 2597.59 1270981
3 2598.11 1270209
3 2598.11 1268722
3 2598.64 1264543
3 2598.64 1262590
3 2598.64 1261877
3 2600.68 1261715
3 2601.71 1261670
3 2601.71 1261064
3 2602.72 1260754
3 2604.19 1445507
3 2604.19 1432757
3 2604.19 1432618
3 2604.19 1431518
3 2604.19 1428026
3 2604.19 1402041
3 2604.19 1377164
3 2604.19 1359471
3 2604.19 1355817
3 2605.01 1343592
3 2605.01 1343314
3 2605.01 1339804
3 2605.01 1335936
3 2605.62 1331350
3 2605.62 1328017
3 2605.62 1327976
3 2605.62 1327518
3 2605.62 1319758
3 2605.62 1317706
3 2605.62 1317019
3 2606.32 1315155
3 2606.32 1314062
3 2606.32 1311364
3 2606.32 1310165
3 2607 1306257
3 2607 1305004
3 2607.55 1304473
3 2608.08 1302820
3 2608.08 1300109
1 2608.08 1299366
3 2608.08 1295134
3 2608.69 1294299
3 2608.69 1290973
3 2609.25 1286623
3 2609.25 1285282
3 2609.25 1282832
3 2615.76 1282211
3 2618.32 1417366
3 2618.32 1383313
3 2618.32 1376561
3 2618.32 1375899
3 2618.32 1373405
3 2618.98 1360564
3 2618.98 1356773
3 2618.98 1347783
3 2619.54 1342715
3 2619.54 1337592
3 2619.54 1335683
3 2619.54 1335198
3 2619.54 1324048
3 2619.54 1317547
3 2619.54 1314055
3 2620.26 1313481
3 2620.26 1312173
3 2620.26 1309529
3 2620.97 1309484
3 2620.97 1308265
3 2621.64 1305188
3 2623.81 1301605
3 2624.47 1299275
3 2626.98 1297649
3 2626.98 1294518
3 2626.98 1292487
3 2626.98 1291463
3 2632.22 1376420
3 2632.22 1367930
3 2632.22 1361046
3 2632.22 1360140
3 2632.22 1353021
3 2632.22 1314292
3 2632.22 1312022
3 2632.22 1304357
3 2632.22 1304312
3 2633.03 1301656
3 2633.03 1298206
3 2633.03 1295166
3 2633.03 1288770
3 2633.64 1288028
3 2634.16 1282567
3 2635.82 1281926
3 2635.82 1279084
3 2636.37 1279068
3 2636.37 1278970
3 2636.37 1275105
3 2646.01 1444000
3 2646.01 1431703
3 2646.01 1425629
3 2646.01 1407269
3 2646.01 1384415
3 2646.01 1384013
3 2646.01 1370378
3 2646.77 1370002
3 2646.77 1338527
3 2646.77 1328616
3 2646.77 1325777
3 2647.38 1325302
3 2647.38 1324941
3 2647.38 1311848
3 2647.38 1311538
3 2647.99 1311457
3 2647.99 1306250
3 2648.52 1305783
3 2648.52 1304495
3 2648.52 1302872
3 2648.52 1297456
3 2650.61 1296972
3 2650.61 1295720
3 2651.21 1291276
3 2651.21 1289510
3 2651.74 1285671
3 2652.46 1283120
3 2652.46 1282410
3 2652.46 1280635
3 2653.05 1275682
3 2653.05 1273969
3 2653.05 1272205
3 2653.05 1271516
3 2653.65 1271504
3 2654.18 1270203
3 2654.18 1270158
3 2654.18 1269762
3 2655.22 1269750
3 2658.59 1267105
3 2659.1 1266746
3 2659.63 1266346
3 2659.63 1266036
3 2660.17 1417546
3 2660.17 1415542
3 2660.17 1390328
3 2660.17 1388040
3 2660.17 1379822
3 2660.17 1367380
3 2660.17 1366918
3 2660.17 1364273
3 2660.17 1356527
3 2660.17 1344049
3 2660.17 1343368
3 2660.97 1340946
3 2660.97 1337937
3 2660.97 1337845
3 2660.97 1336906
3 2660.97 1332547
3 2660.97 1327429
3 2660.97 1325158
3 2660.97 1322581
3 2661.7 1320884
3 2661.7 1297372
3 2661.7 1292424
3 2661.7 1290752
3 2662.31 1285649
3 2662.31 1282851
3 2662.31 1282141
3 2662.31 1280524
3 2662.31 1276369
3 2662.31 1275675
3 2662.98 1275091
3 2662.98 1271067
3 2662.98 1270757
3 2662.98 1269077
3 2663.58 1269032
3 2663.58 1266351
3 2664.12 1265651
3 2664.64 1262509
3 2665.15 1259170
3 2665.66 1253278
3 2665.66 1252777
3 2674.14 1398500
3 2674.14 1397173
1 2674.14 1391086
3 2674.14 1390939
3 2674.14 1383802
1 2674.14 1362008
3 2674.14 1345428
3 2674.14 1343276
3 2674.14 1341346
3 2674.91 1337212
3 2674.91 1334462
3 2674.91 1333116
3 2674.91 1328776
3 2676.07 1321266
3 2676.59 1313429
3 2677.11 1310116
3 2677.11 1305961
3 2677.11 1302947
3 2680.16 1301521
3 2680.16 1300259
3 2680.72 1294796
3 2680.72 1291776
3 2680.72 1291769
3 2681.83 1291431
3 2682.35 1290365
3 2682.89 1286812
3 2685.85 1286245
3 2685.85 1283843
3 2685.85 1282763
3 2686.44 1282753
3 2686.44 1276034
3 2686.44 1275633
3 2687.02 1275343
3 2687.02 1275162
3 2687.57 1274452
3 2687.57 1273728
3 2688.13 1349929
3 2688.13 1337661
3 2688.13 1332108
3 2688.13 1328145
3 2688.76 1327837
3 2688.76 1324657
3 2688.76 1311000
3 2688.76 1306147
3 2688.76 1306131
3 2688.76 1298706
3 2689.43 1297991
3 2689.43 1297327
3 2689.43 1293538
3 2689.43 1291511
3 2689.43 1289787
3 2689.43 1289528
3 2689.43 1288497
3 2689.43 1283746
3 2690.15 1282646
3 2690.15 1282556
3 2690.68 1281846
3 2691.66 1280752
3 2691.66 1280137
3 2693.65 1276880
3 2694.16 1275478
3 2694.16 1275294
3 2694.69 1274584
3 2702.29 1418332
3 2702.29 1407966
3 2702.29 1405544
3 2702.29 1405033
3 2702.29 1396603
3 2702.29 1396587
3 2702.29 1393606
3 2703 1389011
3 2703 1370501
3 2703 1363487
3 2703 1361490
3 2703.62 1352979
3 2704.15 1343473
3 2704.67 1341794
3 2704.67 1336180
3 2704.67 1335961
3 2704.67 1334854
3 2704.67 1330627
3 2705.31 1328997
3 2705.31 1328981
3 2705.89 1326817
3 2705.89 1317682
3 2705.89 1312907
3 2705.89 1309029
3 2705.89 1303063
3 2706.54 1302584
3 2706.54 1301554
3 2707.59 1300103
3 2707.59 1296611
3 2708.14 1295771
3 2708.14 1293777
3 2708.14 1290890
3 2708.14 1290197
3 2708.14 1288149
3 2708.8 1286653
3 2709.33 1281440
3 2709.86 1281237
3 2716.27 1409387
3 2716.27 1388945
3 2716.27 1386032
3 2716.27 1385453
3 2716.27 1381472
3 2716.27 1369051
3 2716.27 1365725
3 2716.27 1365669
3 2716.27 1360309
3 2716.27 1359898
3 2716.27 1357390
3 2717.06 1349810
3 2717.06 1349104
3 2717.06 1348468
3 2717.06 1336209
3 2717.06 1331532
3 2717.06 1328920
3 2717.06 1328086
3 2717.06 1327000
3 2717.77 1323209
3 2717.77 1319331
3 2717.77 1314546
3 2717.77 1312401
3 2717.77 1312091
3 2717.77 1309343
3 2717.77 1296370
3 2718.97 1289702
3 2718.97 1289657
3 2718.97 1289289
3 2719.53 1285529
3 2722 1283958
3 2722.5 1283479
3 2722.5 1283434
3 2723.06 1281165
3 2723.57 1280455
3 2724.09 1277144
3 2724.6 1273007
3 2726.5 1272198
3 2730.52 1467341
3 2730.52 1452533
3 2730.52 1435991
3 2730.52 1423713
3 2730.52 1413559
3 2730.52 1411418
3 2730.52 1405865
3 2730.52 1383996
3 2730.52 1347296
3 2730.52 1341562
3 2730.52 1341517
3 2730.52 1339752
3 2730.52 1315250
3 2731.75 1309145
3 2731.75 1307215
3 2731.75 1300610
3 2731.75 1297279
3 2731.75 1294121
3 2731.75 1293305
3 2731.75 1291191
3 2732.75 1287609
3 2734.31 1271211
3 2735.81 1269499
3 2735.81 1267711
3 2735.81 1266951
3 2738.77 1266825
3 2742.37 1266497
3 2744.68 1438007
3 2744.68 1434044
3 2744.68 1425554
3 2744.68 1388499
3 2744.68 1381790
3 2744.68 1362920
3 2744.68 1355739
3 2744.68 1345935
3 2744.68 1334900
3 2744.68 1334034
3 2744.68 1314503
3 2744.68 1313545
3 2744.68 1310053
3 2744.68 1308528
3 2745.96 1303112
3 2745.96 1302402
3 2745.96 1301570
3 2745.96 1299019
3 2746.82 1298974
3 2747.58 1297105
3 2751.97 1297065
3 2758.55 1389369
3 2758.55 1382485
3 2758.55 1382323
3 2758.55 1373893
3 2758.55 1370930
3 2758.55 1370220
3 2758.55 1349823
3 2759.59 1338006
3 2759.59 1326238
3 2759.59 1325969
3 2759.59 1319354
3 2760.46 1317976
3 2760.46 1313230
3 2761.34 1307120
3 2761.34 1306915
3 2761.34 1303728
3 2762.18 1303567
3 2762.18 1302857
3 2763 1302458
3 2763 1301668
3 2763.86 1299024
3 2764.65 1298820
3 2764.65 1297551
3 2765.54 1296199
3 2766.37 1295892
3 2768.77 1294860
3 2769.57 1294523
3 2770.4 1292610
3 2771.62 1292565
3 2771.62 1291855
3 2773.24 1377634
3 2773.24 1375827
3 2773.24 1371072
3 2773.24 1363936
3 2773.24 1361534
3 2773.24 1349237
3 2773.24 1346860
3 2774.25 1342787
3 2775.02 1340259
3 2775.02 1340243
3 2775.02 1339255
3 2775.02 1335011
3 2775.02 1327892
3 2775.95 1326505
3 2775.95 1321510
3 2775.95 1321494
3 2776.8 1321089
3 2777.68 1311321
3 2777.68 1308184
3 2778.49 1308168
3 2778.49 1307966
3 2786.26 1432703
3 2786.26 1418543
3 2786.26 1398442
3 2786.26 1358885
3 2786.26 1352603
3 2786.26 1346919
3 2786.26 1342353
3 2786.26 1341643
3 2786.26 1336656
3 2786.26 1336575
3 2787.32 1331234
3 2787.32 1326081
3 2787.32 1317959
3 2787.32 1312543
3 2787.32 1306450
3 2788.19 1305740
3 2788.93 1304541
3 2791.19 1304363
3 2792.4 1301277
3 2794.41 1290666
3 2795.89 1284970
Score = 1270880
