    Blocking waiting for file lock on package cache
    Blocking waiting for file lock on package cache
    Blocking waiting for file lock on package cache
    Finished release [optimized] target(s) in 0.06s
     Running `target/release/tester ../a.out 0016`
3 0.469 973422
3 0.469 947591
3 0.469 932469
3 0.469 928019
3 0.469 926620
3 0.469 916682
3 0.952 912638
3 1.302 912367
3 1.302 911492
3 3.376 909628
3 14.135 1045755
3 14.135 1035501
3 14.135 1032050
3 14.135 1027102
3 14.135 1015625
3 14.135 1011395
3 14.135 1004677
3 14.135 1001881
3 14.135 999220
3 14.135 997793
3 14.135 992898
3 14.135 988948
3 14.843 979333
3 14.843 973112
3 14.843 972967
3 14.843 965805
3 14.843 954730
3 14.843 935223
3 14.843 923746
3 15.315 921324
3 15.315 920961
3 15.315 909484
3 15.315 908960
3 15.315 908057
3 15.722 906961
3 28.009 1021953
3 28.009 1008714
3 28.009 997237
3 28.009 995810
3 28.009 995344
3 28.009 965146
3 28.009 963861
3 28.009 946205
3 29.003 945973
3 29.003 941182
3 29.003 937992
3 29.003 934464
3 29.43 931464
3 29.43 920490
3 31.061 918173
3 31.061 916379
3 42.051 1008852
3 42.051 994811
3 42.051 990530
3 42.051 987359
3 42.051 978493
3 42.051 977208
3 42.051 974819
3 42.051 972610
3 42.051 966792
3 42.051 962858
3 42.571 942722
3 42.571 939938
3 42.897 935816
3 42.897 929098
3 42.897 925148
3 42.897 919955
3 42.897 913186
3 43.163 909236
3 43.163 907809
3 43.961 904209
3 43.961 902674
3 44.577 901634
3 56.302 1028655
3 56.302 999090
3 56.302 968892
3 56.302 955571
3 56.302 955066
3 56.302 952374
3 56.302 943434
3 56.302 938643
3 56.302 934671
3 56.792 930847
3 57.047 923459
3 57.539 917812
3 57.887 917268
3 57.887 908960
3 58.393 908057
3 58.673 904107
3 70.268 1050046
3 70.268 1046980
3 70.268 1025277
3 70.268 1022389
3 70.268 1009099
3 70.268 985421
3 70.268 968256
3 70.741 966344
3 70.741 947766
3 70.741 947490
3 70.741 945000
3 71.164 938687
3 71.164 931621
3 71.453 925273
3 71.453 923746
3 71.453 918316
3 71.973 916467
3 84.298 1044730
3 84.298 1030777
3 84.298 1016571
3 84.298 1011759
3 84.298 1007809
3 84.298 986870
3 84.298 982403
3 84.298 976171
3 84.298 973928
3 84.298 972106
3 84.298 962347
3 84.298 954907
3 84.937 950715
3 84.937 946159
3 85.157 943453
3 85.157 943441
3 85.157 943302
3 85.157 939979
3 85.157 938552
3 85.411 930916
3 87.224 930166
3 87.578 922571
3 98.086 1012825
3 98.086 967118
3 98.086 966280
3 98.086 952472
3 98.358 945533
3 98.358 945200
3 98.358 942536
3 98.626 928831
3 112.267 1054544
3 112.267 1042235
3 112.267 1032725
3 112.267 1031298
3 112.267 1022708
3 112.267 1019501
3 112.599 1016344
3 112.599 1015105
3 112.599 1014710
3 112.599 1003078
3 113.074 1001868
3 113.074 998291
3 113.307 993479
3 113.307 985683
3 113.307 981497
3 113.307 973463
3 113.596 970544
3 113.596 967896
3 113.596 966594
1 117.96 960100
3 117.96 957789
3 118.714 952998
3 118.714 952793
1 123.26 951441
3 123.636 949135
3 123.636 947888
3 124.013 946650
3 124.886 944121
3 125.433 940518
3 125.433 940329
3 125.943 939006
3 126.204 1008340
3 126.204 998737
3 126.204 980216
3 126.204 973038
3 126.204 968584
3 126.204 963511
3 126.204 960630
3 126.204 954770
3 126.204 952834
3 126.86 949235
3 126.86 942160
3 127.18 936505
3 127.18 933761
3 127.18 932103
3 127.18 932059
3 127.504 927657
3 128.034 926211
3 128.034 910001
3 140.047 1025003
3 140.047 1017207
3 140.047 1012567
3 140.047 1000935
3 140.047 985701
3 140.047 976098
3 140.047 965892
3 140.047 960836
3 140.047 954549
3 140.568 950084
3 140.568 938387
3 140.568 930610
3 140.963 926398
3 140.963 922427
3 141.694 921950
3 141.694 920431
3 141.694 919004
3 142.445 914279
3 142.855 905599
3 142.855 900808
3 142.855 897713
3 142.855 896286
3 143.261 893551
3 143.261 893533
3 143.628 892370
3 144.506 889176
3 154.116 1035100
3 154.116 1005535
3 154.116 1004206
3 154.116 1003326
3 154.116 999415
3 154.116 983142
3 154.116 981614
3 154.116 976744
3 154.116 974054
3 154.506 961820
3 154.506 961651
3 154.506 957701
3 154.732 941556
3 154.732 934020
3 154.95 917664
3 154.95 916872
3 154.95 911327
3 154.95 910803
3 161.999 908804
3 168.163 1039894
3 168.163 1016937
3 168.163 1013679
3 168.163 1004573
3 168.163 982672
3 168.163 979410
3 168.163 977201
3 168.163 967425
3 168.487 965998
3 168.487 965569
3 168.487 949424
3 168.752 940033
3 168.752 937035
3 168.752 923854
3 168.99 922427
3 168.99 922115
3 168.99 919655
3 169.448 918316
3 182.011 1050892
3 182.011 1038009
3 182.011 999307
3 182.011 976668
3 182.011 975680
3 182.011 954513
3 182.446 953866
3 182.446 949916
3 182.446 949421
3 182.446 942114
3 182.446 937323
3 182.446 911412
3 182.446 909437
3 182.829 908850
3 196.267 1026752
3 196.267 1017149
3 196.267 999493
3 196.267 979581
3 196.267 964259
3 196.267 962832
3 196.267 956652
3 196.267 950654
3 196.267 944320
3 196.267 936281
3 196.99 935874
3 197.95 928224
3 197.95 927076
3 197.95 926604
3 210.103 1056421
3 210.103 1046818
3 210.103 1003956
3 210.103 1000006
3 210.103 995789
3 210.103 992559
3 210.103 987173
3 210.103 984964
3 210.429 974352
3 210.429 971965
3 210.429 954798
3 210.429 942822
3 210.429 939499
3 210.429 938069
3 210.699 937728
3 210.699 935134
3 212.752 932525
3 224.183 1036413
3 224.183 1028136
3 224.183 1022050
3 224.183 1000537
3 224.183 998126
3 224.183 994176
3 224.183 991178
3 224.183 990797
3 224.183 977282
3 224.183 971684
3 224.183 955216
3 224.76 954504
3 224.76 950007
3 224.76 943538
3 224.76 926174
3 225.201 925812
3 225.201 923048
1 227.33 919351
3 227.33 915401
3 227.33 907419
3 227.33 906599
3 227.33 904504
3 227.766 902949
3 230.314 901560
3 230.67 899113
3 230.67 897757
3 230.969 895364
3 230.969 893236
3 238.141 1027897
3 238.141 1016420
3 238.141 995068
3 238.141 991118
3 238.141 978061
3 238.141 963461
3 238.435 961029
3 238.671 938770
3 238.671 933673
3 240.143 921941
3 240.143 917636
3 240.566 915319
3 252.099 1099969
3 252.099 1077537
3 252.099 1049306
3 252.099 1046814
3 252.099 1045894
3 252.099 1041254
3 252.099 1039701
3 252.099 1030636
3 252.42 1029863
3 252.42 1012068
3 252.42 1003067
3 252.42 997239
3 252.726 983631
3 252.946 979907
3 252.946 978039
3 266.327 1015132
3 266.327 1007909
3 266.327 992384
3 266.327 990534
3 266.327 961377
3 266.774 954070
3 266.774 943387
3 266.774 929157
3 266.774 925731
3 266.774 924304
3 266.774 922095
3 266.774 919701
3 267.916 917812
3 267.916 916702
3 280.063 1013574
3 280.063 1008953
3 280.063 983376
3 280.063 972609
3 280.063 964813
3 280.454 964231
3 280.454 962804
3 280.454 955151
3 280.849 949158
3 280.849 949099
3 281.223 947675
3 281.587 936907
3 281.587 932296
3 281.587 923651
3 281.587 914048
3 282.009 908057
3 282.696 906961
3 294.176 1028351
3 294.176 1005884
3 294.176 1002300
3 294.176 979672
3 294.176 976088
3 294.176 969324
3 294.176 950059
3 294.176 948673
3 294.176 939759
3 294.678 937988
3 295.036 937756
3 295.036 935334
3 295.036 931384
3 295.423 924065
3 295.423 923973
3 295.423 916269
3 295.725 913771
3 295.725 912344
3 295.725 908394
3 296.49 907411
3 308.157 975892
3 308.157 973279
3 308.157 965415
3 308.157 951836
3 308.157 951668
3 308.157 951429
3 308.157 935284
3 308.157 912265
3 308.465 911540
3 308.465 909420
3 308.465 907182
3 308.734 906749
1 321.938 905126
3 322.252 998641
3 322.252 984936
3 322.252 970776
3 322.252 969349
3 322.252 969016
3 322.252 963044
3 322.252 962250
3 322.633 959505
3 322.633 952711
3 322.633 950157
3 322.633 949858
3 322.936 947485
3 322.936 946205
3 323.216 929157
3 323.436 927314
3 323.436 926411
3 323.436 923651
3 323.673 917933
3 323.673 909900
3 323.673 908057
3 323.922 904107
3 336.242 1020713
3 336.242 1004568
3 336.242 1000158
3 336.242 948105
3 336.242 933570
3 336.242 928779
3 336.242 927464
1 340.294 926382
3 340.294 923123
3 340.294 922824
3 341.109 918874
3 344.933 917589
3 350.098 976186
3 350.098 959536
3 350.098 958109
1 350.098 956383
3 350.098 942955
3 350.524 942827
3 350.524 937619
3 350.524 936189
3 364.071 1057043
3 364.071 1036672
3 364.071 1032878
3 364.071 1029108
3 364.071 1014382
3 364.071 1012173
3 364.071 996028
3 364.071 988608
3 364.071 980395
3 364.071 979981
3 364.071 975662
3 364.588 974763
3 364.588 945607
3 364.588 944632
3 364.588 939841
3 364.588 938414
3 364.588 934557
3 365.027 933989
3 365.027 929117
3 370.186 927323
3 370.4 926644
3 370.612 926362
3 371.077 923596
3 371.34 919183
3 371.34 918956
3 371.606 911387
3 373.753 910217
3 378.217 1050620
3 378.217 1014637
3 378.217 1009309
3 378.217 998492
3 378.217 995809
1 378.217 991344
3 378.217 956904
3 378.217 956787
3 378.217 951523
3 378.644 937336
3 378.644 930126
3 379.719 927215
3 379.719 927106
3 379.719 922424
3 380.103 915817
3 384.14 914065
3 384.14 908320
3 384.383 907224
3 384.383 907115
3 384.596 904269
3 392.168 1011719
3 392.168 1004779
3 392.168 971155
3 392.168 969382
3 392.168 968962
3 392.168 959932
3 392.168 955501
3 392.602 935130
3 392.602 934418
3 392.602 932281
3 392.602 931180
3 393.412 928253
3 395.686 928224
3 395.686 925378
3 396.096 925148
3 396.459 918983
3 396.459 902674
3 396.459 901634
3 406.083 1031351
3 406.083 1027242
3 406.083 1022435
3 406.083 992237
3 406.083 990810
3 406.083 973150
3 406.083 970040
3 406.083 958194
3 406.083 949672
3 406.083 944160
3 406.42 942214
3 406.42 937873
3 406.42 934919
3 407.342 920713
3 408.826 920087
3 408.826 916535
3 408.826 915296
3 412.421 910472
3 412.421 910409
3 412.812 908982
3 420.081 992221
3 420.081 981365
3 420.081 976076
3 420.081 960994
3 420.081 945451
3 420.081 942085
3 420.081 939581
3 420.366 929306
3 420.366 921510
3 420.366 921186
3 420.366 914897
3 420.366 906689
3 420.366 905385
3 421.402 900557
3 421.606 898348
3 421.811 897137
3 421.811 890985
3 434.199 992630
3 434.199 976855
3 434.199 955213
3 434.199 953238
3 434.199 950917
3 434.199 947746
3 434.699 947361
3 434.699 945152
3 435.076 934039
3 435.442 933684
3 435.442 932612
3 436.507 928966
3 436.507 921170
3 436.877 919321
3 448.037 1023011
3 448.037 1008001
3 448.037 1005395
3 448.037 979452
3 448.037 970264
3 448.037 965954
3 448.037 963443
3 448.037 962016
3 448.037 949951
3 448.037 940348
3 448.037 938290
3 448.437 928070
3 448.656 926204
3 448.656 921938
3 448.656 918257
3 462.164 1013310
3 462.164 1004204
3 462.164 991841
3 462.164 980209
3 462.164 976188
3 462.164 972860
3 462.164 972238
3 462.625 971121
3 462.625 964442
3 462.625 938852
3 463.023 937354
3 463.023 934183
3 463.393 922993
3 463.757 919239
3 463.757 917812
3 465.156 912415
3 465.156 904107
3 476.289 1009520
3 476.289 1006966
3 476.289 1004380
3 476.289 997421
3 476.289 983862
3 476.289 980572
3 476.289 970260
3 476.734 962464
3 476.734 955157
3 476.734 950109
3 476.734 942448
3 476.734 936196
3 476.734 932271
3 477.005 930717
3 477.005 917012
3 490.02 991025
3 490.02 970535
3 490.02 967364
3 490.02 966216
3 490.02 961894
3 490.02 950682
3 490.02 946604
3 490.492 944395
3 490.492 940288
3 490.492 925629
3 490.91 925608
3 490.91 924202
3 491.62 923746
3 492.328 920615
3 493.182 920252
3 493.182 919701
3 493.182 917905
3 493.182 904107
3 504.184 1012035
3 504.184 1005317
3 504.184 1001367
3 504.184 990397
3 504.184 987676
3 504.184 985881
3 504.184 976278
3 504.184 956172
3 504.184 953963
3 504.184 950689
3 504.184 946656
3 504.68 927472
3 504.68 926045
3 504.68 922095
3 505.105 919701
3 505.105 912846
3 505.321 912415
3 505.321 905950
3 505.983 904107
3 518.182 958642
3 518.182 955250
3 518.182 944139
3 518.182 939366
3 518.182 935899
3 518.182 934469
3 518.182 930271
3 518.795 928620
3 519.873 924186
3 519.873 914257
3 520.263 912329
3 520.263 904757
3 520.263 902714
3 520.654 900051
3 532.288 1021127
3 532.288 1009613
3 532.288 1008186
3 532.288 1003867
3 532.288 974302
3 532.288 970088
3 532.737 964342
3 532.737 960329
3 532.737 950268
3 533.128 938977
3 533.128 933304
3 533.128 931756
3 533.128 925271
3 533.128 921321
3 533.543 916467
3 546.068 995941
3 546.068 984095
3 546.068 972082
3 546.068 967224
3 546.068 961307
3 546.068 955937
3 546.449 955022
3 546.449 949072
1 546.869 947642
3 546.869 946694
3 546.869 939387
3 547.276 937085
3 547.276 936364
3 547.655 931497
3 560.017 1031636
3 560.017 1028039
3 560.017 1025830
3 560.017 1010299
3 560.017 994154
3 560.017 976498
3 560.017 969406
3 560.017 962793
3 560.017 958843
3 560.454 929278
3 560.454 927851
3 561.053 921321
3 561.053 919638
3 561.053 915319
3 562.776 913525
3 574.177 1009071
3 574.177 992893
3 574.177 973725
3 574.177 966866
3 574.177 949981
3 574.177 949210
3 574.177 942185
3 574.177 938314
3 574.659 930280
3 574.659 916154
3 574.659 913365
3 574.659 913308
3 575.058 908154
3 588.149 999283
3 588.149 992996
3 588.149 988146
3 588.149 983728
3 588.149 954163
3 588.458 951295
3 588.458 951143
3 588.458 950157
3 588.458 946504
3 588.458 941340
3 588.799 939131
3 588.799 935839
3 588.799 930083
3 588.799 929786
3 588.799 927399
3 588.799 926045
3 589.321 925748
3 589.321 922095
3 591.068 919795
3 591.068 919655
3 591.452 916348
3 592.658 910803
3 594.786 909630
3 595.177 903810
3 602.168 1067639
3 602.168 1047500
3 602.168 1039982
3 602.168 1016106
3 602.168 992728
3 602.168 964354
3 602.168 951213
3 602.168 948876
3 602.615 938133
3 602.615 923865
3 602.615 922310
3 602.615 920967
3 603.361 920627
3 603.361 913819
3 604.058 903260
3 604.058 903061
3 604.058 901634
3 616.187 1027096
3 616.187 1021335
3 616.187 1010850
3 616.187 1003054
3 616.187 1000845
3 616.187 987140
3 616.187 985710
1 616.639 982744
3 616.639 974948
3 616.639 971191
3 617.173 950820
3 618.199 948611
3 618.199 943637
3 618.667 932466
3 630.168 1018454
3 630.168 1009542
3 630.168 1003300
3 630.168 988706
3 630.168 979600
3 630.168 978748
3 630.168 965237
3 630.168 957719
3 630.168 950164
3 630.168 946298
3 630.168 945256
3 630.168 944331
3 630.168 942637
3 630.533 941942
3 630.533 940879
3 630.533 937708
3 630.533 934821
3 632.26 931434
3 632.26 930265
3 632.26 916467
3 644.306 1035101
3 644.306 1023624
3 644.306 1018601
3 644.306 1001165
3 644.306 997671
3 644.306 981526
3 644.306 961337
3 644.306 958716
3 644.306 953171
3 644.823 938636
3 644.823 924785
3 645.229 923630
3 645.229 921082
3 645.229 919994
1 646.318 919655
3 646.62 916444
3 646.62 910803
3 647.451 908804
3 658.257 1046118
3 658.257 1031428
3 658.257 1025085
3 658.257 1020294
3 658.257 1018279
3 658.257 1001508
3 658.257 982073
3 658.257 975046
3 658.257 969454
3 658.842 962768
3 659.236 961341
3 659.613 950505
1 668.433 941097
3 668.689 935956
3 672.201 1017373
3 672.201 1012582
3 672.201 1005202
3 672.201 998219
3 672.201 997100
3 672.201 991938
3 672.201 987988
3 672.201 985623
3 672.516 979054
3 672.516 963278
3 672.516 954007
3 672.516 950057
3 672.81 949119
3 672.81 947692
3 673.633 946996
3 673.633 941226
3 673.633 937829
3 673.633 935783
3 673.633 923466
3 673.633 919516
3 674.421 919375
3 686.018 1083951
3 686.018 1066295
3 686.018 1036730
3 686.018 1035784
3 686.018 1020585
3 686.018 993507
3 686.018 963309
3 686.301 953008
3 686.301 949058
3 686.531 939565
3 686.531 925860
3 700.283 1000215
3 700.283 983351
3 700.283 983004
3 700.283 979054
3 700.283 971258
3 700.283 953974
3 700.283 950024
3 700.283 947692
3 700.749 947551
3 700.749 943601
3 701.116 932310
3 701.116 930732
3 701.116 924841
3 701.512 920967
3 701.512 920627
3 701.512 919856
3 701.512 917113
3 701.91 915065
3 701.91 913530
3 702.281 908051
3 702.281 904101
3 702.281 902674
3 702.281 901634
3 714.243 974424
3 714.243 968602
3 714.243 950278
3 714.243 936252
3 714.243 934351
3 714.243 930460
3 714.691 920279
3 714.691 919955
3 714.691 918112
3 715.12 916404
3 715.12 911613
3 715.12 909236
3 715.51 907809
3 715.857 904598
3 716.173 903810
3 728.02 1015308
3 728.02 1000945
3 728.02 991815
3 728.02 981820
3 728.02 980860
3 728.02 980431
3 728.02 972871
3 728.02 970326
3 728.02 968813
3 728.02 942982
3 728.409 942078
3 728.409 935029
3 728.845 934770
3 728.845 922492
3 729.623 919638
3 740.127 915319
3 740.494 911495
3 741.572 906701
3 742.287 1001706
3 742.287 990074
3 742.287 963111
3 742.287 959963
3 742.718 957996
3 742.718 951803
3 742.718 950376
3 743.209 949234
3 743.209 948748
3 743.209 947949
3 743.449 947360
3 743.449 945680
3 743.731 943907
3 743.731 943311
3 743.731 935288
3 744.507 934074
3 744.507 932301
3 745.105 930201
1 746.828 927536
3 746.828 919366
1 747.125 919238
3 747.125 907761
3 747.534 899130
3 747.534 893724
3 756.066 1051277
3 756.066 1019824
3 756.066 1005461
3 756.066 1003880
3 756.066 994908
3 756.066 985798
3 756.066 979667
3 756.066 963803
3 756.066 957485
3 756.358 956058
3 756.804 955466
3 756.804 951572
3 756.804 945979
3 756.804 934439
3 757.248 930525
3 757.248 927287
3 757.677 925860
3 763.22 924129
3 763.22 923659
3 763.475 922274
3 765.667 921700
3 765.667 921128
3 765.892 919701
3 768.885 912983
3 770.206 980656
3 770.206 972860
3 770.206 956682
3 770.206 950045
3 770.206 945254
3 770.206 942319
3 770.206 933491
3 770.206 929119
3 771.823 928524
3 773.701 926903
3 773.917 922953
3 774.131 914481
3 774.346 912118
3 776.92 912053
1 782.731 903014
3 783.113 901676
3 783.113 900336
3 784.207 1046368
3 784.207 994598
3 784.207 982898
3 784.207 967744
3 784.207 959864
3 784.207 957201
3 784.762 940986
3 784.762 940114
3 784.762 937868
3 785.165 935323
3 785.165 933638
3 785.165 929056
3 786.297 926847
3 786.67 925971
3 786.67 922021
3 786.67 921720
3 788.964 919575
3 789.342 915625
3 798.311 1041278
3 798.311 1039851
3 798.311 1037642
3 798.311 1026887
3 798.311 1016950
3 798.311 1010049
3 798.311 1002202
3 798.311 996325
3 798.311 987816
3 798.871 975208
3 798.871 967820
3 798.871 960159
3 798.871 955974
3 798.871 947692
3 799.322 943601
3 799.322 941432
3 800.415 941168
3 800.415 938547
3 800.415 936807
3 800.415 934418
3 800.878 920967
3 800.878 913819
3 801.624 905789
3 801.624 903214
3 801.624 902674
3 802.02 901634
3 812.008 1041267
3 812.008 1031137
3 812.008 995912
3 812.008 975422
3 812.008 959446
3 812.489 952998
3 812.489 949048
3 812.489 940263
3 812.489 932467
3 826.216 1022435
3 826.216 1003431
3 826.216 989456
3 826.216 986870
3 826.216 983675
3 826.216 977673
3 826.216 977647
3 826.216 975879
3 826.216 964247
3 826.216 958777
3 826.216 949597
3 826.216 945647
3 826.737 944167
3 827.105 942318
3 827.48 940177
3 827.48 938414
3 827.48 921586
3 827.75 920417
3 827.75 919321
3 840.127 1027789
3 840.127 1013426
3 840.127 992204
3 840.127 987021
3 840.127 970876
3 840.434 966175
3 840.434 963687
3 840.434 958453
3 840.434 950589
3 840.434 923331
3 840.712 913312
3 840.712 912496
3 840.945 910197
3 841.186 909753
3 841.186 906580
3 842.659 905053
3 854.197 1003801
3 854.197 986935
3 854.197 964106
3 854.197 956310
3 854.197 949424
3 854.197 941712
3 854.996 938636
3 854.996 935503
3 854.996 934284
3 854.996 934076
3 855.408 923651
3 855.408 923129
3 855.408 919701
3 855.408 908804
3 855.811 906961
3 868.192 1045068
3 868.192 1037272
3 868.192 1027139
3 868.192 1015819
3 868.192 1005181
3 868.192 1000281
3 868.192 982625
3 868.672 972397
3 868.672 961313
3 868.672 957363
3 869.094 950760
3 869.094 921557
3 869.094 914250
3 869.49 910300
3 869.49 909335
3 882.279 1019810
3 882.279 991776
3 882.279 982173
3 882.279 951958
3 882.279 949091
3 882.279 944651
3 882.279 940701
3 882.279 932796
3 882.279 921847
3 882.279 917056
3 896.164 998872
3 896.164 997473
3 896.164 994919
3 896.164 969942
3 896.164 969754
3 896.164 957342
3 896.164 936899
3 896.164 932108
3 896.164 931828
3 896.673 930362
3 897.034 924287
3 898.6 924032
3 910.138 1013637
3 910.138 1005660
3 910.138 1000869
3 910.138 998660
3 910.138 991190
3 910.138 981953
3 910.138 966013
3 910.138 953130
3 910.138 952457
3 910.138 949881
3 910.138 935560
3 910.459 931492
3 910.459 925178
3 910.459 918988
3 910.906 907748
3 910.906 900441
3 910.906 896869
3 911.134 890366
3 924.151 1021655
3 924.151 1009047
3 924.151 1002857
3 924.151 981918
3 924.151 979364
3 924.151 975692
3 924.151 974265
3 924.151 973125
3 924.151 957699
3 924.151 955413
3 924.151 950999
3 924.515 950622
3 924.515 947502
3 924.515 946303
3 924.515 935091
3 924.515 934635
3 924.515 921082
3 924.515 919655
3 924.806 917812
3 925.199 915269
3 925.199 906961
3 938.201 1002075
3 938.201 997947
3 938.201 990640
3 938.201 967111
3 938.201 943367
3 938.751 938576
3 939.228 936822
3 939.603 929068
3 939.966 927138
3 939.966 920633
3 952.26 1037327
3 952.26 1007129
3 952.26 1005702
3 952.26 1001530
3 952.26 987167
3 952.26 977564
3 952.26 973245
3 952.26 969295
3 952.26 969283
3 952.26 967856
3 952.767 938009
3 953.069 936166
3 953.069 922461
3 953.534 919701
3 954.459 917032
3 966.301 1025864
3 966.301 1009719
3 966.301 1008365
3 966.301 989570
3 966.301 980134
3 966.301 975019
3 966.612 953177
3 966.612 950709
3 966.612 933570
3 966.612 932255
3 966.85 927464
1 974.333 924550
3 974.333 918439
3 974.613 912947
3 975.137 910643
3 980.212 961087
3 980.212 956841
3 980.212 950794
3 980.212 950065
1 980.638 947119
3 981.014 932441
3 981.014 930659
3 981.014 918364
3 981.429 907785
3 981.429 905425
3 981.8 903643
3 981.8 897195
3 981.8 894852
3 981.8 894550
3 982.198 889938
3 994.092 1038308
3 994.092 1031001
3 994.092 1017296
3 994.092 1012928
3 994.092 996289
3 994.092 992438
3 994.092 975061
3 994.092 967754
3 994.4 932529
3 994.4 932055
3 994.826 927730
3 994.826 924638
3 994.826 924300
3 994.826 918411
3 994.826 916894
3 995.174 915523
3 995.781 914103
3 1008.34 1002333
3 1008.34 987970
3 1008.34 987764
3 1008.34 972428
3 1008.34 971307
3 1008.79 965430
3 1008.79 965124
3 1008.79 964849
3 1009.22 959662
3 1009.22 941093
3 1009.22 932945
3 1009.22 928156
3 1009.22 925112
3 1009.51 925028
3 1009.51 921159
3 1009.51 920151
3 1022.09 984243
3 1022.09 958738
3 1022.09 943584
3 1022.09 939634
3 1022.09 938876
3 1022.09 922731
3 1022.09 921854
3 1022.38 917904
3 1022.38 914243
3 1022.38 910597
3 1024.26 897690
3 1036.22 1000368
3 1036.22 990876
3 1036.22 990515
3 1036.22 971859
3 1036.22 937170
3 1036.22 932379
3 1036.67 927183
3 1036.67 916665
3 1036.67 915517
3 1037.39 914390
3 1037.39 907602
3 1038.83 904779
3 1050.33 995330
3 1050.33 978589
3 1050.33 972156
3 1050.33 962627
3 1050.33 950752
3 1050.76 950047
3 1050.76 946349
3 1051.12 928693
3 1064.15 1050262
3 1064.15 1037215
3 1064.15 1029419
3 1064.15 1021931
3 1064.15 1004895
3 1064.15 1000640
3 1064.15 975598
3 1064.15 972483
3 1064.15 971075
3 1064.15 953131
3 1064.15 934919
3 1064.64 929119
3 1064.64 925573
3 1065.58 920902
3 1065.81 917619
3 1078.03 983381
3 1078.03 977088
3 1078.03 972297
3 1078.03 970088
3 1078.03 964617
3 1078.03 964339
3 1078.42 944695
3 1078.42 942438
3 1078.42 940229
3 1078.42 931801
3 1078.75 922121
3 1078.75 913842
3 1078.75 909236
3 1078.75 907809
3 1079.02 905966
3 1092.28 998750
3 1092.28 996353
3 1092.28 988621
3 1092.28 975995
3 1092.28 962228
3 1092.28 959161
3 1092.28 954799
3 1092.28 951015
3 1092.28 950571
3 1092.77 947575
3 1092.77 940268
3 1093.14 938788
3 1093.14 935456
3 1093.14 929512
3 1093.56 927821
3 1093.56 926945
3 1094.68 924391
3 1096.31 918656
3 1096.31 911783
3 1106.35 1012887
3 1106.35 982689
3 1106.35 968744
3 1106.35 957771
3 1106.35 956729
3 1106.35 956344
3 1106.35 956080
3 1106.35 955731
3 1106.35 947935
3 1106.35 936264
3 1106.35 936122
3 1106.87 934985
3 1107.23 933291
3 1107.58 926901
3 1107.94 922444
3 1107.94 922104
3 1107.94 911442
3 1120.17 958813
3 1120.17 951701
3 1120.17 947751
3 1120.17 937149
3 1120.17 935180
3 1120.5 933754
3 1120.5 922122
3 1122.52 921276
3 1124.22 917901
3 1134.1 1047149
3 1134.1 1031801
3 1134.1 992948
3 1134.1 991197
3 1134.1 979720
3 1134.1 975971
3 1134.46 974331
3 1134.46 967216
3 1134.46 961337
3 1134.46 959910
3 1134.46 947524
3 1134.73 946205
3 1135.13 934877
3 1135.34 929157
3 1135.34 927314
3 1135.34 926411
3 1135.56 923746
3 1135.77 920252
3 1135.77 912415
3 1136.27 905950
3 1136.27 904107
3 1148.28 994173
3 1148.28 960654
3 1148.28 955536
3 1148.28 940224
3 1148.28 932057
3 1148.28 926497
3 1148.28 922552
3 1148.74 919190
3 1148.74 914103
3 1149.14 901136
3 1162.18 1045672
3 1162.18 1034618
3 1162.18 1006387
3 1162.18 995215
3 1162.18 995009
3 1162.18 968971
3 1162.66 961175
3 1162.66 956335
3 1162.66 947769
3 1162.66 946150
3 1162.66 944947
3 1162.66 943790
3 1163.01 943239
3 1163.01 938843
3 1163.54 929534
3 1163.87 925584
3 1164.09 925378
3 1176.22 1064138
3 1176.22 1034573
3 1176.22 1026325
3 1176.22 1022375
3 1176.22 989831
3 1176.22 986374
3 1176.67 972175
3 1176.67 968347
3 1176.67 960141
3 1176.67 955501
3 1177.09 954993
3 1177.09 951551
3 1177.09 943516
3 1177.09 935708
3 1177.48 927266
3 1177.48 926763
3 1177.48 925860
3 1180.21 912415
3 1180.65 904107
3 1190.18 1023784
3 1190.18 1015988
3 1190.18 1008599
3 1190.18 1003792
3 1190.18 973154
3 1190.18 971243
3 1190.18 965402
3 1190.18 961452
3 1190.18 960410
3 1190.18 955148
3 1190.51 939637
3 1190.51 938414
3 1190.51 937623
3 1190.51 933673
3 1204.13 1036470
3 1204.13 1012521
3 1204.13 1011730
3 1204.13 1010639
3 1204.13 1004994
3 1204.13 990455
3 1204.13 972799
3 1204.13 968849
3 1204.13 967422
3 1204.13 967348
3 1204.13 966807
3 1204.13 965659
3 1204.13 963612
3 1204.13 962986
3 1204.13 962893
3 1204.54 962534
3 1204.54 961195
3 1204.54 955816
3 1204.54 947490
3 1204.98 938815
3 1204.98 928599
3 1204.98 926948
3 1204.98 926045
3 1204.98 924202
3 1205.26 923746
3 1205.26 920615
3 1205.68 920252
3 1205.68 919701
3 1206.3 913384
3 1206.3 906961
3 1218.11 1006982
3 1218.11 993277
3 1218.11 989477
3 1218.11 981908
3 1218.11 977830
3 1218.42 964068
3 1218.42 947632
3 1218.66 946205
3 1218.66 943996
3 1218.66 936590
3 1218.66 927851
3 1220.09 919638
3 1222.14 916206
3 1222.14 911425
3 1222.14 909470
3 1223.23 904560
3 1223.65 904506
3 1232.16 998567
3 1232.16 996480
3 1232.16 979919
3 1232.16 956621
3 1232.16 945160
3 1232.16 933689
3 1232.16 933528
3 1232.16 929739
3 1232.62 926609
3 1232.62 925055
1 1238.86 919287
3 1238.86 911537
3 1239.26 910335
3 1240.06 906746
3 1240.06 887362
1 1246.1 1055834
3 1246.1 1048527
3 1246.1 1048026
3 1246.1 1044076
3 1246.1 1018377
3 1246.1 997887
3 1246.1 972016
3 1246.1 968196
3 1246.4 959870
3 1246.4 954358
3 1246.4 933845
3 1246.4 923185
3 1246.64 921758
3 1246.64 921148
3 1248.44 920214
3 1248.88 918910
3 1248.88 912343
3 1260.27 1013100
3 1260.27 995617
3 1260.27 992200
3 1260.27 983419
3 1260.27 980568
3 1260.27 971414
3 1260.27 967189
3 1260.27 966041
3 1260.71 943078
3 1260.71 933237
3 1260.71 926551
3 1260.71 923651
3 1261.01 919701
3 1261.27 919655
3 1261.27 918545
3 1261.27 916702
3 1274.2 981473
3 1274.2 976661
3 1274.2 968008
3 1274.2 964912
3 1274.2 963958
3 1274.2 963104
3 1274.2 961677
3 1275.25 959198
3 1275.72 942952
3 1275.72 942938
3 1275.72 938827
3 1275.72 935571
3 1275.72 934014
3 1276.17 929223
3 1276.17 923746
3 1276.17 921321
3 1276.88 919638
3 1276.88 917636
3 1277.62 916467
3 1288.1 974556
3 1288.1 971790
3 1288.1 954134
3 1288.1 954086
3 1288.1 949494
3 1288.42 947025
3 1288.42 944665
3 1288.42 938988
3 1288.42 936590
3 1288.87 935571
3 1288.87 931621
3 1289.09 928712
3 1289.09 923408
3 1289.09 919775
3 1289.69 919575
3 1289.9 918453
3 1292.75 916489
3 1295.85 914279
3 1296.06 911147
3 1302.18 1013569
3 1302.18 1004940
3 1302.18 999206
3 1302.18 994415
3 1302.18 984753
3 1302.18 976957
3 1302.18 970441
3 1302.18 959319
3 1302.66 957682
3 1302.66 955473
3 1303.05 952707
3 1303.05 948846
3 1303.05 941734
3 1303.43 941230
3 1303.43 941182
3 1303.82 937992
3 1303.82 934821
3 1306.63 932612
3 1306.85 920490
3 1306.85 919321
3 1316.04 1067722
3 1316.04 1037524
3 1316.04 1030118
3 1316.04 1026505
3 1316.04 1016413
3 1316.04 1014986
3 1316.04 981980
3 1316.49 979720
3 1316.49 963574
3 1316.49 961366
3 1316.49 948559
3 1316.49 944609
3 1316.49 931447
3 1316.93 915269
3 1316.93 908804
3 1317.3 906961
3 1330.15 1028176
3 1330.15 1012416
3 1330.15 1006256
3 1330.15 1003606
3 1330.15 985863
3 1330.15 985305
3 1330.15 984020
3 1330.15 979377
3 1330.15 972303
3 1330.75 967512
3 1330.75 963212
3 1330.75 949158
3 1330.75 948010
3 1331.26 942479
3 1331.26 935091
3 1331.26 929882
3 1331.75 923459
3 1331.75 917933
3 1331.75 910803
3 1331.75 910530
3 1332.61 905950
3 1344.1 988895
3 1344.1 971902
3 1344.1 967340
3 1344.1 951531
3 1344.1 933162
3 1344.54 930179
3 1344.54 928371
3 1344.9 928254
3 1344.9 924304
3 1358.09 986835
3 1358.09 977419
3 1358.09 969623
3 1358.09 946536
3 1358.09 934967
3 1358.51 928312
3 1358.51 927740
3 1358.51 918167
3 1358.51 917060
3 1358.51 915912
3 1358.81 914897
3 1361.65 911090
3 1361.65 903783
3 1372.2 1031821
3 1372.2 1022134
3 1372.2 1018184
3 1372.2 1010887
3 1372.2 987986
3 1372.2 974001
3 1372.2 970758
3 1372.2 967828
3 1372.2 960667
3 1372.73 959261
3 1372.73 957052
3 1372.73 949923
3 1373.12 945973
3 1373.12 941182
3 1373.57 937880
3 1373.79 934110
3 1374.01 925897
3 1374.22 922726
3 1374.22 919063
3 1374.45 917636
3 1374.45 916467
3 1386.11 1007266
3 1386.11 1001790
3 1386.11 984134
3 1386.11 980105
3 1386.11 972798
3 1386.11 972169
3 1386.48 969771
3 1386.48 967998
3 1386.48 963025
3 1386.48 953802
3 1386.81 944633
3 1386.81 943206
3 1386.81 936146
3 1386.81 932180
3 1386.81 931355
3 1387.16 926906
3 1387.38 926279
3 1387.38 918972
3 1387.38 907126
3 1387.38 905699
3 1388.05 902241
3 1400.01 1012188
3 1400.01 1000664
3 1400.01 998483
3 1400.01 995315
3 1400.01 986824
3 1400.01 986042
3 1400.01 970361
3 1400.01 969864
3 1400.01 965052
3 1400.34 959175
3 1400.34 956900
3 1400.34 954384
3 1400.34 949572
3 1400.6 947670
3 1400.6 946410
3 1400.6 942941
3 1400.6 941514
3 1401.38 940084
3 1402.14 918868
3 1403.22 917957
3 1414.2 1069233
3 1414.2 1055528
3 1414.2 1037025
3 1414.2 1023387
3 1414.2 1015591
3 1414.2 1004529
3 1414.2 988943
3 1414.2 987968
3 1414.2 958406
3 1414.2 953290
3 1414.2 950115
3 1414.2 948499
3 1414.74 948277
3 1414.74 947197
3 1414.74 945770
3 1414.74 943486
3 1414.74 941820
3 1415.16 936148
3 1428.12 1008369
3 1428.12 974761
3 1428.12 968919
3 1428.12 964920
3 1428.12 953935
3 1428.12 947195
3 1428.12 946859
3 1428.12 945345
3 1428.12 937882
3 1428.59 937592
3 1428.59 937259
3 1428.59 935666
3 1428.59 933920
3 1428.59 933546
3 1428.59 926960
3 1429.04 921275
3 1429.04 917816
3 1429.04 913526
3 1429.04 908238
3 1429.8 907737
3 1442.2 1014130
3 1442.2 999463
3 1442.2 992813
3 1442.2 979294
3 1442.2 977659
3 1442.2 960003
3 1442.2 951322
3 1442.2 949902
3 1442.2 948526
3 1442.52 937451
3 1442.52 936166
3 1442.75 933354
3 1442.75 923746
3 1443.41 922461
3 1444.03 921131
3 1444.03 905123
3 1456.04 1035518
3 1456.04 1005320
3 1456.04 997001
3 1456.04 984381
3 1456.04 966725
3 1456.04 955248
3 1456.33 944695
3 1456.33 942852
3 1456.33 935056
3 1456.9 932865
3 1456.9 928571
3 1457.39 923888
3 1457.85 922461
3 1459.12 919701
3 1459.53 913384
3 1459.53 908804
3 1459.75 906961
3 1470.13 1006025
3 1470.13 978368
3 1470.13 968220
3 1470.13 944773
3 1470.13 939016
3 1470.13 925990
3 1484.12 1012770
3 1484.12 1006750
3 1484.12 992708
3 1484.12 984912
3 1484.12 982542
3 1484.12 981177
3 1484.12 979646
3 1484.12 971416
3 1484.12 970481
3 1484.61 961560
3 1484.61 959895
3 1484.61 955277
3 1484.61 937621
3 1484.86 926428
3 1484.86 925041
3 1484.86 921598
3 1485.1 920793
3 1485.31 920757
3 1485.31 920587
3 1485.31 914808
3 1485.31 903331
3 1485.57 901801
3 1485.78 901574
3 1485.78 900983
1 1485.99 898119
3 1485.99 896024
3 1487.34 894981
3 1498.05 1033774
3 1498.05 1027056
3 1498.05 1010495
3 1498.05 1005704
3 1498.05 988915
3 1498.05 987659
3 1498.05 986511
3 1498.05 974879
3 1498.56 969548
3 1498.56 963667
3 1498.56 956488
3 1498.56 950887
3 1498.56 950242
3 1498.56 943764
3 1498.56 929401
3 1498.56 923630
3 1498.56 923605
3 1499.02 922115
3 1499.02 919748
3 1499.02 919655
3 1501.71 918316
3 1512.12 997591
3 1512.12 983886
3 1512.12 972536
3 1512.12 958808
3 1512.12 957674
3 1512.52 947340
3 1512.52 943390
3 1512.52 941228
3 1512.52 934780
3 1512.52 927716
3 1515.04 926302
3 1515.26 925942
3 1515.26 916640
3 1515.73 915386
3 1517.19 913885
3 1517.39 913100
3 1517.39 912690
3 1526.08 995363
3 1526.08 983731
3 1526.08 976424
3 1526.08 975873
3 1526.08 966262
3 1526.08 965415
3 1526.08 961337
3 1526.08 959910
3 1526.39 946205
3 1526.39 945973
3 1526.39 943996
3 1526.82 942260
3 1527.03 941230
3 1527.25 939255
3 1527.47 931191
3 1527.47 930719
3 1527.47 929958
3 1527.47 923263
3 1527.71 922461
3 1538.12 918316
3 1538.48 914327
3 1538.48 913525
3 1540.19 1033895
3 1540.19 1003697
3 1540.19 995426
3 1540.19 979201
3 1540.19 974410
3 1540.19 956169
3 1540.19 954943
3 1540.19 952453
3 1540.19 948216
3 1540.68 946483
3 1540.68 939393
3 1540.68 938531
3 1540.68 933740
3 1541.07 933208
3 1541.07 928266
3 1541.07 926839
3 1541.46 922108
3 1554.1 1013737
3 1554.1 1000663
3 1554.1 985509
3 1554.1 955311
3 1554.1 953769
3 1554.1 948978
3 1554.1 944410
3 1554.52 942428
3 1554.79 940516
3 1554.79 937962
3 1554.79 937092
3 1555.08 936614
3 1556.06 927314
3 1556.06 915220
3 1556.34 914431
3 1556.57 913528
3 1556.82 910367
3 1568.07 1030733
3 1568.07 1014172
3 1568.07 1004569
3 1568.07 947237
3 1568.07 931699
3 1568.07 930738
3 1568.07 929262
3 1568.75 924319
3 1582.11 997874
3 1582.11 993924
3 1582.11 986128
3 1582.11 968477
3 1582.11 968472
3 1582.11 959743
3 1582.11 944628
3 1582.4 939253
3 1582.4 935748
3 1582.4 931604
3 1582.4 927654
3 1582.65 924257
1 1584.1 921518
3 1584.33 913919
3 1584.66 912246
3 1584.66 912168
3 1585.05 905713
3 1585.39 902905
3 1596.11 1028748
3 1596.11 1019145
3 1596.11 1014354
3 1596.11 975313
3 1596.11 957657
3 1596.11 953955
3 1596.11 925724
3 1596.11 925642
3 1596.51 904714
3 1596.51 893551
3 1596.51 892370
3 1596.75 889176
3 1610.21 1055875
3 1610.21 1028218
3 1610.21 997610
3 1610.21 994981
3 1610.21 981230
3 1610.21 958861
3 1610.21 954070
3 1610.21 942438
3 1610.71 940229
3 1610.71 935209
3 1610.71 934999
3 1610.71 933572
3 1610.71 926948
3 1610.71 926045
3 1610.71 922095
3 1611.34 920729
3 1611.34 919701
3 1612.06 908804
3 1613.29 906961
3 1624.25 1031023
3 1624.25 1015452
3 1624.25 1005469
3 1624.25 981725
3 1624.25 965580
3 1624.62 952422
3 1624.88 951926
3 1624.88 951460
3 1625.19 940905
3 1625.19 939078
3 1625.19 930780
3 1625.42 928278
3 1625.42 922213
3 1625.64 921687
3 1625.64 918886
3 1625.85 918823
3 1625.85 914873
3 1638.05 1032157
3 1638.05 1014501
3 1638.05 1004291
3 1638.05 996984
3 1638.05 994775
3 1638.05 993704
3 1638.05 967492
3 1638.05 937633
3 1638.05 936925
3 1638.36 929129
3 1638.36 917159
3 1638.36 915737
3 1639.31 915595
3 1639.69 906821
3 1639.69 903963
3 1652.15 989629
3 1652.15 985967
3 1652.15 971016
3 1652.15 963709
3 1652.15 956473
3 1652.15 950532
3 1652.15 948639
3 1652.61 946457
3 1652.61 945153
3 1652.61 937357
3 1653.42 935465
3 1653.8 919519
3 1653.8 911261
3 1654.19 899191
3 1654.19 897795
3 1654.19 886318
3 1666.1 969350
3 1666.1 964559
3 1666.1 958762
3 1666.1 953448
3 1666.1 945717
3 1666.1 934881
3 1666.1 932434
3 1666.4 917282
3 1666.4 911396
3 1666.62 908690
3 1680.11 1036126
3 1680.11 1029238
3 1680.11 1028588
3 1680.11 1012410
3 1680.11 982723
3 1680.11 974143
3 1680.11 954492
3 1680.11 952066
3 1680.45 945835
3 1680.45 940589
3 1680.45 936728
3 1680.45 934919
3 1680.93 923474
3 1681.3 921631
3 1681.3 920713
3 1682.61 920087
3 1682.85 918610
3 1683.06 915058
3 1683.27 913819
3 1683.27 913310
3 1683.59 901833
3 1683.59 901634
3 1694.14 1014026
3 1694.14 997425
3 1694.14 992148
3 1694.14 986746
3 1694.14 980880
3 1694.14 971355
3 1694.14 964902
3 1694.14 963475
3 1694.14 959104
3 1694.14 956543
3 1694.14 951138
3 1694.5 950763
3 1694.5 945784
3 1694.74 944859
3 1694.74 937058
3 1695.38 932820
3 1695.38 928029
3 1695.38 917107
3 1698.05 908632
3 1698.26 905641
3 1700.35 901384
3 1700.98 900995
3 1701.5 898440
3 1701.5 897652
3 1708.11 1069528
3 1708.11 1051388
3 1708.11 1012587
3 1708.11 1005631
3 1708.11 990208
3 1708.11 983730
3 1708.11 980656
3 1708.11 980478
3 1708.11 962124
3 1708.62 953964
3 1708.62 950813
3 1708.62 940460
3 1709.02 937818
3 1709.02 928983
3 1709.02 927556
3 1709.02 924982
3 1709.02 921128
3 1709.44 919701
3 1710.14 919655
3 1710.14 908804
3 1710.53 906961
3 1722.25 1030090
3 1722.25 1026500
3 1722.25 1013781
3 1722.25 1005985
3 1722.25 976773
3 1722.25 968029
3 1722.25 957900
3 1722.25 957261
3 1722.25 956272
3 1722.64 948150
3 1722.64 937382
3 1722.64 936890
3 1722.64 925258
3 1722.64 924792
3 1722.95 917710
3 1722.95 905528
3 1723.23 900054
3 1723.23 899177
3 1723.23 895227
3 1723.53 892747
3 1736.3 1014193
3 1736.3 998015
3 1736.3 981318
3 1736.3 959348
3 1736.73 951619
3 1736.73 950772
3 1736.73 947639
3 1736.73 943869
3 1736.73 942127
3 1737.16 932535
3 1739.27 931238
3 1739.27 928398
3 1740.08 927288
3 1740.08 919652
3 1750.12 1008933
3 1750.12 994623
3 1750.12 983146
3 1750.38 976656
3 1750.59 972310
3 1751.02 963143
3 1751.02 958430
3 1751.02 954654
1 1757.74 943366
3 1758.13 941914
3 1758.13 941861
3 1758.52 937723
3 1759.28 930541
3 1764.24 993038
3 1764.24 975475
3 1764.24 975382
3 1764.24 962181
3 1764.24 957787
3 1764.24 953468
3 1764.24 946303
3 1764.24 937273
3 1764.62 934240
3 1764.62 925173
3 1764.62 916872
3 1765.23 916348
3 1765.44 910803
3 1768.86 909603
3 1768.86 905950
3 1778.19 1037297
3 1778.19 1021125
3 1778.19 1012289
3 1778.19 1009377
3 1778.19 1002070
3 1778.19 993770
3 1778.19 983602
3 1778.19 968071
3 1778.19 952027
3 1778.19 922206
3 1778.19 921766
3 1779.07 917032
3 1792.02 1024700
3 1792.02 1021463
3 1792.02 995764
3 1792.02 991272
3 1792.02 989718
3 1792.02 962902
3 1792.02 944548
3 1792.02 942354
3 1792.02 938911
3 1792.02 938589
3 1792.02 937241
3 1792.57 929344
3 1792.57 927142
3 1792.57 926125
3 1792.57 925830
3 1792.57 914864
3 1793 901981
3 1794.66 900849
3 1806.02 960993
3 1806.02 950384
3 1806.02 947250
3 1806.27 941893
3 1806.27 927836
3 1806.27 915759
3 1806.5 914393
3 1806.5 911143
3 1806.5 910443
3 1806.5 907437
3 1806.81 906352
3 1806.81 899303
3 1806.81 897531
3 1807.13 896176
3 1807.34 894186
3 1807.34 893210
3 1807.79 890224
3 1820.36 1039246
3 1820.36 1036482
3 1820.36 1010651
3 1820.36 1010463
3 1820.36 1008254
3 1820.36 996777
3 1820.81 992827
3 1820.81 985421
3 1820.81 974272
3 1820.81 961677
3 1821.23 950723
3 1821.59 948304
3 1821.59 948203
3 1821.59 943513
3 1821.59 935192
3 1821.59 930716
3 1822.01 923459
3 1822.01 921341
3 1822.41 919655
3 1822.76 916348
3 1824.16 910803
3 1824.16 908804
3 1834.18 970288
3 1834.18 963966
3 1834.18 963312
3 1834.18 949607
3 1834.18 948330
3 1834.45 929710
3 1834.45 926978
3 1834.67 923561
3 1834.67 923108
3 1834.67 922134
3 1834.91 919955
3 1835.96 916005
3 1848.02 1016290
3 1848.02 970375
3 1848.02 969016
3 1848.02 964225
3 1848.02 943735
3 1848.02 926577
3 1848.02 922407
3 1848.48 916361
3 1848.85 914288
3 1849.23 908055
3 1850.27 907760
3 1862.21 1090727
3 1862.21 1074166
3 1862.21 1055442
3 1862.21 1038983
3 1862.21 1032364
3 1862.21 1014708
3 1862.21 999394
3 1862.21 998563
3 1862.21 987086
3 1862.21 980121
3 1862.21 976171
3 1862.21 969453
3 1862.21 965981
3 1862.78 945489
3 1862.78 939419
3 1863.15 937992
3 1864.21 934877
3 1864.21 928599
3 1864.21 927314
3 1864.21 923888
3 1864.61 914393
3 1865.19 910500
3 1865.19 906550
3 1865.19 905123
3 1876.08 990415
3 1876.08 988988
3 1876.08 986368
3 1876.08 985038
3 1876.08 963137
3 1876.08 961294
3 1876.08 939604
3 1876.08 938643
3 1876.08 929452
3 1876.08 926608
3 1876.66 922458
3 1880.1 920615
3 1890.13 1033248
3 1890.13 1008037
3 1890.13 987547
3 1890.13 979315
3 1890.13 974328
3 1890.13 972901
3 1890.13 971094
3 1890.13 968089
3 1890.13 964139
3 1890.46 963973
3 1890.46 959348
3 1890.46 951613
3 1890.46 948272
3 1890.7 945275
3 1890.7 937227
3 1890.93 935800
3 1890.93 934635
3 1890.93 933177
3 1891.98 930170
3 1891.98 927472
3 1891.98 923522
3 1892.36 923167
3 1893.25 922095
3 1894.35 921170
3 1894.35 919655
3 1896.9 918058
3 1896.9 916379
1 1904.15 1022458
3 1904.15 1002248
3 1904.15 991412
3 1904.15 985677
3 1904.15 979907
3 1904.15 977706
3 1904.15 958322
3 1904.15 955732
3 1905 951171
3 1905 948935
3 1905 943864
3 1905 942437
3 1905.4 941950
3 1914.59 938076
3 1914.59 930244
3 1915.37 929554
3 1915.37 925616
3 1915.8 925129
3 1918.32 1029245
3 1918.32 1028241
3 1918.32 995286
3 1918.32 989726
3 1918.32 983438
3 1918.32 978948
3 1918.32 969733
3 1918.32 961342
3 1918.32 957392
3 1919.26 955647
3 1919.26 951697
3 1919.26 937992
3 1919.65 935783
3 1919.65 929306
3 1920.03 926452
3 1920.03 923588
3 1920.03 922492
3 1921.82 919701
3 1924.97 919638
3 1928.45 911495
3 1932.06 1050631
3 1932.06 1030141
3 1932.06 1017845
3 1932.06 1006368
3 1932.06 1001910
3 1932.06 993405
3 1932.06 974899
3 1932.06 966573
3 1932.06 965146
3 1932.06 962788
3 1932.55 945132
3 1932.55 941182
3 1932.55 937731
3 1932.88 936977
3 1932.88 935571
3 1932.88 932125
3 1932.88 931621
3 1934.14 929249
3 1934.5 924423
3 1934.77 924106
3 1935.05 921900
3 1935.05 920473
3 1935.29 919775
3 1935.92 918979
3 1935.92 916489
3 1946.3 1036877
3 1946.3 1035450
3 1946.3 1031500
3 1946.3 1016984
3 1946.3 987419
3 1946.3 975034
3 1946.3 970872
3 1946.3 953216
3 1946.3 945909
3 1946.3 937488
3 1946.3 936340
3 1946.3 934591
3 1947.63 933524
3 1947.63 932399
3 1948.04 925707
3 1948.04 920916
3 1948.04 919660
3 1950.83 919437
3 1960.01 1050547
3 1960.01 1030366
3 1960.01 1025554
3 1960.01 1020349
3 1960.01 1006644
3 1960.01 1004961
3 1960.01 1000149
3 1960.01 997269
3 1960.32 994496
3 1960.32 981516
3 1960.32 963860
3 1960.32 950155
3 1960.32 949923
3 1960.32 945132
3 1960.59 944610
3 1960.59 941182
3 1960.59 938663
3 1960.83 933098
3 1960.83 930244
3 1960.83 926133
1 1962.83 922897
3 1963.19 922123
3 1963.19 921054
3 1963.56 920252
3 1966.46 916379
3 1974.29 1040022
3 1974.29 1001507
3 1974.29 992874
3 1974.29 975295
3 1974.29 961443
3 1974.29 953408
3 1974.29 948617
3 1974.29 944667
3 1974.77 936281
3 1975.84 933023
3 1976.54 925510
3 1976.54 918889
3 1976.87 918453
3 1977.08 916489
3 1980.9 916310
3 1980.9 915293
3 1980.9 912816
3 1981.13 911255
3 1981.13 911147
3 1988.06 997376
3 1988.06 996503
3 1988.06 991586
3 1988.06 973930
3 1988.06 969819
3 1988.06 961246
3 1988.06 959715
3 1988.06 948083
3 1988.4 939870
3 1988.66 938548
3 1988.66 931241
3 1988.66 922993
3 1989.08 921823
3 1989.08 919701
3 1990.48 906961
3 2002.21 983357
3 2002.21 963350
3 2002.21 961315
3 2002.21 938058
3 2002.21 931186
3 2002.98 929413
3 2002.98 922632
3 2002.98 917311
1 2003.97 917307
3 2004.19 908050
3 2004.19 887423
3 2004.19 880393
3 2016.12 976319
3 2016.12 960975
3 2016.12 957282
3 2016.12 945334
3 2016.12 932132
3 2016.12 932016
3 2017.58 931855
3 2017.58 922206
3 2017.58 922094
3 2017.97 914410
3 2030.18 990138
3 2030.18 979610
3 2030.18 961672
3 2030.18 960321
3 2030.18 959662
3 2030.18 957003
3 2030.46 954743
3 2030.46 952189
3 2030.46 951631
3 2030.46 950120
3 2030.46 949251
3 2030.46 935546
3 2030.77 934989
3 2030.77 932700
3 2030.77 928750
3 2031.01 921549
3 2044.19 1022742
3 2044.19 1012189
3 2044.19 1002417
3 2044.19 984761
3 2044.19 967188
3 2044.19 966775
3 2044.51 963604
3 2044.51 962456
3 2044.74 961916
3 2044.74 957125
3 2044.74 953087
3 2044.74 948998
3 2044.74 934635
3 2044.74 933572
3 2045.19 924982
3 2045.19 922095
3 2045.19 920252
3 2045.19 919701
3 2045.43 917812
3 2045.63 908960
3 2046.02 908057
3 2046.41 906961
3 2058.04 1020161
3 2058.04 1010997
3 2058.04 1008991
3 2058.04 1003533
3 2058.04 953262
3 2058.04 947265
3 2058.04 945114
3 2058.04 942905
3 2058.37 942783
3 2058.37 935739
3 2058.37 928769
3 2058.37 924819
3 2058.65 922197
3 2058.65 914282
3 2058.65 907649
3 2058.65 901449
3 2058.93 897706
3 2058.93 887912
3 2072.29 1040853
3 2072.29 1015603
3 2072.29 985405
3 2072.29 982234
3 2072.29 978284
3 2072.29 967293
3 2072.29 964579
3 2072.29 955473
3 2072.29 939834
3 2072.66 939328
3 2072.66 932806
3 2072.66 917268
3 2072.66 916365
3 2072.91 912846
3 2074.01 905950
3 2074.64 904107
3 2086.25 997439
3 2086.25 992981
3 2086.25 988489
3 2086.25 984734
3 2086.25 976938
3 2086.25 958987
3 2086.25 956500
3 2086.72 949193
3 2086.72 944747
3 2086.72 943403
3 2086.72 941291
3 2086.72 932553
3 2087.16 924376
3 2087.16 919868
3 2087.16 918441
3 2087.16 913303
3 2087.16 912515
3 2087.63 907002
3 2087.63 905575
3 2087.63 902155
3 2087.63 898268
3 2087.63 896488
3 2088.4 894859
3 2089.16 894392
3 2089.52 887449
3 2100.1 1017053
3 2100.1 1000492
3 2100.1 984123
3 2100.1 962926
3 2100.1 958924
3 2100.1 949923
3 2100.1 947292
3 2100.1 945973
3 2100.1 941182
3 2100.1 937318
3 2100.43 934475
3 2100.43 928286
3 2100.94 922492
3 2100.94 920490
3 2101.17 919321
3 2114.17 1046319
3 2114.17 1031956
3 2114.17 1015778
3 2114.17 1004017
3 2114.17 957472
3 2114.17 950704
3 2114.17 949277
3 2114.17 931621
3 2114.45 917636
3 2114.45 915319
3 2128.26 977671
3 2128.26 957273
3 2128.26 948220
3 2128.26 942377
3 2128.26 938427
3 2128.26 934397
3 2128.26 922889
3 2128.76 918098
3 2129.11 915889
3 2129.11 908384
3 2129.11 907916
3 2129.11 906175
3 2129.51 904748
3 2129.87 902559
3 2131.39 902255
3 2132.01 901129
3 2135.47 894748
3 2135.84 892843
3 2135.84 883992
1 2136.87 882984
3 2142.34 972584
3 2142.34 954928
3 2142.34 947132
3 2142.34 946346
3 2142.34 942492
3 2142.34 938796
3 2142.61 936987
3 2142.61 934218
3 2142.84 915685
3 2142.84 906903
3 2143.06 905180
3 2143.06 902346
3 2143.06 899416
3 2143.06 899079
3 2143.42 895129
3 2143.94 894625
3 2144.36 892816
3 2144.36 891580
3 2144.36 887975
3 2156.01 1019150
3 2156.01 1015001
3 2156.01 1010524
3 2156.01 1009097
3 2156.01 990360
3 2156.01 985454
3 2156.01 977658
3 2156.01 966823
3 2156.01 960447
3 2156.01 955892
3 2156.01 949726
3 2156.01 940536
3 2156.01 926343
3 2159.35 925108
3 2159.57 920593
3 2170.05 1036744
3 2170.05 1023165
3 2170.05 1021052
3 2170.05 1018374
3 2170.36 1009784
3 2170.36 993639
3 2170.36 941622
3 2170.76 935244
3 2170.76 934564
3 2171.49 934315
3 2184.13 1066809
3 2184.13 1052446
3 2184.13 1036268
3 2184.13 1035440
3 2184.13 988895
3 2184.13 973341
3 2184.13 963655
3 2184.13 939911
3 2184.13 938260
3 2184.13 931801
3 2184.68 923606
3 2184.88 922115
3 2185.09 920322
3 2185.09 910803
3 2186.26 910483
3 2198.18 1027568
3 2198.18 1022756
3 2198.18 1005100
3 2198.18 997780
3 2198.18 997175
3 2198.18 996353
3 2198.18 996290
3 2198.18 979604
3 2198.18 971646
3 2198.18 964339
3 2198.18 955966
3 2198.18 954163
3 2198.72 947956
3 2198.72 947490
3 2199.11 946205
3 2200.18 941692
3 2200.54 931621
3 2200.54 921147
3 2200.94 914104
3 2200.94 912677
3 2212.2 1063176
3 2212.2 1056458
3 2212.2 1026893
3 2212.2 1018216
3 2212.2 1004511
3 2212.2 991132
3 2212.2 987182
3 2212.2 986219
3 2212.63 972016
3 2212.63 970298
3 2212.63 966667
3 2212.63 956593
3 2212.63 956027
3 2212.63 948272
3 2213.06 947889
3 2213.06 944100
3 2213.44 942673
3 2213.44 935800
3 2213.44 916598
3 2213.85 912983
3 2214.28 905966
3 2226.07 1008236
3 2226.07 993873
3 2226.07 989365
3 2226.07 986778
3 2226.07 986237
3 2226.07 984804
3 2226.07 976757
3 2226.07 975330
3 2226.07 975265
3 2226.07 971380
3 2226.39 961777
3 2226.39 949127
3 2226.39 936148
3 2240.17 1021261
3 2240.17 1019966
3 2240.17 1003426
3 2240.17 991838
3 2240.17 985357
3 2240.17 984350
3 2240.17 982923
3 2240.17 977288
3 2240.17 968698
3 2240.67 957221
3 2240.67 951755
3 2240.67 940992
3 2240.67 939565
3 2241.08 933768
3 2241.08 929216
3 2241.08 925860
3 2248.78 924129
3 2249.16 923459
3 2249.16 918854
3 2249.82 917933
3 2249.82 912119
3 2250.05 910946
3 2250.24 910154
3 2250.45 909630
3 2251.3 903810
3 2254.04 964598
3 2254.04 957098
3 2254.04 949715
3 2254.04 945765
3 2254.04 929404
3 2254.36 928061
3 2254.88 919166
3 2255.1 915736
3 2255.53 915321
3 2255.53 914261
3 2255.53 908965
3 2255.89 908591
3 2255.89 905168
3 2256.26 903458
3 2256.26 902031
3 2257.08 901613
3 2268.19 1028184
3 2268.19 1003058
3 2268.19 999145
3 2268.19 999108
3 2268.19 993056
3 2268.19 992158
3 2268.19 975416
3 2268.19 974896
3 2268.19 971190
3 2268.19 967348
3 2268.19 961342
3 2268.55 960723
3 2268.55 960630
3 2268.55 951913
3 2268.55 949109
3 2268.55 937477
3 2268.88 937043
3 2268.88 933893
3 2269.26 925860
3 2273.79 918994
3 2273.79 915044
3 2274.17 904209
3 2282.19 1036555
3 2282.19 1031770
3 2282.19 998230
3 2282.19 981245
3 2282.19 980616
3 2282.19 965351
3 2282.19 963934
3 2282.19 958626
3 2282.5 946623
3 2282.5 945490
3 2282.5 937696
3 2283.75 935442
3 2283.75 934645
3 2283.75 933227
3 2284.31 927991
3 2284.31 926849
3 2284.31 925995
3 2284.31 921834
3 2284.58 920949
3 2284.78 918845
3 2284.78 915669
3 2286.5 914784
3 2296.08 1030130
3 2296.08 1020939
3 2296.08 1010099
3 2296.08 1004468
3 2296.08 1003041
3 2296.36 986745
3 2296.36 980801
3 2296.36 972843
3 2296.36 961366
3 2296.63 958936
3 2296.63 957416
3 2296.86 957203
3 2297.28 956536
3 2297.28 951582
3 2297.28 945949
3 2297.28 936899
3 2297.28 935781
3 2297.28 935223
3 2297.55 928599
3 2297.55 928571
3 2297.78 927314
3 2297.78 923888
3 2298.01 922461
3 2298.45 919701
3 2299.09 917905
3 2299.09 917812
3 2299.33 917268
1 2299.53 916365
3 2299.94 912415
3 2301.7 910530
3 2302.06 904107
3 2310.33 1030357
3 2310.33 1009240
3 2310.33 1006930
3 2310.33 1001554
3 2310.33 1000159
3 2310.88 987293
3 2310.88 978648
3 2310.88 958566
3 2311.32 940910
3 2311.32 934192
3 2311.7 934062
3 2312.05 929324
3 2312.05 922799
3 2312.45 922310
3 2312.45 920357
3 2324.11 1052212
3 2324.11 1019971
3 2324.11 1015673
3 2324.11 1014246
3 2324.11 1000541
3 2324.58 972310
3 2325.33 972114
3 2325.33 970684
3 2325.74 954654
1 2332.33 938723
3 2332.33 935998
3 2332.57 933718
3 2332.81 925922
3 2332.81 922737
3 2333.03 919786
3 2338.22 1031184
3 2338.22 1023388
3 2338.22 1002036
3 2338.22 986523
3 2338.22 947797
3 2338.66 939014
3 2338.66 935484
3 2338.66 930446
3 2338.66 925881
3 2342.98 911394
3 2342.98 901769
3 2352.09 1025935
3 2352.09 1020175
3 2352.09 1009251
3 2352.09 1000104
3 2352.09 993720
3 2352.09 985449
3 2352.09 981496
3 2352.56 973115
3 2352.56 970315
3 2352.56 968888
3 2352.56 963870
3 2353.65 957218
3 2353.65 956331
3 2354.02 952293
3 2354.02 944687
3 2354.02 937380
3 2354.02 935800
3 2354.42 930170
3 2354.42 928264
3 2354.42 927472
3 2354.42 924668
3 2354.42 923241
3 2355.18 914480
3 2355.18 909900
3 2355.55 908804
3 2366.22 989360
3 2366.22 981564
3 2366.22 960625
3 2366.22 944323
3 2366.22 941152
3 2366.22 940198
3 2366.22 938771
3 2366.7 934821
3 2368.72 933896
3 2368.72 932612
3 2370.18 924175
3 2370.4 919321
3 2380.24 1019401
3 2380.24 1010811
3 2380.24 987067
3 2380.24 979760
3 2380.24 968407
3 2380.24 963616
3 2380.24 957601
3 2380.58 957600
3 2380.58 953518
3 2380.58 952809
3 2380.58 946363
3 2380.84 939623
3 2380.84 934508
3 2380.84 934075
3 2381.06 927685
3 2394.1 1014044
3 2394.1 1006248
3 2394.1 998202
3 2394.1 984497
3 2394.1 983067
3 2394.1 979267
3 2394.1 968272
3 2394.59 967635
3 2394.97 965494
3 2394.97 962696
1 2395.35 952734
3 2395.72 950397
3 2395.72 945569
3 2395.72 936979
3 2395.72 936623
3 2395.72 927577
3 2395.72 922260
3 2396.5 918784
3 2396.5 900730
3 2396.5 898554
3 2397.91 895428
3 2397.91 892377
3 2397.91 889392
3 2408.12 995073
3 2408.12 993641
3 2408.12 990320
3 2408.12 988194
3 2408.12 971633
3 2408.12 971425
3 2408.12 957270
3 2408.12 953769
3 2408.12 953015
3 2408.12 949363
3 2408.12 949276
3 2408.65 942056
3 2408.65 937359
3 2408.65 935571
3 2408.65 931621
3 2422.24 981570
3 2422.24 963914
3 2422.24 958703
3 2422.24 941476
3 2422.24 935898
3 2422.58 933134
3 2422.58 925808
3 2422.58 922187
3 2422.58 921381
3 2422.58 919432
3 2425.55 917805
3 2425.55 911250
3 2425.97 911062
3 2436 954062
3 2436 937658
3 2436 927513
3 2436 927038
3 2436.48 922512
3 2436.93 921073
3 2440.14 921013
3 2440.51 917063
3 2450.03 965727
3 2450.03 960220
3 2450.03 955056
3 2450.03 948136
3 2450.03 943010
3 2450.03 936745
3 2450.03 936702
3 2450.03 934455
3 2450.03 932556
3 2450.03 929395
3 2450.36 927197
3 2450.36 926574
3 2450.36 912264
3 2450.59 906805
3 2450.59 905203
3 2450.59 901294
3 2450.59 899047
3 2464.04 962699
3 2464.04 962644
3 2464.04 955337
3 2464.04 950948
3 2464.04 949121
3 2464.58 944590
3 2465.03 939368
3 2465.03 938527
3 2465.03 934281
3 2465.69 932958
1 2466.38 926882
3 2466.79 926766
3 2466.79 924168
3 2466.79 919099
3 2478.12 1023802
3 2478.12 1015384
3 2478.12 1006146
3 2478.12 989553
3 2478.12 960981
3 2478.12 951326
3 2478.12 946564
3 2478.12 942614
3 2478.47 920713
3 2478.47 919286
3 2478.47 919229
3 2478.47 912202
3 2478.76 908394
3 2479.2 907411
3 2492.02 1051165
3 2492.02 1023625
3 2492.02 1017865
3 2492.02 1012136
3 2492.02 1008186
3 2492.02 994481
3 2492.02 983004
3 2492.02 976131
3 2492.02 973081
3 2492.02 945361
3 2492.36 943516
3 2492.77 927083
3 2492.77 926763
3 2492.77 925860
3 2506.1 1080660
3 2506.1 1066010
3 2506.1 1064254
3 2506.1 1058046
3 2506.1 1034302
3 2506.1 1026814
3 2506.1 1025920
3 2506.1 999204
3 2506.1 986726
3 2506.1 986430
3 2506.1 981113
3 2506.1 975673
3 2506.64 969481
3 2506.64 962174
3 2506.64 955859
3 2507.03 952667
3 2507.46 941347
1 2510.22 932723
3 2510.45 932702
3 2510.45 924927
3 2510.88 922394
3 2510.88 917603
3 2520.11 1050184
3 2520.11 1034039
3 2520.11 1032609
3 2520.11 1030376
3 2520.11 1021311
3 2520.11 1011912
3 2520.11 1011354
3 2520.11 1007121
1 2523.24 998531
1 2523.24 996559
3 2523.64 996411
3 2523.88 992333
3 2524.31 990682
1 2525.37 985854
3 2525.6 974222
3 2534.01 1076696
3 2534.01 1056206
3 2534.01 1054779
3 2534.01 1038248
3 2534.01 1034298
3 2534.01 1033742
3 2534.47 1025107
3 2534.47 1020778
3 2534.47 1012982
3 2534.47 1004065
3 2534.86 996758
3 2534.86 991900
3 2534.86 987950
3 2535.96 984833
3 2536.18 984010
3 2548.37 1003664
3 2548.37 986008
3 2548.37 947493
3 2548.37 939697
3 2548.37 935747
3 2548.37 930768
3 2548.37 929341
3 2549.2 923449
3 2549.2 918072
3 2550.22 913354
3 2550.22 907806
3 2551.08 904416
3 2562.05 1063314
3 2562.05 1056596
3 2562.05 1030897
3 2562.05 1009958
3 2562.05 981278
3 2562.05 973629
3 2562.05 966707
3 2562.36 961127
3 2562.36 960293
3 2562.36 956343
3 2562.36 956145
3 2562.36 953622
3 2562.73 953621
3 2562.73 950915
3 2562.73 950253
3 2562.73 946507
3 2562.73 944422
3 2562.73 937161
3 2562.73 935652
3 2563.15 933098
3 2563.15 925198
3 2563.4 922492
3 2563.4 921065
3 2563.63 919638
3 2565.49 916467
3 2565.84 911495
3 2571.51 906701
3 2576.11 1042228
3 2576.11 1025668
3 2576.11 999774
3 2576.11 986136
3 2576.11 968720
3 2576.11 967293
3 2576.11 955816
3 2576.11 951863
3 2576.11 951697
3 2576.43 943348
3 2576.43 942673
3 2576.79 937992
3 2577.41 934877
3 2577.41 928599
3 2577.66 927314
3 2577.66 926411
3 2577.66 923746
3 2577.66 919701
3 2577.66 904107
3 2590.01 1032156
3 2590.01 1028832
3 2590.01 993015
3 2590.01 986463
3 2590.28 979984
3 2590.49 975172
3 2590.49 974103
3 2590.49 968392
3 2590.49 966183
3 2590.49 950038
3 2590.74 942731
3 2591.18 941307
3 2591.18 939418
3 2591.18 931704
3 2591.56 925713
3 2591.56 923139
3 2593.23 919239
3 2593.23 917812
3 2594.06 916702
3 2604.2 1001645
3 2604.2 996854
3 2604.2 964955
3 2604.2 948810
3 2604.2 937876
3 2604.2 924339
3 2604.2 923288
3 2604.2 920389
3 2604.2 916989
3 2604.72 911780
3 2604.72 910223
3 2604.72 909251
3 2604.72 907560
3 2609.82 904962
3 2609.82 900844
3 2618.32 1025692
3 2618.32 1020349
3 2618.32 1014610
3 2618.32 1006644
3 2618.32 1000247
3 2618.32 989733
3 2618.32 988863
3 2618.32 962177
3 2618.32 960632
3 2618.82 958549
3 2618.82 944089
3 2619.27 939918
3 2619.64 936248
3 2619.97 934821
3 2620.77 934464
3 2620.97 932612
3 2620.97 917636
3 2620.97 916467
3 2632.08 1022475
3 2632.08 987550
3 2632.08 957826
3 2632.08 946349
3 2632.34 943178
3 2632.34 942430
3 2632.56 935382
3 2632.56 934480
3 2632.56 928693
1 2634.18 923957
3 2634.18 923192
3 2634.6 917829
3 2635.18 911872
3 2646.13 1011202
3 2646.13 1003406
3 2646.13 993547
3 2646.13 991774
3 2646.39 972610
3 2646.39 968043
3 2646.39 960736
3 2646.39 953259
3 2646.71 940246
3 2660.28 1009059
3 2660.28 1001263
3 2660.28 987558
3 2660.28 968001
3 2660.28 967755
3 2660.72 965792
3 2660.72 958329
3 2660.72 956342
3 2660.72 953538
3 2661.1 949739
3 2661.1 948980
3 2661.1 948829
3 2661.35 945030
3 2661.35 940756
3 2661.57 939329
3 2662.57 935819
3 2663.12 934305
3 2663.12 934099
3 2663.12 926792
3 2674.17 1066295
3 2674.17 1036730
3 2674.17 997620
3 2674.17 987899
3 2674.17 975367
3 2674.17 972871
3 2674.17 969970
3 2674.17 966975
3 2674.17 965352
3 2674.17 956383
3 2674.51 949882
3 2676.4 949686
3 2677.03 948702
3 2677.03 948381
3 2677.49 943963
3 2677.49 937867
3 2677.49 936949
3 2679.22 931981
3 2679.22 930615
3 2679.75 913154
3 2679.75 905123
3 2688.02 1021801
3 2688.02 1010417
3 2688.02 992049
3 2688.02 982943
3 2688.02 971228
3 2688.02 969882
3 2688.02 968691
3 2688.02 958232
3 2688.34 946248
3 2688.34 944717
3 2688.34 931490
3 2688.34 921978
3 2688.58 919657
3 2688.78 918291
3 2688.78 915737
3 2689.19 914529
3 2702.1 999663
3 2702.1 992467
3 2702.1 987034
3 2702.1 982243
3 2702.1 965866
3 2702.1 965036
3 2702.1 961541
3 2702.47 957172
3 2702.47 954234
3 2702.47 940820
3 2702.47 920018
3 2702.77 919302
3 2703.45 918054
3 2703.45 916627
3 2703.45 916489
3 2703.86 911255
3 2704.22 911147
3 2716.11 975083
3 2716.11 966458
3 2716.11 950920
3 2716.11 936965
3 2716.11 929855
3 2716.11 929658
3 2716.69 921862
3 2717.59 920896
3 2717.98 913665
3 2717.98 907965
3 2717.98 904062
3 2730.13 1000697
3 2730.13 993390
3 2730.13 988599
3 2730.13 964602
3 2730.13 964107
3 2730.13 963831
3 2730.13 948982
3 2730.13 941186
3 2730.13 938195
3 2730.59 933455
3 2730.59 932537
3 2730.98 927919
3 2730.98 923128
3 2730.98 913500
3 2731.28 912414
3 2744.15 1039349
3 2744.15 1032631
3 2744.15 1010384
3 2744.15 998252
3 2744.15 996825
3 2744.15 980989
3 2744.15 977039
3 2744.15 963985
3 2744.15 958912
3 2744.56 957486
3 2744.56 949690
3 2744.56 948540
3 2744.56 947756
3 2744.56 939151
3 2744.56 935985
3 2744.56 935201
3 2745.02 925986
3 2745.02 921622
3 2745.02 920087
3 2745.76 919789
3 2745.76 916535
3 2745.76 915296
3 2746.5 910896
3 2758.02 1037360
3 2758.02 1017729
3 2758.02 1015014
3 2758.02 1000599
3 2758.02 998390
3 2758.02 993599
3 2758.02 988830
3 2758.02 980598
3 2758.02 970378
3 2758.02 968571
3 2758.44 967144
3 2758.44 965086
3 2758.44 953439
3 2758.78 937429
3 2758.78 935783
3 2758.78 929306
3 2758.78 927509
3 2758.78 925694
3 2758.78 922492
3 2759.06 906961
3 2772.11 1049193
3 2772.11 1025449
3 2772.11 1009304
1 2772.11 973897
3 2772.11 965626
3 2772.11 964639
3 2772.11 949469
3 2772.48 939643
3 2772.48 938977
3 2772.48 937770
3 2772.72 922511
3 2772.93 921084
3 2772.93 920684
3 2772.93 919869
3 2773.16 919626
3 2773.56 917985
3 2773.56 911474
3 2773.56 909117
3 2773.8 904326
3 2786.31 978407
3 2786.68 976142
3 2786.68 965946
3 2787.05 961155
3 2787.05 946175
3 2787.05 943804
3 2787.05 941595
3 2787.75 934837
3 2788.65 934717
3 2788.95 933556
3 2789.29 922236
3 2790.38 914356
query_times: 22
Score = 888127
