    Blocking waiting for file lock on package cache
    Finished `release` profile [optimized] target(s) in 0.04s
     Running `target/release/tester ../a.out 0017`
3 0.024 1528508
3 0.024 1524960
3 0.024 1458150
3 0.024 1437552
3 0.024 1435127
3 0.024 1432099
3 0.024 1424940
3 0.024 1399614
3 0.024 1396640
3 0.744 1391988
3 0.744 1380983
3 0.744 1375535
3 1.288 1369541
3 1.288 1368114
3 1.288 1360496
3 1.288 1356209
3 1.857 1353685
3 1.857 1344543
3 1.857 1342999
3 2.386 1339580
3 2.386 1338293
3 2.386 1335040
3 2.913 1334312
3 2.913 1332438
3 3.421 1327111
3 3.421 1326439
3 3.909 1325647
3 3.909 1324694
3 3.909 1322836
3 4.434 1322012
3 4.434 1321356
3 4.93 1320546
3 6.264 1319645
3 6.264 1319047
3 8.467 1318803
3 8.467 1317678
3 8.949 1314200
3 14.37 1505980
3 14.37 1487547
3 14.37 1485617
3 14.37 1479893
3 14.37 1459893
3 14.37 1459843
3 14.37 1458509
3 14.37 1455187
3 14.37 1454763
3 15.042 1453763
3 15.042 1451869
3 15.548 1446470
3 15.548 1445653
3 15.548 1445593
3 15.548 1442698
3 16.119 1435823
3 16.119 1435399
3 16.656 1425964
3 16.656 1422936
3 16.656 1418995
3 17.398 1418896
3 17.398 1413017
3 17.398 1411671
3 17.398 1409519
3 17.398 1408243
3 17.398 1404634
3 17.398 1402229
3 18.233 1397709
3 18.233 1393969
3 18.233 1393545
3 18.233 1387551
3 18.233 1385621
3 18.904 1385486
3 18.904 1383614
3 18.904 1382732
1 19.45 1371622
3 19.924 1371438
3 19.924 1368194
3 19.924 1367275
3 21.311 1366842
3 21.311 1366607
3 23.117 1364452
3 23.117 1364109
3 25.712 1363819
3 25.712 1357413
3 26.189 1356976
3 26.189 1352270
3 26.654 1348443
3 26.654 1348252
3 28.369 1492476
3 28.369 1488313
3 28.369 1488202
3 28.369 1470152
3 28.369 1465965
3 28.369 1449004
3 28.369 1445903
3 28.369 1441197
3 28.369 1440739
3 29.287 1429871
3 29.287 1428150
1 29.287 1420651
3 29.287 1416569
3 29.287 1413476
3 29.287 1411817
3 30.09 1411744
3 30.09 1408484
3 30.09 1403638
3 30.09 1403489
3 30.09 1395383
3 30.09 1395051
3 30.09 1391921
3 30.865 1391148
3 30.865 1388176
3 30.865 1386246
3 31.382 1382768
3 31.382 1374573
3 31.382 1373516
3 31.382 1372882
3 32.315 1371689
3 33.533 1371273
3 33.533 1370849
3 34.385 1369476
3 34.385 1367943
3 34.385 1363490
3 34.385 1346268
3 34.881 1342968
3 34.881 1342537
3 34.881 1342528
3 34.881 1337001
3 34.881 1336413
3 35.398 1335482
3 35.821 1333552
3 37.456 1332725
3 37.876 1331162
3 38.311 1329787
3 38.311 1329363
3 38.311 1329267
3 38.78 1326527
3 39.589 1325982
3 41.93 1325561
3 42.356 1457393
3 42.356 1449930
3 42.356 1446227
3 42.356 1444191
3 42.356 1429644
3 42.356 1428349
3 42.356 1428288
3 42.914 1427532
3 42.914 1424740
3 42.914 1420843
3 42.914 1412224
3 42.914 1407518
3 42.914 1398213
3 43.481 1397179
3 43.481 1394274
3 44.335 1389568
3 44.335 1380979
1 44.335 1376922
3 44.335 1372391
3 44.335 1370021
3 45.263 1368091
3 45.263 1367774
3 46.11 1366649
3 46.532 1363854
3 46.974 1363040
3 46.974 1355654
1 46.974 1354989
3 46.974 1344217
3 47.525 1344120
3 48.006 1340735
3 48.006 1337771
3 48.476 1336646
3 48.476 1334781
3 49.726 1333168
3 56.152 1453104
3 56.152 1447583
3 56.152 1439747
3 56.662 1428980
3 56.662 1427953
3 56.662 1422108
3 56.662 1418830
3 57.174 1404063
3 57.174 1403799
3 57.7 1388024
3 57.7 1386094
3 57.7 1376693
3 58.19 1375381
3 58.19 1373229
3 58.19 1367781
3 58.681 1366957
3 58.681 1364293
3 58.681 1362176
3 58.681 1360491
3 59.202 1355472
3 59.202 1355198
3 59.202 1353179
3 59.202 1350518
3 59.693 1348323
3 60.13 1339524
3 63.845 1339201
3 64.732 1337839
3 65.169 1337621
3 65.609 1336306
3 65.609 1334131
3 70.266 1451501
3 70.266 1449460
3 70.266 1435595
3 70.266 1435314
3 70.266 1431642
3 70.266 1424080
3 70.266 1416685
3 71.731 1414300
3 71.731 1400505
3 71.731 1400081
3 71.731 1399127
3 71.731 1398368
3 72.635 1395248
3 72.635 1387872
3 73.405 1386883
3 73.405 1371443
3 73.405 1365907
3 73.405 1360306
3 73.405 1358836
3 74.266 1358743
3 75.006 1358030
3 75.729 1355915
3 75.729 1355199
3 75.729 1353324
3 76.519 1351394
3 78.896 1350803
3 78.896 1350379
3 78.896 1349398
3 79.775 1348581
3 81.377 1347789
3 82.171 1347774
3 82.171 1347359
3 83.001 1345342
3 83.001 1343673
3 83.001 1343065
3 83.816 1342095
3 83.816 1341453
1 84.627 1500367
3 84.627 1487320
3 84.627 1486645
3 84.627 1469087
3 84.627 1454353
3 84.627 1450822
3 84.627 1421324
3 84.627 1410418
3 84.627 1408981
3 84.627 1404195
3 84.627 1402360
3 85.703 1402106
3 85.703 1400543
3 86.572 1399863
3 86.572 1395500
3 86.572 1393152
3 86.572 1384690
3 86.572 1378840
3 87.509 1378096
3 88.317 1376375
3 89.084 1364859
3 89.852 1359548
3 89.852 1344926
3 89.852 1343825
3 89.852 1339527
3 90.696 1339458
3 92.925 1337489
3 92.925 1335857
3 93.697 1335642
3 94.444 1335040
3 94.444 1334833
3 96.659 1334506
3 96.659 1334082
3 98.153 1505767
3 98.153 1497572
3 98.153 1454989
3 98.153 1451961
3 98.153 1445024
3 98.153 1444207
3 98.153 1425938
3 98.153 1418096
3 98.153 1417743
3 99.23 1403428
3 99.23 1393686
3 99.23 1378883
3 100.119 1378459
3 100.119 1361534
3 100.119 1360116
3 100.119 1355514
3 101.048 1354766
3 101.048 1354180
3 101.895 1349120
3 101.895 1347327
3 103.497 1343412
3 103.497 1341169
3 104.338 1336373
3 104.338 1335542
3 105.9 1335379
3 105.9 1332895
3 106.693 1331828
3 112.02 1499989
3 112.02 1494314
3 112.02 1491495
3 112.02 1452318
3 112.02 1416495
3 112.02 1414175
3 112.02 1413441
3 112.02 1411817
3 112.02 1408141
3 112.02 1405946
3 112.02 1403615
3 113.143 1396062
3 113.143 1384389
3 113.143 1384375
3 114.012 1367499
3 114.012 1367075
3 114.012 1364038
3 116.478 1361767
3 117.301 1359170
3 117.301 1356970
3 117.301 1356546
3 118.163 1352248
3 118.97 1350531
3 118.97 1349405
3 118.97 1342746
3 118.97 1341394
3 121.249 1340970
3 124.127 1331914
3 124.127 1331712
3 126.319 1398440
3 126.319 1396510
3 126.319 1384124
3 126.319 1377187
3 126.319 1376443
3 126.319 1375626
3 126.319 1374377
3 126.319 1370623
3 126.319 1370007
3 126.319 1351924
3 126.319 1350311
3 127.448 1345505
3 127.448 1343497
3 128.275 1341197
3 128.275 1340914
3 128.275 1340469
3 128.275 1339259
3 129.932 1338467
3 130.737 1336585
3 131.541 1335899
3 133.059 1335203
3 133.826 1333125
3 134.585 1331592
3 134.585 1331560
3 136.108 1330435
3 140.437 1526222
3 140.437 1516280
3 140.437 1506175
3 140.437 1471052
3 140.437 1468225
3 140.437 1464865
3 140.437 1462713
3 140.437 1426340
3 140.437 1413819
3 140.437 1404657
3 140.437 1401322
3 140.437 1396129
3 141.578 1393415
3 141.578 1381860
3 141.578 1381613
3 141.578 1378426
3 141.578 1375058
3 141.578 1372536
3 142.527 1367141
3 142.527 1360842
3 142.527 1359851
3 143.414 1357113
3 143.414 1355988
3 143.414 1354427
3 144.982 1354391
3 145.798 1353045
3 153.817 1347290
3 154.6 1483236
3 154.6 1480993
3 154.6 1457855
3 154.6 1445176
3 154.6 1432992
3 154.6 1427273
3 154.6 1425837
3 154.6 1422831
3 154.6 1421670
3 155.661 1414721
3 155.661 1411959
3 155.661 1411733
3 155.661 1407435
3 155.661 1393759
3 156.607 1378450
3 156.607 1371234
3 157.473 1366881
3 157.473 1365348
3 158.3 1364914
3 158.3 1364764
3 159.156 1363227
3 159.156 1350964
3 159.156 1350147
3 160.782 1342841
3 161.531 1342824
3 161.531 1342439
3 161.531 1342417
3 168.05 1497008
3 168.05 1476953
3 168.05 1473692
3 168.05 1465103
3 168.05 1445497
3 168.05 1428877
3 168.05 1417758
3 168.05 1395064
3 168.05 1393939
3 168.05 1393460
3 168.05 1386407
3 168.05 1382037
3 169.172 1379484
3 169.172 1379150
3 169.172 1362443
3 169.172 1359992
3 169.172 1359932
3 170.077 1357638
3 170.077 1356492
3 170.077 1353340
3 171.71 1351717
3 171.71 1351410
3 172.514 1350204
3 173.315 1349387
3 174.07 1347707
3 176.27 1347495
3 176.27 1346080
3 176.27 1346023
3 177.845 1345766
3 177.845 1342545
3 177.845 1342015
3 182.556 1502124
3 182.556 1478971
3 182.556 1476578
3 182.556 1442530
3 182.556 1442453
3 182.556 1440301
3 182.556 1437226
3 182.556 1413136
3 182.556 1411302
3 182.556 1409995
3 183.496 1390088
3 183.496 1386785
3 183.496 1385414
3 183.496 1385372
3 183.496 1383769
3 184.252 1383443
3 184.252 1373861
3 184.967 1361778
3 184.967 1352777
3 185.624 1350352
3 186.246 1349678
3 186.246 1347535
3 186.951 1346197
3 186.951 1344855
3 186.951 1343457
3 186.951 1341888
3 187.998 1338724
3 187.998 1338646
3 196.362 1436554
3 196.362 1419395
3 196.362 1411977
3 196.362 1406523
3 196.362 1402879
3 196.362 1401425
3 196.362 1390000
3 196.362 1368507
3 196.362 1352921
3 197.254 1351819
3 197.254 1350811
3 197.254 1348211
3 197.96 1346563
3 197.96 1344112
3 197.96 1343955
3 197.96 1342034
3 205.688 1341189
3 206.358 1333869
3 206.965 1333445
3 210.106 1442875
3 210.106 1433663
3 210.106 1431695
3 210.106 1424768
3 210.106 1408461
3 210.106 1406532
3 210.106 1404182
3 210.106 1401957
3 210.106 1400843
3 211.233 1387670
3 211.233 1387475
3 211.233 1378527
3 211.233 1376994
3 211.233 1371600
3 211.992 1369910
3 211.992 1366235
3 211.992 1364941
3 213.442 1363011
3 214.188 1362587
3 214.188 1361338
3 214.188 1359792
3 216.447 1359699
3 216.447 1358757
3 217.321 1356458
3 217.321 1355848
3 219.589 1355338
3 220.369 1354018
3 221.14 1353806
3 221.937 1350584
3 221.937 1349248
3 222.753 1349122
3 222.753 1348444
3 222.753 1348019
3 222.753 1346911
3 222.753 1346004
3 224.293 1511203
3 224.293 1444393
3 224.293 1423408
3 224.293 1420959
3 224.293 1384903
3 224.293 1384324
3 225.2 1383990
3 225.845 1380846
3 225.845 1377923
3 225.845 1368536
3 225.845 1368062
3 225.845 1367003
3 225.845 1365073
3 225.845 1357336
3 225.845 1351995
3 226.833 1346950
3 226.833 1345461
3 227.743 1342433
3 227.743 1339281
3 228.398 1337748
3 234.279 1336207
3 234.279 1335464
3 234.279 1335061
3 235 1334339
3 238.183 1525098
3 238.183 1510364
3 238.183 1505658
3 238.183 1491793
3 238.183 1479277
3 238.183 1423989
3 238.183 1423172
3 238.183 1422647
3 238.183 1419047
3 238.183 1411174
3 239.144 1406159
3 239.144 1399505
3 239.144 1399284
3 239.144 1367851
3 239.144 1367769
3 240.066 1367708
3 240.066 1366175
3 240.887 1365358
3 240.887 1364388
3 240.887 1357215
3 242.229 1356582
3 242.229 1355887
3 242.845 1355379
3 243.41 1353449
3 243.41 1350175
3 252.333 1473131
3 252.333 1457374
3 252.333 1442058
3 252.333 1438537
3 252.333 1435572
3 252.333 1433198
3 252.333 1432909
3 252.333 1429526
3 252.333 1423640
3 253.123 1420557
3 253.123 1411733
3 253.123 1409878
3 253.123 1403783
3 253.795 1402062
3 253.795 1400883
3 253.795 1398695
3 253.795 1393179
3 253.795 1388301
3 254.5 1384609
3 254.5 1382595
3 254.5 1381920
3 255.156 1378919
3 255.156 1378220
3 255.783 1376068
3 255.783 1370324
3 255.783 1366888
3 255.783 1365933
3 255.783 1365728
3 255.783 1360918
3 256.512 1359284
3 257.096 1352055
3 257.096 1348522
3 257.711 1347762
3 257.711 1346229
3 257.711 1345276
3 258.315 1343287
3 258.315 1341357
3 258.315 1340232
3 259.367 1340104
3 263.347 1337882
3 263.347 1337295
3 263.347 1336478
3 264.621 1336054
3 265.23 1334975
3 265.854 1333302
3 266.386 1475727
3 266.386 1472748
3 266.386 1455411
3 266.386 1453878
3 266.386 1453454
3 266.386 1448953
3 266.386 1429490
3 266.386 1427641
3 266.386 1419933
3 266.386 1417690
3 267.263 1417184
3 267.263 1415463
3 267.263 1401903
3 267.263 1401646
3 267.263 1399690
3 267.263 1396841
3 268.566 1393363
3 268.566 1384021
3 269.16 1379603
3 269.727 1376148
1 269.727 1373291
3 269.727 1373093
3 269.727 1372672
3 270.918 1372485
3 270.918 1370956
3 270.918 1369638
3 271.628 1361443
3 271.628 1360318
3 271.628 1357561
3 271.628 1355621
3 272.327 1345258
3 272.327 1343725
3 280.318 1435425
3 280.318 1435340
3 280.318 1434925
3 280.318 1421060
3 280.318 1412706
3 280.318 1406084
3 280.318 1401454
3 280.318 1400217
3 280.318 1384203
3 281.457 1383921
3 281.457 1382382
3 281.457 1369668
3 281.457 1369277
3 282.366 1368690
3 282.366 1367873
3 283.199 1366783
3 284.001 1366153
3 284.786 1362954
3 284.786 1361222
3 286.384 1360614
3 294.264 1430518
3 294.264 1417842
3 294.264 1411766
3 294.264 1402789
3 294.264 1395039
3 294.264 1383631
3 294.264 1383296
3 295.308 1382929
3 295.308 1376421
3 295.308 1373950
3 295.308 1372027
3 295.308 1371128
3 295.308 1367427
3 295.308 1355308
3 297.06 1354784
3 297.06 1350857
3 297.06 1347638
3 297.06 1345317
3 300.855 1343138
3 302.356 1340763
3 303.825 1338452
3 303.825 1338036
3 303.825 1337735
3 306.111 1336765
3 308.603 1490816
3 308.603 1466097
3 308.603 1463069
3 308.603 1421739
3 308.603 1415828
3 309.548 1412350
3 309.548 1410420
3 309.548 1409296
3 310.401 1387704
3 310.401 1371745
3 310.401 1370817
3 311.296 1370193
3 312.112 1370154
3 312.112 1369245
3 312.914 1368860
3 315.898 1357060
3 316.7 1356341
3 316.7 1355524
3 316.7 1350860
3 316.7 1350042
3 316.7 1347251
3 316.7 1345027
3 317.625 1344796
3 318.384 1341624
3 319.132 1341318
3 322.251 1407379
3 322.251 1406955
3 322.251 1405025
3 322.251 1404500
3 322.251 1401510
3 322.251 1399375
3 322.251 1395490
3 323.284 1392765
3 323.284 1391238
3 323.284 1389086
3 323.284 1387156
3 323.284 1383478
3 324.173 1382533
3 324.173 1381146
3 324.173 1380551
3 324.173 1378308
3 325.012 1370532
3 333.655 1359624
3 333.655 1356658
3 335.187 1356561
3 336.705 1441596
3 336.705 1427164
3 336.705 1419915
3 336.705 1415946
3 336.705 1407312
3 336.705 1405466
3 336.705 1399931
3 336.705 1391107
3 336.705 1389233
3 336.705 1387737
3 336.705 1376557
3 337.856 1376526
3 337.856 1376315
3 338.683 1374078
3 338.683 1371430
3 338.683 1367332
3 338.683 1358455
3 338.683 1354101
3 338.683 1351687
3 339.65 1348680
3 339.65 1347749
3 339.65 1345819
3 340.475 1345395
3 340.475 1336732
3 341.268 1330004
3 349.306 1329881
3 349.306 1329064
3 350.156 1520458
3 350.156 1519570
3 350.156 1517868
3 350.156 1486309
3 350.156 1478594
3 350.156 1460814
3 350.156 1455503
3 350.156 1442827
3 351.281 1436990
3 351.281 1428142
3 351.281 1424409
3 351.281 1420677
3 352.22 1409771
3 352.22 1402086
3 352.22 1399934
3 352.22 1399377
3 353.104 1389545
3 353.104 1383783
3 353.104 1383386
3 353.104 1375287
3 353.104 1373566
3 354.027 1370359
3 354.027 1365840
3 354.027 1364737
3 354.871 1364310
3 354.871 1364022
3 354.871 1363872
3 355.7 1360139
3 355.7 1357141
3 355.7 1353264
3 356.523 1350214
3 357.314 1349602
3 358.048 1347672
3 364.664 1461700
3 364.664 1435943
3 364.664 1429059
3 364.664 1427657
3 364.664 1416248
3 365.629 1413225
3 366.484 1409755
3 366.484 1399360
3 367.345 1392376
3 367.345 1391952
3 367.345 1385221
3 367.345 1383183
1 367.345 1377477
1 368.281 1364300
3 368.281 1362556
3 369.096 1358280
3 369.096 1348691
3 378.269 1490869
3 378.269 1468359
3 378.269 1460352
3 378.269 1435125
3 378.269 1426726
3 378.269 1423248
3 378.269 1418469
3 378.269 1416513
3 379.295 1397340
1 379.295 1385080
3 379.295 1384295
3 380.162 1377654
3 380.162 1377420
3 380.162 1376696
3 380.162 1374607
3 381.048 1370702
3 381.048 1362499
3 381.048 1360260
3 381.048 1358642
3 382.053 1356782
3 382.053 1349907
3 382.053 1349278
3 382.053 1347492
3 382.053 1345562
3 383.027 1344969
3 383.027 1344745
3 385.86 1337335
3 392.21 1528404
3 392.21 1520209
3 392.21 1469128
3 392.21 1457225
3 392.21 1434450
3 392.21 1420203
3 392.21 1420034
3 392.21 1412574
3 392.21 1404820
3 392.21 1402890
3 392.21 1396764
3 393.099 1394600
3 393.099 1391257
3 393.099 1386470
3 393.099 1386389
3 393.099 1385239
3 393.099 1385005
3 393.811 1384977
3 393.811 1384581
3 394.406 1383894
3 394.406 1377706
3 394.406 1375524
3 394.406 1375008
3 395.045 1373568
3 395.045 1373051
3 395.045 1371451
3 395.662 1363630
3 395.662 1361731
3 395.662 1354856
3 396.276 1353796
3 396.276 1353625
3 396.276 1351473
3 396.899 1351049
3 398.054 1348757
3 398.054 1348604
3 401.224 1342384
3 401.224 1342064
3 401.794 1339416
3 402.334 1335896
3 404.364 1335189
3 406.403 1525492
3 406.403 1523489
3 406.403 1510140
3 406.403 1502392
3 406.403 1495723
3 406.403 1481782
3 406.403 1455861
3 406.403 1454215
3 406.403 1431686
3 406.403 1431444
3 406.403 1428658
1 406.403 1418442
3 406.403 1415420
3 406.403 1409426
3 407.451 1407448
3 407.451 1397389
3 407.451 1389718
3 407.451 1387566
3 408.584 1385240
3 408.584 1369827
3 410.567 1368722
3 411.091 1362728
3 411.091 1356093
3 411.091 1351460
3 411.695 1345334
3 412.73 1345295
3 412.73 1343825
3 413.301 1339556
3 413.301 1336397
3 413.899 1336078
3 413.899 1334714
3 414.454 1333926
3 414.454 1333877
3 415.009 1333527
3 415.009 1331882
3 415.009 1329765
3 416.539 1329705
3 416.539 1329043
3 417.604 1328273
3 419.57 1326644
3 419.57 1324714
3 420.117 1491799
3 420.117 1457810
3 420.117 1444911
3 420.117 1427718
3 420.117 1409187
3 420.117 1389214
3 420.117 1388790
3 420.117 1378388
3 420.117 1369469
3 420.117 1364075
3 420.117 1361413
3 420.117 1359577
3 420.117 1358044
3 421.013 1357894
3 422.535 1356797
3 422.535 1353584
3 425.064 1346411
3 425.604 1343850
3 425.604 1336992
3 426.154 1335459
3 434.392 1476496
3 434.392 1466518
3 434.392 1466373
3 434.392 1456448
3 434.392 1437510
3 434.392 1436985
3 434.392 1433824
3 434.392 1426949
3 434.392 1419089
3 434.392 1418992
3 434.392 1414286
3 434.392 1414254
3 435.273 1401955
3 435.273 1397249
3 435.273 1396825
3 435.898 1393071
3 435.898 1391890
3 435.898 1387491
3 435.898 1383979
3 435.898 1382211
3 435.898 1377769
3 436.582 1370682
3 436.582 1370321
3 436.582 1365246
3 436.582 1358775
3 436.582 1356845
3 437.257 1355875
3 437.812 1355623
3 438.355 1352037
3 438.355 1350925
3 438.355 1349047
3 439.475 1348720
3 439.475 1347750
3 443.203 1344209
3 443.203 1341343
3 448.054 1578224
3 448.054 1542044
3 448.054 1523128
3 448.054 1519705
3 448.054 1518602
3 448.054 1487043
3 448.054 1446103
3 448.054 1407473
3 448.054 1403101
3 448.054 1400598
3 448.054 1399744
3 448.922 1376023
3 448.922 1371763
3 448.922 1371339
3 449.526 1369672
3 449.526 1368926
3 449.526 1367801
3 450.129 1366984
3 450.67 1365805
3 450.67 1364702
3 450.67 1362981
3 451.776 1360478
3 452.312 1360259
3 452.852 1357721
3 453.392 1355002
3 453.392 1349848
3 455.976 1348355
3 455.976 1346476
3 455.976 1345190
3 455.976 1340141
3 455.976 1339599
3 456.642 1336954
3 457.198 1335250
3 457.198 1334583
3 457.198 1330914
3 457.817 1328822
3 457.817 1328455
3 458.368 1327128
3 458.368 1326977
3 462.117 1466995
3 462.117 1448761
3 462.117 1447040
3 462.117 1431768
3 462.117 1430824
3 462.117 1419918
3 462.117 1397306
3 462.117 1394952
3 462.117 1391474
3 462.117 1390272
3 463.203 1388768
3 463.203 1386219
3 463.203 1374976
3 463.203 1374336
3 463.203 1371400
3 463.203 1370164
3 463.203 1369947
3 463.203 1365268
3 463.203 1362415
3 463.99 1361374
3 463.99 1355709
3 463.99 1351411
3 465.114 1350369
3 465.663 1349690
3 465.663 1349620
3 466.244 1347497
3 466.244 1346372
3 466.244 1342894
3 466.861 1341698
3 466.861 1341089
3 466.861 1339114
3 466.861 1336771
3 466.861 1336074
3 467.564 1334847
3 467.564 1333181
3 468.137 1332848
3 468.677 1330819
3 468.677 1328884
3 470.805 1326663
3 470.805 1324389
3 470.805 1323264
3 471.42 1323139
3 476.26 1468667
3 476.26 1452202
3 476.26 1449374
3 476.26 1446208
3 476.26 1444668
3 476.26 1433494
3 476.26 1419544
3 477.03 1418727
3 477.03 1411852
3 477.884 1410066
3 478.531 1409796
3 478.531 1408236
3 478.531 1403530
3 478.531 1401819
3 479.224 1401002
3 479.79 1399647
3 480.347 1399388
1 480.347 1394685
3 480.347 1393868
3 481.498 1393711
3 481.498 1393444
3 481.498 1391116
3 482.123 1390792
3 482.123 1387013
3 482.123 1385611
3 483.792 1384556
3 483.792 1383739
3 484.942 1380996
3 484.942 1380085
3 484.942 1379658
3 486.124 1377935
3 486.124 1366944
3 486.711 1365422
3 488.343 1362665
3 490.544 1509345
3 490.544 1504639
3 490.544 1451750
3 490.544 1447701
3 490.544 1447501
3 490.544 1443732
3 490.544 1438044
3 490.544 1433124
3 490.544 1431403
3 490.544 1405947
3 490.544 1394685
3 491.445 1390952
3 491.445 1389022
3 491.445 1381149
3 491.445 1368941
3 492.089 1367273
3 492.661 1361940
3 492.661 1360612
3 493.361 1359161
3 493.361 1356590
3 493.361 1352648
3 493.98 1348781
3 495.034 1344941
3 495.034 1339359
3 495.034 1336139
3 495.034 1334653
3 495.758 1333699
3 495.758 1331456
3 501.389 1330354
3 501.992 1330098
3 501.992 1329140
3 501.992 1328926
3 504.077 1500372
3 504.077 1495666
3 504.077 1491503
3 504.077 1467763
3 504.077 1464037
3 504.077 1449373
3 504.077 1446823
3 504.077 1414307
3 504.85 1412075
3 504.85 1409337
3 505.423 1407407
3 505.423 1406807
3 505.423 1403779
3 506.034 1402701
3 506.034 1399189
3 506.034 1397255
3 506.034 1391827
3 506.664 1391791
3 506.664 1385797
3 506.664 1385411
3 506.664 1372781
3 506.664 1366768
3 507.34 1364661
3 507.34 1364616
3 507.34 1360318
3 507.34 1359644
3 507.99 1358322
1 507.99 1354793
3 507.99 1353707
3 508.574 1348196
3 509.147 1344772
3 509.147 1343545
3 509.147 1343267
3 509.872 1343051
3 509.872 1342450
3 509.872 1341043
3 509.872 1338087
3 510.983 1336580
3 512.487 1324064
3 516.421 1323350
3 517.479 1323123
3 518.021 1453291
3 518.021 1440857
3 518.021 1432033
3 518.021 1416158
3 518.021 1403444
3 518.021 1396743
3 518.021 1394669
3 518.021 1394591
3 519.111 1393488
3 519.111 1391401
3 519.111 1390358
3 519.111 1384913
3 519.746 1383900
3 519.746 1373387
3 519.746 1371379
3 519.746 1370534
3 519.746 1367049
3 519.746 1364897
3 519.746 1364846
3 520.457 1353909
3 520.457 1349423
3 521.042 1346612
3 521.042 1345676
3 521.042 1343879
3 521.637 1343740
3 521.637 1342543
3 522.19 1336602
3 522.19 1335881
3 522.19 1335539
3 522.19 1332548
3 525.292 1325524
3 525.292 1324975
3 532.125 1537831
3 532.125 1533076
3 532.125 1525257
3 532.125 1521728
3 532.125 1460961
3 532.125 1458760
3 532.125 1415918
3 532.125 1414320
3 532.125 1409241
3 532.915 1404634
3 532.915 1400317
3 532.915 1395159
3 532.915 1385931
3 532.915 1382198
3 532.915 1378231
3 533.856 1377807
3 533.856 1375811
3 533.856 1374994
3 533.856 1374393
3 534.468 1369791
3 534.468 1369687
3 534.468 1369604
3 534.468 1365871
3 535.084 1364732
3 535.084 1364272
3 535.084 1363651
3 535.084 1363529
3 535.084 1358619
3 535.724 1357431
3 535.724 1352987
3 536.283 1349442
3 536.81 1347388
3 537.4 1346454
3 537.918 1346192
3 539.981 1342868
3 539.981 1339390
3 540.569 1338265
3 540.569 1338011
3 541.124 1336040
3 541.124 1335890
3 541.124 1333001
3 541.124 1330522
3 541.743 1329678
3 541.743 1327829
3 541.743 1326037
3 542.329 1324316
3 546.229 1466749
3 546.229 1448377
3 546.229 1439553
3 546.229 1435820
3 546.229 1429277
3 546.229 1403634
3 546.229 1401009
3 546.229 1399664
3 546.984 1397843
3 546.984 1397512
3 546.984 1395272
3 546.984 1394647
3 546.984 1391794
3 546.984 1389214
3 546.984 1388258
3 548.525 1386015
3 549.077 1373975
3 549.077 1373208
3 549.077 1371914
3 549.077 1370024
3 550.448 1366765
3 552.47 1366273
3 552.47 1364030
3 553.033 1363265
3 555.073 1356528
3 555.073 1356344
3 556.138 1353670
3 556.138 1353153
3 556.789 1348411
3 556.789 1341610
3 560.365 1471719
3 560.365 1470902
3 560.365 1440861
3 560.365 1436219
3 560.365 1431921
3 560.365 1419514
3 560.365 1419257
3 560.365 1406488
3 560.365 1387981
3 561.153 1383321
3 561.153 1380825
3 561.153 1362892
3 561.153 1353480
3 561.153 1351550
3 561.795 1347591
3 561.795 1345870
3 562.364 1345053
3 562.364 1341218
3 563.885 1338190
3 570.005 1337604
3 570.594 1334310
3 571.75 1332892
3 572.939 1331847
3 573.493 1328259
3 574.018 1446852
3 574.018 1443784
3 574.018 1440030
3 574.018 1418657
3 574.018 1415360
3 574.018 1400593
3 574.018 1390628
3 574.018 1386330
3 574.018 1384925
3 574.791 1382995
3 574.791 1378213
3 574.791 1373211
3 575.392 1373117
3 575.392 1364527
3 575.392 1361509
3 575.992 1360384
3 575.992 1355938
3 576.598 1351232
3 576.598 1349919
3 577.148 1349522
3 578.221 1344794
3 578.749 1342679
3 578.749 1340707
3 579.383 1339964
3 579.383 1338777
3 580.042 1337178
3 580.042 1336644
3 580.78 1336220
3 582.898 1334814
3 583.586 1332268
3 583.586 1331786
3 587.552 1330672
3 588.273 1493574
3 588.273 1485379
3 588.273 1462361
3 588.273 1424663
3 588.273 1419533
3 588.273 1407481
3 588.273 1406620
3 588.273 1397345
3 588.273 1378909
3 589.27 1369034
3 590.286 1367313
3 592.351 1367231
3 592.351 1358617
3 592.901 1357211
3 592.901 1349254
3 592.901 1348523
3 592.901 1348508
3 593.983 1346956
3 593.983 1346280
3 593.983 1346135
3 596.51 1345452
3 597.641 1343159
3 598.246 1341154
3 602.171 1489233
3 602.171 1487364
3 602.171 1480409
3 602.171 1474650
3 602.171 1474226
3 602.171 1451166
3 602.927 1438650
3 602.927 1436080
3 602.927 1433229
3 602.927 1428214
3 602.927 1420159
3 604.094 1418626
3 604.094 1404761
3 606.752 1397380
3 607.337 1395137
3 609.358 1394813
3 609.358 1388792
3 609.358 1379600
3 609.358 1379567
3 609.977 1374787
3 609.977 1373254
3 609.977 1363818
3 616.145 1457154
3 616.145 1405413
3 616.145 1398538
3 616.145 1396295
3 616.145 1395726
3 616.145 1386737
3 616.837 1383407
3 617.414 1381656
3 617.414 1377483
3 617.414 1374719
3 618.004 1370929
3 618.004 1370592
3 618.004 1370486
3 618.004 1370475
3 618.004 1366997
3 618.718 1351810
3 618.718 1346181
3 618.718 1345665
3 618.718 1344848
3 619.331 1343937
3 620.329 1343865
3 620.329 1342144
3 620.329 1340600
3 620.329 1340214
3 621.464 1340042
3 621.996 1339683
3 622.497 1337083
3 623.001 1336549
3 626.808 1334819
3 627.339 1334307
3 627.838 1332763
3 628.827 1332377
3 629.327 1329403
3 630.29 1500883
3 630.29 1486698
3 630.29 1466053
3 630.29 1463513
3 630.29 1454164
3 630.29 1447560
3 630.29 1430951
3 630.29 1430925
3 630.29 1425361
3 630.29 1424806
3 630.29 1423732
3 631.188 1411829
3 631.188 1407063
3 631.188 1406298
3 631.188 1395788
3 631.188 1393726
3 631.188 1385439
3 631.188 1384868
3 632.005 1377634
3 632.005 1372443
3 632.005 1372163
3 632.005 1370319
3 632.005 1359527
3 632.005 1357770
3 632.66 1357198
3 632.66 1357159
3 633.201 1354278
3 633.201 1352348
3 633.201 1351992
3 633.201 1350467
3 633.201 1350240
3 633.201 1349210
3 633.904 1348746
3 633.904 1348486
3 633.904 1347832
3 633.904 1346862
3 633.904 1346658
3 633.904 1346570
3 634.544 1345037
3 635.049 1344460
3 635.548 1339552
3 635.548 1338162
3 635.548 1338133
3 637.621 1335858
3 638.132 1335434
3 638.634 1334492
3 639.621 1331195
3 639.621 1328498
3 642.542 1327333
3 642.542 1325462
3 642.542 1325314
3 643.107 1321705
3 643.107 1320888
3 644.109 1561667
3 644.109 1546582
3 644.109 1543177
3 644.109 1483632
3 644.109 1481207
3 644.109 1465460
3 644.109 1458319
3 644.109 1452655
3 644.109 1448291
3 644.109 1447640
3 644.109 1434426
3 644.109 1430244
3 644.923 1407627
3 644.923 1398875
3 644.923 1392000
3 644.923 1389855
3 644.923 1383164
3 644.923 1377220
3 645.583 1375575
3 645.583 1373022
3 645.583 1359736
3 645.583 1351108
3 645.583 1345661
3 645.583 1336837
3 645.583 1336817
3 646.277 1336319
3 646.277 1334591
3 646.815 1332826
3 647.407 1332402
3 651.853 1330880
3 651.853 1330695
3 652.659 1330380
3 655.466 1330271
3 655.466 1327933
3 656.078 1327673
3 656.078 1323598
3 656.625 1323122
3 657.146 1322113
3 657.146 1321380
3 657.146 1320392
3 657.146 1319126
3 657.83 1318702
3 657.83 1317772
3 657.83 1317253
3 657.83 1316106
3 657.83 1315403
3 658.442 1461214
3 658.442 1457736
3 658.442 1423499
3 658.442 1409425
3 658.442 1405822
3 658.442 1404289
3 658.442 1399583
3 658.442 1392542
3 658.442 1391942
3 658.442 1384669
3 659.212 1383030
3 659.212 1382266
3 659.212 1374480
3 659.212 1373193
3 659.212 1371480
3 659.212 1366695
3 659.877 1360167
3 659.877 1359042
3 659.877 1353317
3 660.469 1352653
3 660.469 1349592
3 661.006 1348457
3 661.006 1347464
3 661.567 1345725
3 662.096 1344436
3 662.614 1343718
3 662.614 1342593
3 663.157 1328761
3 663.157 1327944
3 663.157 1327520
3 672.381 1452712
3 672.381 1448958
3 672.381 1440204
3 672.381 1437732
3 672.381 1430233
3 672.381 1428303
3 672.381 1419635
3 672.381 1417441
3 673.148 1415951
3 673.148 1404901
3 673.148 1403117
3 673.148 1399514
3 673.148 1394217
3 673.148 1389682
3 673.148 1389258
3 673.148 1387193
3 673.148 1385957
3 673.906 1382102
3 673.906 1377244
3 673.906 1376598
3 673.906 1376546
3 673.906 1375040
3 674.542 1360038
3 675.065 1358925
3 675.065 1358792
3 675.065 1356397
3 675.065 1354086
3 676.136 1352266
3 677.138 1349190
3 677.138 1348766
3 677.138 1345288
3 678.223 1341642
3 678.223 1340109
3 678.757 1338984
3 679.757 1336776
3 680.876 1335845
3 686.157 1573237
3 686.157 1559287
3 686.157 1528828
3 686.157 1512515
3 686.157 1480307
3 686.157 1467791
3 686.157 1466974
3 686.157 1464822
3 686.157 1462892
3 687.218 1460921
3 687.218 1442507
3 688.057 1435694
3 688.057 1434060
3 688.854 1423345
3 688.854 1413741
3 689.664 1400802
3 690.433 1395586
3 690.433 1391873
3 690.433 1385200
3 691.294 1383150
3 691.294 1381208
3 691.294 1376990
3 692.125 1373962
3 692.125 1373088
3 692.125 1372241
3 692.944 1368299
3 692.944 1366668
3 693.713 1366658
3 693.713 1363243
3 695.211 1358965
3 695.211 1357940
3 696.021 1356140
3 696.774 1354219
3 697.522 1352289
3 698.348 1348811
3 700.565 1489745
3 700.565 1466192
3 700.565 1453937
3 700.565 1439170
3 700.565 1426480
3 700.565 1415876
3 700.565 1402273
3 700.565 1399245
3 700.565 1395767
3 702.329 1387545
3 702.329 1385705
3 702.329 1383053
3 703.864 1364641
3 703.864 1364118
3 704.643 1362262
3 704.643 1356865
3 704.643 1356857
3 705.457 1356433
3 705.457 1356151
3 705.457 1353632
3 705.457 1351850
3 706.294 1351043
3 707.714 1350725
3 714.323 1452385
3 714.323 1450763
3 714.323 1442174
3 714.323 1434217
3 714.323 1431280
3 714.323 1430818
3 715.288 1430200
3 715.288 1427184
3 715.288 1406316
3 715.288 1403022
3 716.184 1400258
3 716.184 1398007
3 716.184 1391317
3 716.184 1385491
3 716.184 1383037
3 717.887 1374594
3 717.887 1367199
3 718.719 1364328
3 719.487 1360698
3 719.487 1353357
3 719.487 1351850
3 720.345 1349943
3 720.345 1347120
3 723.286 1346809
3 723.286 1344230
3 723.286 1343650
3 727.098 1341504
3 727.904 1341494
3 727.904 1339500
3 727.904 1339076
3 728.637 1507470
3 728.637 1472174
3 728.637 1467634
3 728.637 1461210
3 728.637 1446443
3 728.637 1431216
3 728.637 1430313
3 728.637 1427322
3 728.637 1423668
3 728.637 1423247
3 729.394 1422823
3 729.394 1418932
3 729.943 1404061
3 729.943 1398706
3 730.498 1385773
3 730.498 1385135
3 731.115 1379590
3 731.115 1376240
3 731.115 1375115
3 731.115 1373775
3 731.765 1371296
3 731.765 1369866
3 731.765 1366838
3 731.765 1366168
3 732.393 1361861
3 732.393 1360328
3 732.393 1351993
3 732.393 1351630
3 732.96 1349567
3 732.96 1347999
3 733.511 1346539
3 742.208 1492182
3 742.208 1491290
3 742.208 1484844
3 742.208 1464330
3 742.208 1445025
3 742.208 1441359
3 742.208 1435696
3 742.208 1433090
3 742.208 1431673
3 742.208 1431647
3 743.024 1430037
3 743.024 1427940
3 743.024 1426423
3 743.024 1424493
3 744.173 1422772
3 744.173 1421494
3 744.736 1415897
3 744.736 1387366
3 745.294 1380437
3 745.824 1371732
3 746.349 1370948
3 749.926 1369830
3 749.926 1369799
3 749.926 1368725
3 750.661 1366066
3 750.661 1365247
1 756.151 1493229
3 756.151 1484117
3 756.151 1458890
3 756.151 1441536
3 756.151 1415921
3 756.151 1415817
3 756.151 1415000
1 757.033 1409474
3 757.033 1407753
3 757.033 1405211
3 757.033 1394830
3 757.033 1385474
3 757.033 1376369
3 757.033 1370572
3 757.762 1367252
3 757.762 1366274
3 757.762 1365620
3 757.762 1365401
3 757.762 1364811
3 758.393 1364303
1 759.426 1355793
3 759.426 1348963
3 759.426 1348539
3 760.941 1347376
3 760.941 1345634
3 761.942 1341664
3 768.885 1341567
3 769.39 1340750
3 770.376 1468788
3 770.376 1460593
3 770.376 1445925
3 770.376 1431158
3 770.376 1427159
3 770.376 1425166
3 771.062 1419460
3 771.062 1402808
3 771.062 1398102
3 771.062 1387494
3 771.062 1387291
3 772.212 1386263
3 772.212 1376809
3 772.736 1373679
3 773.734 1368973
3 774.258 1355353
3 774.258 1350572
3 774.258 1349742
3 774.258 1349309
3 775.371 1348642
3 775.911 1347090
3 775.911 1344539
3 775.911 1339184
3 776.594 1337463
3 776.594 1332542
3 777.143 1332503
3 778.64 1331472
3 779.653 1331235
3 780.647 1329542
3 784.149 1478497
3 784.149 1457078
3 784.149 1454204
3 784.149 1453084
3 784.149 1444495
3 784.149 1435398
3 784.149 1435038
3 784.149 1431100
3 784.149 1427622
3 784.149 1416701
3 784.149 1414631
3 784.149 1388210
3 784.149 1380176
3 784.149 1380151
3 785.04 1378595
3 785.57 1378539
3 785.57 1376635
3 785.57 1369760
3 786.174 1362623
3 786.174 1348244
3 786.174 1344041
3 786.74 1341112
3 787.261 1340244
3 788.254 1338837
3 788.751 1334629
3 790.675 1332929
3 791.216 1331901
3 791.731 1331216
3 792.721 1331056
3 798.184 1419051
3 798.184 1417671
3 798.184 1414541
3 798.184 1404863
3 798.184 1402933
3 798.184 1402454
3 798.184 1382889
3 798.184 1379869
3 798.898 1377765
3 798.898 1377540
3 798.898 1376128
3 798.898 1374217
3 799.486 1350590
3 799.486 1347676
3 799.486 1346541
3 799.486 1345915
3 799.486 1343513
3 800.09 1342027
3 800.09 1341447
3 800.09 1337969
3 800.631 1336039
3 801.138 1335903
3 801.138 1335350
3 801.665 1333950
3 801.665 1331117
3 801.665 1329984
3 801.665 1329116
3 801.665 1328723
3 801.665 1328469
3 802.294 1327395
3 802.294 1326097
3 802.826 1325115
3 802.826 1323429
3 802.826 1321147
3 803.384 1321083
3 803.384 1320723
3 803.384 1320266
1 804.379 1319849
3 804.379 1318233
3 804.379 1317388
3 805.374 1313768
3 805.859 1312072
3 806.367 1311468
3 806.367 1309545
3 807.385 1309538
3 812.455 1479472
3 812.455 1465040
3 812.455 1438301
3 812.455 1436921
3 812.455 1432720
3 812.455 1422239
3 812.455 1418740
3 812.455 1412916
3 813.179 1412767
3 813.179 1411046
3 813.179 1406802
3 813.179 1397610
3 813.179 1395138
3 813.179 1394544
3 813.179 1391529
3 813.179 1384258
3 813.179 1383551
3 813.922 1379976
3 813.922 1373593
3 813.922 1365209
3 813.922 1363788
3 813.922 1354221
3 814.702 1351312
3 814.702 1350732
3 814.702 1350416
3 815.27 1350266
3 818.637 1350016
3 819.158 1349700
3 820.14 1349300
3 820.14 1348883
3 820.14 1348338
3 820.14 1345310
3 822.169 1342302
3 822.169 1341555
3 822.169 1341190
3 824.199 1337453
3 824.199 1334979
3 824.199 1329947
3 824.199 1328864
3 824.794 1328490
3 824.794 1327673
3 825.324 1326907
3 826.344 1437961
3 826.344 1434933
3 826.344 1419746
3 826.344 1405456
3 826.344 1397583
3 826.344 1381080
3 826.344 1379955
3 826.344 1379309
3 826.344 1363869
3 826.344 1357875
3 827.114 1346210
3 827.114 1345731
3 827.652 1345022
3 828.626 1342870
3 829.136 1342192
3 829.136 1341410
3 829.676 1340913
3 830.192 1340235
3 830.192 1338110
3 830.759 1337816
3 831.832 1334535
3 831.832 1332758
3 831.832 1331324
3 837.206 1331199
3 837.206 1330763
3 840.245 1432000
3 840.245 1405703
3 840.245 1401469
3 840.245 1383731
3 840.245 1381659
3 840.869 1381613
3 840.869 1368979
3 840.869 1365895
3 840.869 1361189
3 840.869 1357584
3 841.508 1355432
3 842.967 1354346
3 844.424 1352007
3 844.424 1349175
3 844.424 1348673
3 845.02 1346591
3 845.02 1340889
3 845.562 1340834
3 854.097 1420732
3 854.097 1419636
3 854.097 1417092
3 854.097 1416195
3 854.097 1402868
3 854.737 1402444
3 854.737 1398248
3 854.737 1398079
3 855.307 1394318
3 856.286 1388219
3 856.286 1386187
3 856.286 1384091
3 856.286 1379988
3 856.286 1376218
3 856.286 1374685
3 856.916 1374442
3 856.916 1374333
3 857.467 1371657
3 857.991 1369635
3 859.436 1369561
3 861.834 1365251
3 861.834 1362223
3 864.313 1360659
3 864.842 1357469
3 864.842 1356905
3 865.385 1356377
3 865.385 1355730
3 865.385 1354468
3 865.945 1354044
3 866.452 1352525
3 866.967 1351738
3 867.478 1351567
3 867.478 1351008
3 868.014 1514797
3 868.014 1506992
3 868.014 1500117
3 868.014 1468584
3 868.014 1462006
3 868.014 1457258
3 868.014 1418303
3 868.014 1415202
3 868.014 1412454
3 868.014 1405445
3 868.014 1404342
3 868.014 1372471
3 868.014 1372296
3 868.014 1372180
3 868.908 1371055
3 868.908 1370192
3 868.908 1369125
3 869.471 1365576
3 869.471 1364451
3 869.471 1360434
3 869.471 1359800
3 869.471 1355696
3 870.094 1353766
3 870.094 1351845
3 870.63 1347547
3 882.023 1448457
3 882.023 1428994
3 882.023 1406726
3 882.023 1388557
3 882.023 1386314
3 882.023 1385474
3 882.696 1382006
3 882.696 1380076
3 882.696 1378864
3 883.263 1377500
3 883.263 1376886
3 883.263 1374847
3 883.263 1364151
3 883.263 1359182
3 883.878 1358111
3 883.878 1357833
3 884.422 1355879
3 884.951 1353949
3 884.951 1350315
3 885.964 1350139
3 886.456 1347442
3 886.456 1346267
3 886.978 1344119
3 886.978 1342956
3 886.978 1342189
3 886.978 1338072
3 886.978 1337115
3 887.601 1333913
3 889.521 1333709
3 890.484 1333391
3 890.484 1329965
3 890.484 1329541
3 891.067 1328749
3 891.067 1327205
3 892.045 1327186
3 893.482 1326369
3 895.785 1326080
3 896.282 1447188
3 896.282 1443025
3 896.282 1436851
3 896.282 1422658
3 896.282 1416170
3 896.282 1414657
1 896.282 1413333
3 896.282 1411403
3 896.988 1396636
3 896.988 1394393
3 897.677 1384275
3 897.677 1383941
3 897.677 1372452
3 897.677 1368226
3 897.677 1368170
3 897.677 1365040
3 898.331 1362088
3 898.331 1360334
3 906.029 1346279
3 906.029 1338286
3 906.029 1334659
3 906.608 1333534
3 908.957 1331572
3 909.452 1330989
3 909.452 1330070
3 909.976 1329980
3 910.482 1461236
3 910.482 1424584
3 910.482 1417313
3 910.482 1410721
3 910.482 1410297
3 911.124 1409951
3 911.124 1409527
3 911.667 1403669
3 911.667 1398718
3 911.667 1395577
3 911.667 1393035
3 911.667 1389583
3 911.667 1389557
3 911.667 1384851
3 911.667 1375800
3 912.369 1372807
3 912.369 1371793
3 912.369 1369863
3 912.369 1368936
3 912.95 1364184
3 912.95 1363059
3 912.95 1362771
3 913.503 1360781
3 913.503 1355896
3 914.597 1354055
3 916.583 1353127
3 916.583 1350073
3 917.129 1349604
3 917.129 1347674
3 917.661 1347314
3 924.186 1443322
3 924.186 1433311
3 924.186 1432341
3 924.797 1428934
3 924.797 1408458
3 924.797 1404160
3 925.382 1402698
3 925.382 1399905
3 925.921 1397979
3 926.44 1390814
3 926.44 1385836
3 926.44 1379128
3 926.44 1374526
3 926.44 1374519
3 927.063 1373243
3 927.063 1371166
3 927.063 1365286
3 927.063 1364517
3 927.063 1363561
3 927.063 1361489
3 927.701 1359984
3 927.701 1359247
3 927.701 1358823
3 928.262 1355311
3 928.262 1352707
3 928.805 1352002
3 929.33 1342571
3 929.832 1341105
3 929.832 1340904
3 929.832 1340223
3 930.387 1339098
3 934.41 1332161
3 934.41 1331344
3 938.246 1451040
3 938.246 1449110
3 938.246 1432590
1 938.246 1429438
3 938.246 1426662
3 938.246 1421647
3 938.246 1412485
3 938.246 1398882
3 939.274 1395992
3 939.274 1389871
3 939.274 1385925
3 939.274 1377638
3 940.155 1377214
3 940.935 1374918
3 940.935 1373210
3 940.935 1371610
3 941.797 1369325
3 941.797 1366173
3 943.334 1363175
3 943.334 1357426
3 944.831 1356490
3 946.961 1354782
3 949.212 1353771
3 950.076 1352752
3 950.076 1351784
3 952.445 1524477
3 952.445 1516641
3 952.445 1468044
3 952.445 1464524
3 952.445 1454043
3 952.445 1428295
3 952.445 1423659
3 952.445 1423136
3 952.445 1422984
3 952.445 1415179
3 952.445 1413570
3 952.445 1387189
3 952.445 1380304
3 953.647 1373367
3 953.647 1372296
3 953.647 1369268
3 954.489 1361449
3 954.489 1353069
3 954.489 1350028
3 954.489 1349609
3 955.374 1349345
3 956.867 1346069
3 956.867 1344476
3 956.867 1343029
3 957.725 1342605
3 957.725 1340754
3 959.251 1340009
3 960.003 1339192
3 965.299 1338144
3 966.084 1495976
3 966.084 1494823
3 966.084 1493542
3 966.084 1488819
3 966.084 1487948
3 966.084 1485796
3 966.084 1483195
3 966.084 1482189
3 966.084 1461379
3 966.084 1453561
3 966.084 1416158
1 967.215 1415482
3 967.215 1406649
3 967.215 1406580
3 968.066 1395762
3 968.066 1386977
3 968.883 1386236
3 968.883 1365213
3 968.883 1363562
3 969.723 1346852
3 969.723 1345727
3 969.723 1342561
3 971.275 1342249
3 972.745 1333702
3 972.745 1332634
3 973.52 1332529
3 973.52 1327755
3 974.969 1327443
3 976.416 1326375
3 977.942 1325501
3 980.151 1419430
3 980.151 1418484
3 980.151 1405332
3 980.151 1404809
3 980.151 1403527
3 981.091 1401331
3 981.091 1375859
3 981.091 1374669
3 981.091 1374138
3 981.091 1373250
3 981.091 1358975
3 982.059 1356732
3 982.059 1355451
3 982.059 1353446
3 982.951 1352040
3 982.951 1351160
3 982.951 1350507
3 983.812 1340751
3 983.812 1340632
3 983.812 1340320
3 984.631 1332363
3 985.372 1326782
3 985.372 1326172
3 986.156 1325748
3 986.156 1324931
3 986.943 1323890
3 994.382 1478809
3 994.382 1478561
3 994.382 1455708
3 994.382 1452117
3 994.382 1428027
3 994.382 1426337
3 994.382 1418518
3 995.398 1418210
3 995.398 1413016
3 995.398 1411891
3 995.398 1409013
3 995.398 1406861
3 996.29 1404018
3 996.29 1403709
3 996.29 1399301
3 996.29 1391482
3 996.29 1383372
3 996.29 1380766
3 996.29 1374936
3 996.29 1370150
3 997.359 1370141
3 997.359 1365375
3 997.359 1364632
3 997.359 1363011
3 997.359 1361707
3 997.359 1361201
3 997.359 1359271
3 998.33 1351582
3 998.33 1347355
3 998.33 1345624
3 999.869 1341224
3 999.869 1340609
3 1008.14 1454200
3 1008.14 1445611
3 1008.14 1444794
3 1008.14 1440515
3 1009.04 1440091
3 1009.04 1417137
3 1009.87 1416697
3 1009.87 1406496
3 1009.87 1406020
3 1009.87 1404422
3 1009.87 1404078
3 1010.83 1399408
3 1010.83 1394528
3 1010.83 1394337
3 1010.83 1393711
3 1010.83 1391716
3 1010.83 1391292
3 1010.83 1383596
3 1012.56 1381875
3 1014.47 1375633
3 1014.47 1373912
3 1014.47 1372161
3 1015.19 1367604
3 1015.19 1366198
3 1015.84 1359331
3 1016.52 1358150
3 1017.18 1357610
3 1018.27 1356855
3 1018.8 1356501
3 1019.96 1356077
3 1020.5 1348504
3 1021.51 1345171
3 1021.51 1344216
3 1022.11 1492639
3 1022.11 1459186
3 1022.11 1420133
3 1022.11 1418024
3 1022.11 1399660
3 1022.11 1390253
3 1022.11 1372295
3 1022.11 1362822
3 1022.93 1360579
3 1022.93 1358637
3 1022.93 1356598
3 1023.5 1356428
3 1023.5 1354585
3 1024.11 1352630
3 1024.11 1350386
3 1025.64 1347809
3 1025.64 1345514
3 1025.64 1343371
3 1026.28 1340908
3 1026.28 1339621
3 1026.28 1339185
3 1027.35 1335498
3 1031.93 1331273
3 1032.45 1330650
3 1032.45 1329945
3 1035.44 1329184
3 1036.43 1467990
3 1036.43 1460566
3 1036.43 1453015
3 1036.43 1449863
3 1036.43 1447160
3 1036.43 1445439
3 1036.43 1443509
3 1036.43 1433648
3 1036.43 1424416
3 1036.43 1419466
3 1036.43 1415857
3 1037.21 1412645
3 1037.21 1412124
3 1037.21 1397016
3 1037.21 1392001
3 1037.21 1391314
3 1037.21 1386882
3 1037.21 1382463
3 1037.21 1380104
3 1037.21 1380080
3 1037.21 1375782
3 1037.98 1374979
3 1037.98 1372256
3 1037.98 1365796
3 1038.55 1365720
3 1038.55 1355122
3 1038.55 1350183
3 1038.55 1348770
3 1039.15 1347819
3 1039.66 1345703
3 1042.64 1338853
3 1042.64 1337728
3 1045.09 1336255
3 1045.09 1336150
3 1045.65 1331862
3 1045.65 1329980
3 1045.65 1329664
3 1046.22 1329323
3 1046.22 1328899
3 1047.27 1328709
3 1047.98 1326202
3 1048.55 1324411
3 1050.07 1477752
3 1050.07 1455002
3 1050.07 1452557
3 1050.07 1438532
3 1050.07 1414442
3 1050.07 1405184
3 1050.07 1403392
3 1050.07 1381323
3 1050.07 1374715
3 1050.07 1372270
3 1050.07 1370118
3 1050.89 1369224
3 1051.88 1367546
3 1051.88 1365145
3 1052.43 1362840
3 1052.43 1362643
3 1052.43 1357047
3 1052.99 1355680
3 1052.99 1354770
3 1053.99 1351451
3 1053.99 1349179
3 1054.51 1347652
3 1054.51 1345722
3 1055.03 1339511
3 1055.53 1339087
3 1056.57 1336044
3 1056.57 1334919
3 1057.11 1330822
3 1060.81 1329793
3 1061.78 1328260
3 1064.16 1486909
3 1064.16 1486092
3 1064.16 1483064
3 1064.16 1482257
3 1064.16 1475330
3 1064.16 1451007
3 1064.16 1439936
3 1064.16 1435098
3 1064.16 1432764
3 1064.16 1429031
3 1064.16 1400361
3 1064.16 1396711
3 1064.16 1388838
3 1065.17 1380384
3 1065.17 1375678
3 1065.17 1372650
3 1065.17 1366168
3 1065.17 1364635
3 1065.17 1353870
3 1065.83 1353537
3 1066.33 1351607
3 1067.36 1350610
3 1067.36 1344477
3 1067.36 1343908
3 1067.36 1343484
3 1068.43 1338808
3 1068.43 1337305
3 1068.43 1336878
3 1077.56 1335897
3 1077.56 1335733
3 1077.56 1332291
3 1078.13 1514569
3 1078.13 1513612
3 1078.13 1449445
3 1078.13 1445712
3 1078.13 1441078
3 1078.13 1439545
3 1078.13 1434474
3 1078.13 1419016
3 1078.13 1407981
3 1078.88 1407328
3 1078.88 1405174
3 1078.88 1402146
3 1079.45 1400230
3 1079.45 1395789
3 1079.45 1393882
3 1079.45 1392616
3 1079.45 1386529
3 1080.08 1384145
3 1081.2 1379817
3 1081.2 1377680
3 1081.2 1371533
3 1081.85 1369802
3 1081.85 1368116
3 1081.85 1366774
3 1081.85 1365947
3 1081.85 1365634
3 1082.64 1363024
3 1082.64 1360439
3 1082.64 1359219
3 1082.64 1358509
3 1083.2 1357486
3 1083.2 1356397
3 1083.2 1355950
3 1083.2 1353706
3 1083.2 1349291
3 1084.28 1349168
3 1084.28 1348690
3 1084.28 1346398
3 1084.83 1338525
3 1084.83 1335313
3 1085.35 1334040
3 1086.3 1333990
3 1086.3 1333949
3 1087.33 1330752
3 1087.82 1330577
3 1087.82 1329900
3 1087.82 1329476
3 1092.06 1452092
3 1092.06 1445321
3 1092.06 1444541
3 1092.06 1441743
3 1092.06 1429845
3 1092.06 1428153
3 1092.06 1425291
3 1092.76 1412577
3 1092.76 1410934
3 1092.76 1410696
3 1092.76 1405631
3 1092.76 1402016
3 1093.36 1392358
3 1093.36 1391866
3 1093.36 1390145
3 1093.93 1385969
3 1093.93 1373585
3 1094.95 1371896
3 1094.95 1369240
3 1094.95 1368595
3 1095.51 1367598
3 1095.51 1366564
3 1095.51 1366126
3 1095.51 1363463
3 1096.1 1361915
3 1096.1 1358306
3 1096.63 1358103
3 1096.63 1355930
3 1099.66 1354930
3 1100.17 1353397
3 1100.17 1351292
3 1100.7 1348266
3 1101.19 1348163
3 1106.25 1467555
3 1106.25 1446069
3 1106.25 1443701
3 1106.25 1443630
3 1106.25 1441771
3 1106.25 1437889
3 1106.25 1436861
3 1106.25 1433212
3 1107.02 1429886
3 1107.02 1416036
3 1107.02 1413008
3 1107.02 1409546
3 1107.02 1407014
3 1107.02 1406524
3 1107.8 1399737
3 1108.81 1398727
3 1108.81 1398074
3 1109.34 1397164
3 1109.34 1396740
3 1109.34 1396475
3 1109.34 1386834
3 1109.96 1385569
3 1109.96 1384927
3 1110.51 1376883
3 1111.05 1373934
3 1111.05 1373317
3 1111.05 1372942
3 1111.67 1369276
3 1112.19 1368294
3 1120.43 1433717
3 1120.43 1407405
3 1120.43 1403150
3 1120.43 1402778
3 1120.43 1397763
3 1120.43 1388399
3 1120.43 1383763
3 1120.43 1383240
3 1121.26 1370212
3 1121.26 1368109
3 1121.82 1367681
3 1121.82 1362409
3 1121.82 1361569
3 1121.82 1360479
3 1121.82 1359354
3 1121.82 1357239
3 1121.82 1356422
3 1122.53 1349714
3 1122.53 1347453
3 1122.53 1346608
3 1123.09 1333782
3 1124.07 1332657
3 1126.97 1332039
3 1127.99 1330975
3 1127.99 1328918
3 1129.05 1327793
3 1129.05 1325145
3 1129.05 1323215
3 1134.23 1431844
3 1134.23 1430069
3 1134.23 1395820
3 1134.23 1387784
3 1134.23 1380170
3 1134.23 1378129
3 1134.23 1371852
3 1134.23 1366205
3 1134.23 1359302
3 1135.34 1358601
3 1135.34 1358271
3 1135.34 1358259
3 1136.19 1357889
3 1136.19 1356356
3 1136.19 1354278
3 1137.04 1352348
3 1137.84 1349300
3 1137.84 1347767
3 1140.1 1341986
3 1141.59 1340890
3 1141.59 1338943
3 1141.59 1337263
3 1143.15 1337091
3 1143.88 1336174
3 1143.88 1335111
3 1145.42 1334669
3 1145.42 1332753
3 1146.29 1330499
3 1146.29 1329781
3 1147.11 1328080
3 1147.11 1326547
3 1148.34 1413169
3 1148.34 1404706
3 1148.34 1398937
3 1148.34 1396785
3 1148.34 1396348
3 1148.34 1395882
3 1148.34 1383428
3 1148.34 1383168
3 1149.05 1366312
3 1149.05 1353636
3 1149.05 1353200
3 1149.05 1352212
3 1149.89 1350607
3 1149.89 1349790
3 1150.41 1346887
3 1150.41 1335891
3 1150.41 1334785
3 1150.97 1332713
3 1151.47 1332241
3 1152.45 1330868
3 1152.45 1328927
3 1152.98 1328147
3 1152.98 1327022
3 1152.98 1326214
3 1153.53 1319530
3 1153.53 1317737
3 1162.38 1507546
3 1162.38 1478490
3 1162.38 1461498
3 1162.38 1451970
3 1162.38 1448492
3 1162.38 1440592
3 1162.38 1439467
3 1162.38 1434111
3 1162.38 1419732
3 1162.38 1417802
3 1162.38 1414077
3 1162.38 1414070
3 1162.38 1405271
3 1163.22 1399960
3 1163.22 1383348
3 1163.22 1370084
3 1163.22 1360315
3 1163.22 1353440
3 1163.95 1353127
3 1164.46 1348820
3 1165.06 1348155
3 1165.06 1348096
3 1166.3 1347672
3 1166.3 1346925
3 1166.83 1345719
3 1166.83 1345538
3 1168.76 1344080
3 1168.76 1343721
3 1168.76 1341296
3 1172.54 1339057
3 1172.54 1335466
1 1176.34 1482104
3 1176.34 1476972
3 1176.34 1463107
3 1176.34 1453451
3 1176.34 1435812
3 1176.34 1432979
3 1176.34 1429293
3 1177.03 1421420
3 1177.03 1419887
3 1177.03 1408709
3 1177.64 1408338
3 1177.64 1405933
3 1178.18 1404003
3 1178.18 1400525
3 1178.18 1397232
3 1178.75 1396285
3 1178.75 1395419
3 1179.31 1392500
3 1179.31 1391591
3 1179.31 1387992
3 1179.31 1383125
3 1179.91 1378697
3 1179.91 1373991
3 1179.91 1372458
3 1180.61 1372266
3 1180.61 1371449
3 1180.61 1369948
3 1180.61 1368018
3 1181.42 1365352
3 1183.45 1362161
3 1183.98 1362067
3 1185.02 1361870
3 1185.02 1360337
3 1190.07 1441980
3 1190.07 1429464
3 1190.07 1428186
3 1190.07 1426256
3 1190.82 1420778
3 1190.82 1416072
3 1190.82 1402207
3 1190.82 1400572
3 1190.82 1397714
3 1190.82 1394334
3 1191.59 1391574
3 1191.59 1384169
3 1191.59 1379463
3 1191.59 1379364
3 1191.59 1376435
3 1191.59 1372137
3 1191.59 1363942
3 1192.34 1362670
3 1192.34 1358060
3 1193.52 1356863
3 1193.52 1353442
3 1194.26 1351062
3 1194.89 1350017
3 1195.44 1348745
3 1195.97 1341414
3 1197.03 1340779
3 1204.32 1543385
3 1204.32 1523710
3 1204.32 1441564
3 1204.32 1438701
3 1204.32 1437884
3 1204.32 1432178
3 1204.32 1430007
3 1204.32 1425651
3 1204.32 1423132
3 1204.32 1410033
3 1204.32 1407881
3 1205.13 1406691
3 1205.13 1401985
3 1205.71 1400159
3 1205.71 1391335
3 1206.28 1389614
3 1206.28 1378848
3 1206.82 1378135
3 1206.82 1362726
3 1206.82 1362063
3 1206.82 1360976
3 1206.82 1358309
3 1207.51 1351113
3 1208.55 1341281
3 1208.55 1336346
3 1210.06 1332613
3 1218.41 1484510
3 1218.41 1456179
3 1218.41 1450985
3 1218.41 1437035
3 1218.41 1433065
3 1218.41 1423297
3 1218.41 1410583
3 1218.41 1397606
3 1218.41 1393873
3 1218.41 1389790
3 1218.41 1375358
3 1219.27 1370343
3 1220.32 1369861
3 1221.37 1364833
3 1221.37 1363900
3 1222.92 1360872
3 1224.43 1359458
3 1224.43 1357926
3 1224.99 1356978
3 1224.99 1355805
3 1225.55 1354200
3 1232.15 1446518
3 1232.15 1445121
3 1232.15 1431313
3 1232.15 1430462
3 1232.15 1430043
3 1233.06 1426102
3 1233.06 1404099
3 1233.64 1402571
3 1233.64 1388845
3 1233.64 1386915
3 1234.26 1385541
3 1234.26 1359892
3 1234.26 1357649
3 1234.26 1352936
3 1234.89 1350557
3 1234.89 1350006
3 1235.95 1341062
3 1235.95 1340245
3 1237.05 1339459
3 1237.05 1333359
3 1237.05 1331207
3 1237.05 1330688
3 1237.76 1326353
3 1237.76 1324423
3 1246.26 1452106
3 1246.26 1448650
3 1246.26 1447833
3 1246.26 1443670
3 1246.26 1435632
3 1246.26 1429535
3 1246.26 1424074
3 1246.26 1422353
3 1246.26 1421248
3 1246.26 1418693
3 1247.07 1414373
3 1247.07 1409350
3 1247.07 1405931
3 1247.77 1393255
3 1248.39 1391335
3 1249.42 1389179
3 1249.42 1389095
3 1249.42 1387890
3 1250.02 1376242
3 1250.02 1365798
3 1250.02 1365336
3 1250.02 1363406
3 1250.65 1359656
3 1252.24 1359301
3 1252.8 1358966
3 1252.8 1358882
3 1253.35 1356442
3 1253.35 1355003
3 1253.35 1354347
3 1253.35 1352417
3 1255.9 1351626
3 1260.35 1459863
3 1260.35 1457939
3 1260.35 1455918
3 1260.35 1449969
3 1260.35 1439960
3 1260.35 1432839
3 1261.03 1427189
3 1261.03 1413239
3 1261.03 1410237
3 1261.03 1409428
3 1261.03 1407707
3 1261.03 1399301
3 1261.71 1398484
3 1261.71 1391122
3 1262.76 1390161
3 1263.3 1389347
3 1263.3 1388672
3 1263.87 1376156
3 1263.87 1367266
3 1263.87 1366751
3 1264.56 1366088
3 1264.56 1361736
3 1266.17 1361164
3 1266.17 1360045
3 1266.76 1356563
3 1267.84 1351372
3 1267.84 1350522
3 1267.84 1348592
3 1269.4 1347250
3 1269.92 1344609
3 1270.46 1343177
3 1271.45 1342907
3 1271.97 1342090
3 1274.43 1468251
3 1274.43 1467688
3 1274.43 1443547
3 1274.43 1442872
3 1274.43 1442055
3 1274.43 1440334
3 1274.43 1422813
3 1274.43 1418426
3 1275.17 1405621
3 1275.17 1396083
3 1275.17 1380169
3 1275.17 1379745
3 1275.17 1375440
3 1275.84 1373271
3 1275.84 1372399
3 1275.84 1368973
3 1275.84 1367711
3 1275.84 1366894
3 1276.56 1358908
3 1276.56 1355756
3 1276.56 1355696
3 1276.56 1355558
3 1277.18 1351688
3 1277.18 1351332
3 1277.18 1344457
3 1277.8 1344029
3 1277.8 1343931
3 1277.8 1342792
3 1278.85 1341105
3 1278.85 1340089
3 1278.85 1339574
3 1279.88 1337946
3 1281.44 1337192
3 1282.02 1336458
3 1286.2 1336245
3 1288.2 1508533
3 1288.2 1502596
3 1288.2 1495563
3 1288.2 1471640
3 1288.2 1460250
3 1288.2 1454606
3 1288.2 1451878
3 1288.2 1438103
3 1288.2 1436000
3 1288.2 1433561
3 1288.2 1421045
3 1288.2 1419998
3 1289.01 1413671
3 1289.01 1399158
3 1289.01 1385901
3 1289.01 1380008
3 1289.62 1378287
3 1290.16 1376888
3 1290.16 1369498
3 1290.16 1369015
3 1291.21 1367085
3 1291.21 1365435
3 1291.73 1364057
3 1292.24 1362450
3 1292.95 1356010
3 1292.95 1355528
3 1292.95 1355388
3 1292.95 1354415
3 1293.64 1354375
3 1293.64 1353856
3 1294.67 1353316
3 1294.67 1352807
3 1294.67 1352401
3 1295.23 1351274
3 1296.19 1349303
3 1296.19 1348592
3 1296.19 1347193
3 1296.79 1345660
3 1296.79 1345341
3 1297.44 1344415
3 1297.44 1343436
3 1298.12 1341844
3 1298.12 1340750
3 1298.12 1340123
3 1298.12 1339877
3 1298.73 1339453
3 1299.73 1338961
3 1300.21 1338324
3 1301.18 1337427
3 1301.18 1333458
3 1301.18 1332165
3 1301.76 1330110
3 1302.29 1474777
3 1302.29 1453083
3 1302.29 1447644
3 1302.29 1443619
3 1302.29 1442494
3 1302.29 1439540
3 1302.29 1432737
3 1302.29 1423373
3 1302.29 1419895
3 1302.29 1411401
3 1302.29 1389788
3 1303.12 1388587
3 1303.12 1382876
3 1303.67 1382545
3 1303.67 1361735
3 1303.67 1358634
3 1303.67 1355124
3 1304.27 1353194
3 1304.79 1352415
3 1304.79 1351747
3 1306.23 1348269
3 1306.71 1346192
3 1306.71 1345633
3 1306.71 1344262
3 1308.64 1343987
3 1308.64 1334336
3 1308.64 1330727
3 1309.19 1327645
3 1309.19 1324396
3 1316.05 1484378
1 1316.05 1476353
3 1316.05 1473325
3 1316.05 1469356
3 1316.05 1468745
3 1316.05 1456842
3 1316.05 1448885
3 1316.05 1438117
3 1316.05 1433819
3 1316.81 1430268
3 1316.81 1429113
3 1316.81 1409942
3 1316.81 1400804
3 1316.81 1396854
3 1316.81 1394802
3 1316.81 1393194
3 1316.81 1392872
3 1317.5 1391800
3 1317.5 1390186
3 1317.5 1390059
3 1318.08 1388464
3 1318.08 1383728
3 1318.08 1380819
3 1318.08 1378752
3 1318.68 1367539
3 1318.68 1364690
3 1318.68 1363345
3 1319.26 1361758
3 1319.26 1361415
3 1320.78 1361183
3 1321.77 1357161
3 1322.75 1355270
3 1323.26 1354133
3 1323.26 1351168
3 1323.26 1350078
3 1323.26 1346795
3 1323.26 1344865
3 1323.26 1344275
3 1330.12 1491956
3 1330.12 1482532
3 1330.12 1475152
3 1330.12 1455225
3 1330.12 1424398
3 1330.77 1422726
3 1330.77 1409476
3 1330.77 1406448
3 1330.77 1402953
3 1330.77 1401023
3 1331.41 1398253
3 1331.41 1380638
3 1331.41 1380441
3 1331.41 1379348
3 1332.01 1379183
3 1332.52 1377650
3 1332.52 1369639
3 1332.52 1367487
3 1332.52 1363190
3 1332.52 1360687
3 1333.18 1352444
3 1333.18 1351863
3 1333.18 1349402
3 1333.18 1346677
3 1333.77 1341971
3 1333.77 1335431
3 1334.3 1335412
3 1334.79 1335015
3 1335.33 1334198
3 1336.81 1333830
3 1337.33 1332644
3 1344.38 1457469
3 1344.38 1446031
3 1344.38 1440926
3 1344.38 1428655
3 1344.38 1424370
1 1345.04 1416616
3 1345.56 1409967
3 1345.56 1398387
3 1345.56 1396235
3 1345.56 1394280
3 1346.18 1381803
3 1346.18 1380332
3 1346.71 1380270
3 1346.71 1380237
3 1346.71 1379813
3 1346.71 1378638
3 1347.37 1370347
3 1347.37 1369814
3 1347.37 1369563
3 1347.37 1368438
3 1347.37 1365331
3 1348.04 1362576
3 1348.04 1358112
3 1348.58 1356579
3 1348.58 1355762
3 1348.58 1355050
3 1348.58 1354648
3 1348.58 1349961
3 1348.58 1348785
3 1348.58 1346800
3 1349.23 1345989
3 1349.23 1345824
3 1349.23 1344648
3 1349.8 1343837
3 1349.8 1341315
3 1349.8 1336300
3 1350.35 1333502
3 1351.34 1332374
3 1351.84 1330222
3 1351.84 1329852
3 1351.84 1329127
3 1352.4 1327624
3 1352.91 1326807
3 1353.41 1326491
3 1353.93 1326067
3 1358.23 1491729
3 1358.23 1459742
3 1358.23 1450363
3 1358.23 1449238
3 1358.23 1433652
3 1358.87 1424828
3 1358.87 1416758
3 1358.87 1407578
1 1358.87 1405153
3 1358.87 1404079
3 1358.87 1390122
3 1359.55 1382296
3 1359.55 1377914
3 1360.09 1370437
3 1361.06 1368221
3 1361.56 1363893
3 1361.56 1356005
3 1362.09 1355698
3 1362.59 1355121
3 1362.59 1348141
3 1362.59 1342966
3 1362.59 1338574
3 1362.59 1337210
3 1363.21 1334779
3 1363.71 1332627
3 1363.71 1332545
3 1372.6 1511397
3 1372.6 1479864
3 1372.6 1478140
3 1372.6 1471577
3 1372.6 1469152
3 1372.6 1457421
3 1372.6 1443042
3 1372.6 1421693
1 1372.6 1412917
3 1372.6 1412517
3 1372.6 1401876
3 1373.7 1401625
3 1374.48 1396919
3 1375.25 1386836
3 1375.25 1384465
3 1376.04 1384041
3 1376.04 1382425
3 1376.86 1380563
3 1377.62 1367870
3 1378.38 1367802
3 1378.38 1367676
3 1379.15 1367131
3 1379.88 1365987
3 1379.88 1364979
3 1380.65 1361700
3 1380.65 1354005
3 1380.65 1353460
3 1381.46 1352335
3 1381.46 1351495
3 1382.94 1347201
3 1382.94 1343859
3 1385.9 1343825
3 1386.67 1437601
3 1386.67 1428479
3 1386.67 1415963
3 1386.67 1406089
3 1387.56 1396803
3 1387.56 1394873
3 1388.35 1392149
3 1388.35 1390012
3 1389.13 1387987
3 1389.13 1385362
3 1389.13 1381572
3 1389.13 1378714
3 1389.97 1378093
3 1390.69 1376810
3 1392.12 1376415
3 1392.87 1373328
3 1393.64 1370421
3 1394.39 1370133
3 1395.13 1367816
3 1397.27 1367393
3 1400.33 1413395
3 1400.33 1392922
3 1400.33 1388216
3 1401.18 1381761
3 1401.95 1373378
3 1402.72 1371468
3 1402.72 1370313
3 1402.72 1370295
3 1402.72 1366596
3 1402.72 1366030
3 1403.61 1364668
3 1405.08 1362269
3 1412.27 1359039
3 1413.79 1357972
3 1414.53 1522808
3 1414.53 1520243
3 1414.53 1511419
3 1414.53 1504406
3 1414.53 1472847
3 1414.53 1461941
3 1414.53 1429733
3 1414.53 1427803
3 1414.53 1425206
3 1414.53 1421473
3 1415.59 1416767
3 1415.59 1402050
3 1415.59 1401869
3 1416.4 1397678
3 1416.4 1395957
3 1417.16 1395163
3 1417.16 1393164
3 1417.16 1381874
3 1417.98 1368508
3 1417.98 1362407
3 1419.46 1362271
3 1419.46 1354314
3 1420.21 1352124
3 1420.21 1350938
3 1420.21 1350415
3 1420.21 1349412
3 1421.7 1342537
3 1428.69 1461531
3 1428.69 1453526
3 1428.69 1450374
3 1428.69 1401114
3 1428.69 1394096
3 1428.69 1386728
3 1429.59 1376247
3 1429.59 1353094
3 1429.59 1352857
3 1429.59 1351761
3 1429.59 1348283
3 1430.44 1342667
3 1430.44 1341605
3 1430.44 1337114
3 1430.44 1335611
3 1430.44 1331990
3 1431.3 1329838
3 1432.03 1326898
3 1435.66 1326443
3 1436.4 1326019
3 1436.4 1325202
3 1437.16 1325189
1 1442.15 1468110
3 1442.15 1442466
3 1442.15 1438772
3 1442.15 1437051
3 1442.15 1433318
3 1442.15 1429185
3 1442.15 1428518
3 1442.15 1417408
3 1442.15 1415303
3 1442.15 1398351
3 1442.15 1389828
3 1442.15 1377312
3 1443.26 1375054
3 1443.26 1369035
3 1443.26 1362933
3 1444.08 1360446
3 1444.08 1350928
3 1444.85 1333313
3 1444.85 1330189
3 1444.85 1328656
3 1445.66 1325486
3 1445.66 1324669
3 1447.18 1322221
3 1447.95 1321760
3 1447.95 1321198
3 1453.63 1317082
3 1454.4 1315979
3 1454.4 1314323
3 1456.6 1479575
3 1456.6 1479151
3 1456.6 1458848
3 1457.49 1437455
3 1457.49 1435525
3 1457.49 1419583
3 1457.49 1417763
3 1457.49 1414974
3 1457.49 1413849
3 1458.46 1412852
3 1458.46 1408193
3 1459.32 1407576
3 1459.32 1399315
3 1459.32 1395961
3 1460.3 1392933
3 1461.12 1391808
3 1461.96 1382582
3 1461.96 1374498
3 1463.57 1370584
3 1464.39 1369395
3 1465.17 1367282
3 1465.17 1365352
3 1466.03 1364099
3 1466.03 1360185
3 1466.03 1359832
3 1466.88 1358255
3 1470.64 1465420
3 1470.64 1457584
3 1470.64 1450709
3 1470.64 1445731
3 1470.64 1438693
3 1470.64 1431332
3 1471.63 1429926
3 1471.63 1424220
3 1471.63 1423909
3 1471.63 1414545
3 1471.63 1413396
3 1472.57 1412972
3 1472.57 1412475
3 1472.57 1408798
3 1472.57 1407077
3 1472.57 1399272
3 1473.56 1390937
3 1473.56 1384840
3 1473.56 1379401
3 1474.48 1378584
3 1475.26 1377004
3 1475.26 1374003
3 1475.26 1372749
3 1475.26 1367717
3 1475.26 1365787
3 1476.21 1364131
3 1476.21 1363216
3 1476.21 1360973
3 1478.98 1360968
3 1479.52 1360456
3 1479.52 1360132
3 1480.08 1359708
3 1480.08 1359382
3 1480.08 1358565
3 1480.68 1355403
3 1480.68 1354979
3 1480.68 1354008
3 1484.21 1451281
3 1484.21 1450707
3 1484.21 1449842
3 1484.86 1449146
3 1485.43 1446805
3 1485.43 1446187
3 1485.43 1445518
3 1485.43 1431755
3 1486.09 1431577
3 1486.09 1431217
3 1486.09 1409812
3 1486.09 1409043
3 1486.09 1404337
3 1486.77 1401939
3 1487.35 1400859
3 1487.35 1398707
3 1488.52 1398485
3 1488.52 1390927
3 1488.52 1389206
3 1489.12 1383248
3 1490.74 1382431
3 1498.23 1434310
3 1498.23 1429285
3 1498.23 1425442
3 1498.23 1420736
3 1498.23 1418806
3 1498.23 1414244
3 1498.23 1406439
3 1498.23 1405188
3 1498.23 1403036
3 1498.23 1398045
3 1498.23 1397370
3 1499.06 1397134
3 1499.06 1394407
3 1499.06 1392577
3 1499.06 1389425
3 1499.69 1387655
3 1500.25 1386122
3 1500.25 1385951
3 1500.25 1383448
3 1500.25 1380420
3 1500.89 1378462
3 1500.89 1370290
3 1500.89 1370193
3 1501.49 1368921
3 1501.49 1366023
3 1502.07 1364969
3 1502.07 1362817
3 1502.07 1355908
3 1503.2 1355091
3 1503.2 1352691
3 1503.2 1352395
3 1503.2 1351939
3 1503.83 1350539
3 1504.37 1349414
3 1504.37 1344708
3 1506.5 1344242
3 1507.58 1343352
3 1508.12 1341813
3 1508.65 1340804
3 1508.65 1338083
3 1508.65 1333341
3 1509.26 1330864
3 1509.26 1329303
3 1509.26 1328920
1 1512.34 1499010
3 1512.34 1473291
3 1512.34 1472256
3 1512.34 1467958
3 1512.34 1431029
3 1512.34 1428649
3 1512.34 1424537
3 1512.34 1422614
3 1512.34 1420234
3 1513.13 1406167
3 1513.13 1404248
3 1513.13 1399765
3 1513.13 1391945
3 1513.13 1389793
3 1513.8 1374580
3 1514.33 1373565
3 1514.85 1369327
3 1515.37 1365323
3 1515.37 1363754
3 1515.92 1357628
3 1515.92 1356025
3 1516.52 1355541
3 1517.6 1352273
3 1518.13 1349311
3 1518.13 1347852
3 1519.2 1347774
3 1521.27 1346520
3 1521.27 1346405
3 1521.27 1344368
3 1521.86 1342627
3 1522.38 1342203
3 1522.91 1341966
3 1522.91 1338258
3 1523.46 1337774
3 1524.95 1335844
3 1526.43 1502529
3 1526.43 1482923
3 1526.43 1464661
3 1526.43 1441973
3 1526.43 1424226
3 1526.43 1405171
3 1527.13 1398685
3 1527.13 1398491
3 1527.13 1391331
3 1527.73 1390195
3 1527.73 1388021
3 1527.73 1386990
3 1528.31 1382824
3 1528.31 1379370
3 1528.87 1369691
3 1529.41 1363057
3 1529.41 1360905
3 1529.41 1355826
3 1529.41 1338808
3 1529.41 1334048
3 1530.55 1333231
3 1539.95 1332122
3 1540.55 1428766
3 1540.55 1411528
3 1540.55 1411511
3 1540.55 1392778
3 1540.55 1384889
3 1540.55 1383931
3 1540.55 1381322
3 1540.55 1377979
3 1541.34 1376446
3 1541.9 1375119
3 1541.9 1374857
3 1541.9 1362197
3 1541.9 1359857
3 1542.52 1357389
3 1542.52 1356465
3 1542.52 1351976
3 1542.52 1351944
3 1543.1 1351727
3 1543.1 1351335
3 1543.1 1350242
3 1543.69 1348030
3 1543.69 1347254
3 1544.74 1344499
3 1544.74 1343169
3 1545.3 1342778
3 1545.84 1341113
3 1546.87 1340816
3 1547.41 1334906
3 1547.95 1333212
3 1548.48 1333107
3 1548.48 1332041
3 1549.05 1331165
3 1550.58 1330886
3 1550.58 1330835
3 1551.16 1324732
3 1551.16 1322268
3 1551.16 1322209
3 1551.76 1321739
3 1552.76 1321002
3 1553.27 1320852
3 1553.78 1320338
3 1554.32 1522694
3 1554.32 1503778
3 1554.32 1472245
3 1554.32 1465442
3 1554.32 1437797
3 1554.32 1433302
3 1554.32 1431455
3 1554.32 1430172
3 1554.32 1416307
3 1554.32 1396701
3 1554.32 1394221
3 1554.32 1392149
3 1554.32 1375450
3 1555.19 1374999
3 1555.19 1368198
3 1555.19 1366933
3 1555.19 1364072
3 1555.81 1346287
3 1556.34 1345876
3 1556.34 1345018
3 1556.9 1340834
3 1556.9 1337323
3 1557.47 1336789
3 1558.47 1334206
3 1559.94 1332276
3 1560.45 1324979
3 1560.45 1324770
3 1561 1323841
3 1561 1323010
3 1568.3 1524093
3 1568.3 1509326
3 1568.3 1445159
3 1568.3 1420692
3 1568.3 1412846
3 1568.3 1404357
3 1568.3 1403859
3 1568.3 1388571
3 1568.3 1386240
3 1569.08 1386041
3 1569.08 1378168
3 1569.64 1376658
3 1569.64 1375983
3 1569.64 1368780
3 1569.64 1363386
3 1569.64 1359230
3 1570.28 1357281
3 1570.28 1357103
3 1570.28 1356286
3 1570.87 1355036
3 1570.87 1353527
3 1570.87 1351558
3 1571.47 1350433
3 1571.47 1350301
3 1571.47 1345495
3 1572.06 1343546
3 1572.6 1343421
3 1574.08 1343343
3 1574.08 1339795
3 1574.63 1338669
3 1574.63 1337478
3 1574.63 1336719
3 1575.2 1333745
3 1575.2 1332305
3 1575.2 1330584
3 1575.77 1330267
3 1575.77 1325059
3 1575.77 1324936
3 1576.34 1324519
3 1576.34 1324273
3 1576.89 1322660
3 1582.26 1431134
3 1582.26 1430459
3 1582.26 1419553
3 1582.26 1409942
3 1582.26 1406745
3 1582.26 1403012
3 1582.26 1401478
3 1582.26 1399388
3 1582.26 1397458
3 1583.05 1395268
3 1583.05 1380330
3 1583.05 1379549
3 1583.05 1378142
3 1583.05 1376755
3 1583.05 1376698
3 1583.74 1366476
3 1583.74 1359777
3 1583.74 1358056
3 1583.74 1356931
3 1583.74 1352479
3 1583.74 1351372
3 1584.42 1344589
3 1584.42 1343682
3 1584.42 1343420
3 1585.51 1341979
3 1586.03 1341508
3 1587.64 1339987
3 1587.64 1339349
3 1588.2 1338532
3 1588.2 1338108
3 1588.2 1332402
3 1596.15 1485321
3 1596.15 1479615
3 1596.15 1458006
3 1596.15 1443792
3 1596.15 1430812
3 1596.15 1426106
3 1596.15 1421075
3 1596.15 1420895
3 1596.15 1418965
3 1596.15 1417692
3 1596.97 1410679
3 1596.97 1402607
3 1596.97 1394337
3 1596.97 1390402
3 1596.97 1388698
3 1597.72 1386789
3 1597.72 1385786
3 1597.72 1378140
3 1598.33 1374200
3 1598.33 1371265
3 1598.33 1361216
3 1598.33 1356641
3 1598.33 1355929
3 1598.33 1355505
3 1598.98 1355379
3 1598.98 1355316
3 1598.98 1353999
3 1598.98 1352466
3 1600.07 1351669
3 1600.58 1348273
3 1600.58 1344936
3 1600.58 1343078
3 1601.15 1340649
1 1601.68 1339586
3 1601.68 1339436
3 1602.7 1337763
3 1603.27 1337654
3 1610.01 1452846
3 1610.01 1438414
3 1610.01 1430541
3 1610.01 1413046
3 1610.01 1401863
3 1610.01 1382133
3 1610.01 1381157
3 1610.01 1379227
3 1610.01 1379105
3 1610.77 1377205
3 1610.77 1374583
3 1610.77 1371489
3 1611.36 1370837
3 1611.36 1365495
3 1611.36 1358768
3 1611.36 1356482
3 1611.96 1356058
3 1611.96 1351760
3 1611.96 1350757
3 1611.96 1347054
3 1611.96 1345521
3 1613.54 1343014
3 1613.54 1341433
1 1618.41 1338552
3 1618.92 1336606
3 1624.09 1406649
3 1624.09 1404556
3 1624.09 1402691
3 1624.68 1400667
3 1624.68 1400017
3 1624.68 1399850
3 1625.28 1391906
3 1625.28 1388408
3 1625.28 1387283
3 1625.28 1384455
3 1625.88 1383638
3 1625.88 1381708
3 1625.88 1377642
3 1627.48 1377457
3 1627.48 1373724
3 1628.02 1368642
3 1628.02 1365107
3 1628.56 1363904
3 1628.56 1363099
3 1629.11 1362763
3 1629.11 1358057
3 1629.67 1349937
3 1631.63 1348557
3 1632.14 1347949
3 1632.63 1346331
3 1633.13 1345987
3 1633.13 1344921
3 1634.65 1344259
3 1638.46 1524414
3 1638.46 1479009
3 1638.46 1458536
3 1638.46 1453783
3 1639.09 1446496
3 1639.64 1442359
3 1639.64 1439331
3 1639.64 1425327
3 1639.64 1421573
3 1639.64 1408792
3 1639.64 1390146
3 1639.64 1382988
3 1640.35 1375558
3 1640.35 1373500
3 1640.35 1368693
3 1640.96 1362459
3 1640.96 1361082
3 1640.96 1360877
3 1640.96 1358961
3 1640.96 1357735
3 1641.63 1357563
3 1642.15 1357139
3 1642.67 1354952
3 1642.67 1353659
3 1643.22 1351132
3 1643.22 1351130
3 1643.79 1350474
3 1643.79 1346993
3 1644.35 1346684
3 1644.87 1343822
3 1644.87 1342289
3 1645.43 1340541
3 1648.4 1339975
3 1648.4 1335578
3 1648.4 1334586
3 1649.46 1333981
3 1652.01 1514712
3 1652.01 1507011
3 1652.01 1503881
3 1652.01 1498621
3 1652.01 1497627
3 1652.01 1487081
3 1652.01 1469242
3 1652.01 1451401
3 1652.01 1437461
3 1652.01 1429619
3 1652.83 1420128
3 1652.83 1393932
3 1652.83 1391692
3 1652.83 1384739
3 1652.83 1374033
3 1653.49 1373358
3 1654.01 1368413
3 1654.01 1366266
3 1654.59 1365283
3 1654.59 1360577
3 1655.14 1359452
3 1661.06 1359375
3 1661.06 1357223
3 1661.61 1347825
3 1662.14 1347441
3 1662.14 1346859
3 1662.67 1346316
3 1663.21 1344707
3 1664.21 1344693
3 1664.73 1342687
3 1665.26 1341682
3 1666.28 1442005
3 1666.28 1440284
3 1666.28 1408705
3 1666.28 1407112
3 1666.28 1405138
3 1666.28 1396543
3 1666.28 1393804
3 1666.28 1390919
3 1666.28 1385215
3 1667.01 1379630
3 1667.57 1367884
3 1668.08 1353557
3 1668.59 1352773
3 1668.59 1351922
3 1668.59 1350770
3 1668.59 1348618
3 1669.66 1342285
3 1680.22 1557674
3 1680.22 1552659
3 1680.22 1528934
3 1680.22 1477799
3 1680.22 1469842
3 1680.22 1465940
3 1680.22 1460461
3 1680.94 1459644
3 1680.94 1459571
3 1680.94 1433909
3 1680.94 1418133
3 1680.94 1416643
3 1680.94 1414748
3 1681.63 1414414
3 1681.63 1410809
3 1681.63 1409900
3 1681.63 1406291
3 1681.63 1404298
3 1681.63 1395855
3 1681.63 1381946
3 1681.63 1381322
3 1684.33 1373351
3 1684.33 1367506
3 1684.33 1363883
3 1685.41 1362350
3 1685.41 1359835
3 1685.41 1357379
3 1685.98 1355960
3 1685.98 1347065
3 1685.98 1346128
3 1686.59 1344198
3 1687.1 1342331
3 1687.1 1339494
3 1687.1 1338807
3 1694.46 1478602
3 1694.46 1478468
3 1694.46 1474735
3 1694.46 1470453
3 1694.46 1455828
3 1694.46 1428974
3 1694.46 1420302
3 1695.1 1416910
1 1695.1 1409539
3 1695.1 1394722
3 1695.1 1390096
3 1695.1 1385086
3 1695.1 1376232
3 1695.1 1375318
3 1695.1 1372389
3 1695.78 1366869
3 1695.78 1364525
3 1695.78 1362781
3 1696.34 1361331
3 1696.34 1360479
3 1696.34 1359999
3 1696.34 1356723
3 1696.34 1350956
3 1696.97 1343960
3 1696.97 1342132
3 1696.97 1341270
3 1697.57 1340778
3 1697.57 1333841
3 1698.57 1333024
3 1698.57 1332056
3 1698.57 1329996
3 1700.04 1328955
3 1701.48 1328224
3 1703.81 1326294
3 1703.81 1321984
3 1703.81 1320054
3 1704.36 1319574
3 1704.36 1319301
3 1704.87 1318975
3 1704.87 1318068
3 1704.87 1317768
3 1708.17 1395758
3 1708.17 1388867
3 1708.17 1388800
3 1708.17 1388032
3 1709.25 1380830
3 1709.25 1377709
3 1709.82 1374375
3 1709.82 1374018
3 1710.37 1368430
3 1710.37 1364344
3 1710.37 1364098
3 1710.37 1355516
3 1710.93 1354800
3 1710.93 1354452
3 1710.93 1352264
3 1711.48 1351447
3 1711.48 1350233
3 1711.48 1349295
3 1711.48 1349183
3 1712.07 1344168
3 1712.07 1343599
3 1713.07 1337104
3 1713.07 1335174
3 1715.96 1334223
3 1716.46 1332923
3 1716.46 1332499
3 1716.46 1331976
3 1717.03 1331808
3 1719.84 1329093
3 1719.84 1327163
3 1720.84 1326703
3 1722.29 1519600
3 1722.29 1431735
3 1722.29 1430610
3 1722.29 1417299
3 1722.29 1411757
3 1722.29 1409748
3 1722.95 1408776
3 1722.95 1405005
3 1722.95 1404525
3 1722.95 1404035
3 1722.95 1399329
3 1722.95 1399181
3 1722.95 1395851
3 1723.62 1382525
3 1723.62 1377097
3 1723.62 1367890
3 1724.18 1366915
3 1724.18 1366568
3 1724.18 1364847
3 1724.73 1363277
3 1724.73 1363093
3 1724.73 1362307
3 1725.29 1357601
3 1725.29 1353868
3 1725.29 1349694
3 1725.86 1348938
3 1725.86 1343129
3 1726.87 1339693
3 1728.29 1338363
3 1728.79 1337021
3 1728.79 1336204
3 1729.31 1334052
1 1736.21 1469404
3 1736.21 1463698
3 1736.21 1435228
3 1736.21 1423362
3 1736.21 1415246
3 1736.21 1412218
3 1736.21 1411994
3 1736.88 1411027
1 1736.88 1409512
3 1736.88 1402431
3 1736.88 1402007
3 1736.88 1395259
3 1737.99 1384973
3 1737.99 1378842
3 1737.99 1377001
3 1738.55 1375134
3 1738.55 1374859
3 1738.55 1368095
3 1739.1 1367641
3 1739.1 1367209
3 1739.63 1366785
3 1739.63 1365464
3 1739.63 1362279
3 1740.18 1360306
3 1740.18 1352063
3 1740.18 1345794
3 1740.74 1344773
3 1740.74 1341745
3 1740.74 1341404
3 1741.28 1339048
3 1741.83 1336698
3 1742.79 1334456
3 1743.75 1332964
3 1743.75 1332549
3 1743.75 1332395
3 1744.3 1330397
3 1746.44 1329936
3 1746.94 1329348
3 1746.94 1328914
3 1746.94 1327828
3 1746.94 1327011
3 1747.53 1324460
3 1748.49 1322646
3 1749.43 1322456
3 1750.36 1470302
3 1750.36 1435298
3 1750.36 1430654
3 1750.36 1422382
3 1751 1414626
3 1751 1414564
3 1751 1412772
3 1751 1408300
3 1751 1401787
3 1751 1388710
3 1751 1386780
3 1751 1386347
3 1751 1386016
3 1751.73 1383159
3 1751.73 1383126
3 1751.73 1382501
3 1751.73 1380961
3 1751.73 1374967
3 1752.36 1374467
3 1752.36 1374043
3 1752.36 1373893
3 1752.36 1372360
3 1752.36 1370117
3 1753.49 1368579
3 1753.49 1367403
3 1753.49 1364699
3 1754.05 1363393
3 1754.05 1355198
3 1754.05 1352760
3 1754.05 1350830
3 1754.05 1349352
3 1754.05 1349279
3 1754.71 1347290
3 1754.71 1346355
3 1755.26 1345931
3 1756.28 1341769
3 1757.81 1341261
3 1757.81 1339932
3 1757.81 1339025
3 1764.11 1406903
3 1764.11 1390836
3 1764.11 1389970
3 1764.11 1389546
3 1764.11 1389265
3 1764.11 1376881
3 1764.84 1375348
3 1764.84 1366241
3 1764.84 1366158
3 1765.43 1365372
3 1765.94 1364948
3 1765.94 1359873
3 1766.5 1353629
3 1767.03 1352515
3 1767.03 1350755
3 1767.03 1350363
3 1769.11 1342558
3 1769.63 1336302
3 1769.63 1330488
3 1770.17 1328955
3 1771.19 1323900
3 1773.62 1323081
3 1778.16 1410470
3 1778.16 1408485
3 1778.16 1403311
3 1778.16 1395004
3 1778.16 1394034
3 1778.16 1381613
3 1778.85 1380563
3 1778.85 1379599
3 1778.85 1367411
3 1779.44 1367199
3 1779.44 1365481
3 1779.44 1364218
3 1780.02 1362493
3 1780.53 1356659
3 1780.53 1356499
3 1780.53 1352486
3 1780.53 1352163
3 1780.53 1350382
3 1781.17 1348219
3 1781.17 1346289
3 1781.71 1345947
3 1781.71 1339190
3 1781.71 1336959
3 1782.28 1335763
3 1782.79 1335657
3 1782.79 1335481
3 1783.35 1335471
3 1783.35 1335263
3 1783.9 1334373
3 1783.9 1332443
3 1783.9 1330822
3 1784.47 1330361
3 1784.47 1329614
3 1784.47 1329544
3 1786.01 1328077
3 1788.92 1327684
3 1792.35 1460872
3 1792.35 1432541
3 1792.35 1426635
3 1792.35 1418125
3 1792.35 1415973
3 1792.35 1409098
3 1793.07 1406002
3 1793.07 1405620
3 1793.07 1401046
3 1793.07 1400914
3 1793.69 1390937
3 1793.69 1384990
3 1793.69 1384469
3 1793.69 1381972
3 1793.69 1380490
3 1794.35 1379454
3 1794.35 1372579
3 1794.89 1369551
3 1797.39 1368920
3 1797.39 1365247
3 1797.39 1365094
3 1797.95 1364962
3 1798.98 1363969
3 1800 1361732
3 1800.52 1359580
3 1801.55 1359263
3 1802.08 1354991
3 1806.05 1441663
3 1806.05 1441239
3 1806.05 1424020
3 1806.05 1409320
3 1806.05 1402959
3 1806.05 1399590
3 1806.05 1399226
3 1806.05 1396329
3 1806.05 1385423
3 1806.05 1383493
3 1806.85 1378979
3 1806.85 1377905
3 1806.85 1374964
3 1806.85 1372775
3 1807.48 1365257
3 1807.48 1363724
3 1808.03 1357699
3 1808.03 1356630
3 1808.03 1354803
3 1808.03 1348569
3 1808.03 1343120
3 1808.03 1341222
3 1808.72 1340626
3 1808.72 1340175
3 1808.72 1339978
3 1809.29 1339568
3 1809.29 1339217
3 1809.29 1335699
3 1809.29 1335136
3 1809.88 1331952
3 1809.88 1328808
3 1811.37 1326878
3 1813.29 1326840
3 1813.29 1324501
3 1813.29 1323306
3 1814.79 1322251
3 1814.79 1320321
3 1816.71 1318600
3 1820.08 1506975
3 1820.08 1493025
3 1820.08 1463081
3 1820.08 1447191
3 1820.08 1421472
3 1820.08 1420655
3 1820.08 1418460
3 1820.08 1417857
3 1820.08 1410112
3 1820.08 1407472
3 1820.08 1401766
3 1820.88 1400641
3 1821.41 1370810
3 1821.41 1358750
3 1822.05 1358326
3 1822.05 1356854
3 1822.58 1356491
3 1823.6 1355279
3 1824.11 1354850
3 1824.64 1347789
3 1824.64 1345506
3 1825.18 1345152
3 1825.18 1340346
3 1825.72 1339319
3 1827.66 1336902
3 1828.17 1335997
3 1828.17 1335139
3 1832.01 1333874
3 1834.41 1504850
1 1834.41 1503952
3 1834.41 1492341
3 1834.41 1469188
3 1834.41 1442154
3 1834.41 1440603
3 1834.41 1432408
3 1834.41 1422433
3 1834.41 1407392
3 1834.41 1404957
3 1834.41 1386582
3 1834.41 1370269
3 1835.25 1365619
3 1835.25 1363246
3 1835.25 1362464
3 1835.85 1361094
3 1835.85 1360767
3 1836.4 1356967
3 1836.4 1355752
3 1836.4 1350030
3 1836.4 1349213
3 1837.03 1347283
3 1837.54 1346562
3 1837.54 1345882
3 1838.08 1344677
3 1838.61 1344654
3 1839.12 1343550
3 1840.59 1343389
3 1841.58 1342543
3 1841.58 1342328
3 1842.12 1341994
3 1842.12 1340398
3 1843.15 1338817
3 1844.13 1337102
3 1845.12 1335111
3 1848.11 1488310
3 1848.11 1470819
3 1848.11 1466232
3 1848.11 1464112
3 1848.11 1462182
3 1848.11 1460649
3 1848.11 1459627
3 1848.11 1451754
3 1848.11 1444748
3 1848.11 1432516
3 1848.84 1428420
3 1848.84 1401645
3 1848.84 1395678
3 1848.84 1375429
3 1848.84 1374229
3 1848.84 1365640
3 1848.84 1364280
3 1849.53 1361987
3 1849.53 1360454
3 1849.53 1358868
3 1849.53 1351378
3 1849.53 1345530
3 1850.17 1344405
3 1850.17 1330876
3 1850.17 1327398
3 1862.06 1479639
3 1862.06 1477069
3 1862.06 1451191
3 1862.06 1448146
3 1862.06 1443510
3 1862.06 1432604
3 1862.06 1431929
3 1862.06 1420484
3 1862.79 1419992
3 1862.79 1391894
3 1862.79 1389527
3 1862.79 1384058
3 1862.79 1373426
3 1863.43 1360116
3 1863.43 1357320
3 1863.43 1356195
3 1864.01 1355378
3 1864.51 1355072
3 1865.99 1349651
3 1866.52 1349227
3 1867.03 1346047
3 1867.03 1344401
3 1868.59 1343273
3 1868.59 1342849
3 1868.59 1342569
3 1875.83 1339593
3 1876.36 1450246
3 1876.36 1438023
3 1876.36 1437119
3 1876.36 1435292
3 1876.36 1429298
3 1876.36 1428481
3 1876.36 1427654
3 1876.36 1414978
3 1876.36 1408160
3 1876.36 1406871
3 1877.1 1403950
3 1877.1 1402922
3 1877.1 1399980
3 1877.7 1396172
3 1877.7 1392247
3 1877.7 1390095
3 1877.7 1382282
3 1877.7 1381858
3 1878.33 1375113
3 1878.33 1372283
3 1878.33 1370975
3 1878.88 1370672
3 1879.86 1370562
3 1880.37 1360488
3 1881.39 1354121
3 1881.39 1351863
3 1882.39 1351449
3 1882.39 1349044
3 1882.39 1347114
3 1890.08 1526521
3 1890.08 1508060
3 1890.08 1489570
3 1890.08 1481283
3 1890.08 1478858
3 1890.08 1452319
3 1890.08 1444937
3 1890.08 1441669
3 1890.08 1423266
3 1890.08 1402545
3 1890.08 1392268
3 1890.83 1387562
3 1890.83 1385492
3 1890.83 1380598
3 1891.37 1379698
3 1891.88 1375400
3 1891.88 1375175
3 1893.37 1373413
3 1893.37 1365122
3 1893.37 1355932
3 1893.92 1355282
3 1894.91 1354503
3 1895.42 1352254
3 1899.05 1350530
3 1904.28 1482329
3 1904.28 1451903
3 1904.28 1448875
3 1904.28 1444427
3 1904.28 1436064
3 1904.28 1415591
3 1904.28 1414033
3 1904.28 1411054
3 1904.28 1408902
3 1905.35 1405489
3 1905.35 1391698
3 1905.35 1390210
3 1906.21 1386477
3 1906.21 1379602
3 1906.21 1376624
3 1907.05 1368826
3 1907.05 1368009
3 1908.55 1365766
3 1909.33 1365342
3 1916.81 1358062
3 1916.81 1356564
3 1916.81 1349775
3 1918.43 1493332
3 1918.43 1492207
3 1918.43 1460648
3 1918.43 1447753
3 1918.43 1433888
3 1918.43 1414275
3 1918.43 1410324
3 1918.43 1396511
3 1918.43 1391496
3 1918.43 1388612
3 1919.5 1387174
3 1919.5 1379369
3 1919.5 1373392
3 1919.5 1371240
3 1920.39 1370973
3 1920.39 1368405
3 1920.39 1366630
3 1920.39 1360579
3 1920.39 1359693
3 1920.39 1358568
3 1921.29 1356428
3 1921.29 1353571
3 1921.29 1352754
3 1922.09 1349951
3 1922.09 1349571
3 1923.55 1347087
3 1923.55 1345273
3 1924.3 1336101
3 1924.3 1332559
3 1927.14 1331507
3 1927.14 1330161
3 1927.9 1329577
3 1927.9 1329153
3 1932.3 1398571
3 1932.3 1398147
3 1932.3 1393441
3 1932.3 1392002
3 1933.89 1387704
3 1933.89 1382057
3 1934.67 1377180
3 1934.67 1376790
3 1934.67 1376581
3 1935.5 1375502
3 1935.5 1371262
3 1936.25 1370838
3 1936.98 1362872
3 1936.98 1362717
3 1937.74 1360996
3 1938.48 1360664
3 1938.48 1351575
3 1939.26 1350992
3 1940 1344418
3 1942.09 1343301
3 1942.09 1342572
3 1943.64 1339712
3 1946.57 1518366
3 1946.57 1501207
3 1946.57 1491704
3 1946.57 1483050
3 1946.57 1472098
3 1946.57 1469794
3 1946.57 1466316
3 1947.55 1457795
3 1947.55 1457150
3 1947.55 1450491
3 1948.42 1444839
3 1948.42 1444415
3 1949.21 1435826
1 1949.21 1392134
3 1950.03 1390886
3 1950.03 1386237
3 1950.03 1379447
3 1950.03 1376419
3 1950.87 1375272
3 1950.87 1374600
3 1951.64 1371413
3 1952.39 1370908
3 1952.39 1370618
3 1953.18 1367934
3 1953.18 1366809
3 1953.18 1362820
3 1953.18 1362743
3 1954.05 1361535
3 1954.05 1358584
3 1954.05 1350627
3 1955.61 1350406
3 1957.05 1346188
3 1957.84 1345753
3 1957.84 1344964
3 1960.11 1477207
3 1960.11 1474117
3 1960.11 1436154
3 1960.11 1435577
3 1960.11 1434452
3 1960.11 1428563
3 1960.11 1425085
3 1960.11 1417093
3 1960.11 1414214
3 1960.11 1408967
3 1960.11 1406242
3 1961.22 1397791
3 1961.22 1396271
3 1961.22 1385830
3 1961.22 1385411
3 1961.22 1381320
3 1961.22 1369841
3 1961.22 1368778
3 1962.12 1367536
3 1962.12 1359584
3 1962.12 1359160
3 1962.12 1358212
3 1964.33 1357135
3 1964.33 1357113
3 1964.86 1354021
3 1964.86 1351744
3 1964.86 1350023
3 1964.86 1349206
3 1965.41 1347276
3 1965.41 1345597
3 1965.41 1343416
3 1965.41 1341864
3 1967.87 1341376
3 1967.87 1340163
3 1967.87 1338687
3 1967.87 1337283
3 1969.36 1335941
3 1969.36 1335124
3 1974.11 1479156
3 1974.11 1478248
3 1974.11 1457355
3 1974.11 1442841
3 1974.11 1439813
3 1974.11 1439363
3 1974.79 1436044
3 1974.79 1401040
3 1974.79 1385733
3 1975.33 1384012
3 1975.33 1383037
3 1975.86 1379366
3 1975.86 1377043
3 1976.41 1376619
3 1978.86 1370531
3 1978.86 1370230
3 1978.86 1363700
3 1978.86 1356495
3 1979.43 1350821
3 1979.43 1348985
3 1979.96 1348606
3 1980.46 1347921
3 1980.46 1347659
3 1980.99 1347595
3 1988.43 1460078
3 1988.43 1442235
3 1988.43 1439083
3 1988.43 1426771
3 1988.43 1423293
3 1988.43 1422770
3 1988.43 1418818
3 1988.43 1411677
3 1988.43 1397245
3 1988.43 1392568
3 1989.23 1385064
3 1989.23 1383619
3 1989.23 1378992
3 1989.8 1378131
3 1989.8 1377062
3 1989.8 1377006
3 1989.8 1366100
3 1989.8 1363072
3 1989.8 1354570
3 1989.8 1352937
3 1989.8 1346283
3 1990.51 1339863
3 1990.51 1339576
3 1991.53 1333364
3 1991.53 1332365
3 1999.73 1327808
3 2000.25 1325978
3 2000.25 1324104
3 2001.29 1322992
3 2001.83 1321270
3 2002.33 1578621
1 2002.33 1577946
3 2002.33 1541905
3 2002.33 1541885
3 2002.33 1531025
3 2002.33 1515176
3 2002.33 1486743
3 2002.33 1483735
3 2002.33 1481995
3 2002.33 1467261
3 2002.33 1459315
3 2002.33 1453180
3 2002.33 1443250
3 2002.33 1429300
3 2002.33 1427579
3 2002.33 1426904
3 2002.33 1421053
3 2002.33 1420236
3 2002.33 1417516
3 2002.33 1414404
3 2003.26 1405931
3 2003.26 1400745
3 2003.26 1398000
3 2003.26 1396204
3 2004.34 1395409
3 2004.34 1390967
3 2004.34 1383162
3 2004.34 1382119
3 2004.34 1382037
3 2004.34 1378621
3 2004.34 1376299
3 2004.34 1376293
3 2005.04 1368332
3 2005.04 1362475
3 2005.04 1356642
3 2005.04 1356218
3 2005.64 1353662
3 2006.16 1353210
3 2006.16 1351732
3 2006.74 1349813
3 2006.74 1348077
3 2007.31 1345652
3 2007.31 1344969
3 2007.85 1343844
3 2007.85 1342731
3 2007.85 1339686
3 2008.44 1336938
3 2008.44 1336437
3 2008.98 1336082
3 2009.49 1333333
3 2009.49 1333326
3 2009.49 1332931
3 2010.07 1332853
3 2010.07 1332674
3 2010.07 1332301
3 2011.12 1331484
3 2011.63 1330617
3 2011.63 1330148
3 2011.63 1329855
3 2013.15 1327943
3 2013.15 1326237
3 2013.68 1325265
3 2014.19 1323397
3 2014.19 1322234
3 2014.72 1321364
3 2015.22 1320243
3 2016.22 1466657
3 2016.22 1434097
3 2016.22 1424340
3 2016.22 1422862
3 2016.22 1417339
3 2016.22 1389764
3 2016.22 1389318
3 2016.22 1385170
3 2016.22 1384045
3 2016.22 1381123
3 2016.22 1376589
3 2016.94 1376496
3 2016.94 1374407
3 2016.94 1373714
3 2016.94 1362808
3 2017.56 1358791
3 2018.08 1358717
3 2018.59 1355313
3 2018.59 1355226
3 2019.12 1350907
3 2019.12 1350688
3 2019.12 1348508
3 2019.74 1348469
3 2019.74 1346317
3 2019.74 1346004
3 2020.39 1345124
3 2021.91 1343057
3 2021.91 1342882
3 2023.04 1340027
3 2023.04 1339834
3 2030.26 1474383
3 2030.26 1467508
3 2030.26 1435300
3 2030.26 1427546
3 2030.26 1427449
3 2030.26 1410511
3 2030.26 1408731
3 2030.26 1406048
3 2030.26 1405703
3 2031.34 1404360
3 2031.34 1400627
3 2031.34 1400203
3 2033.03 1388216
3 2033.03 1387411
3 2033.86 1386818
3 2034.7 1385364
3 2035.51 1384834
3 2035.51 1375978
3 2035.51 1372801
3 2035.51 1366842
3 2037.91 1366061
3 2037.91 1364532
3 2038.71 1362310
3 2039.48 1360646
3 2039.48 1360491
3 2040.27 1360067
3 2041.79 1359967
3 2041.79 1355785
3 2041.79 1354252
3 2044.04 1514350
3 2044.04 1513299
3 2044.04 1508472
3 2044.04 1506872
3 2044.04 1503844
3 2044.04 1487265
3 2044.04 1464502
3 2044.04 1463472
3 2044.04 1452740
3 2044.04 1445398
3 2044.04 1440293
3 2045.14 1435033
3 2045.14 1420749
3 2045.14 1418558
3 2045.14 1412581
3 2045.14 1410601
3 2046.09 1410177
3 2046.09 1409167
3 2046.09 1401985
3 2046.09 1398833
3 2047.02 1398142
3 2047.86 1395736
3 2047.86 1394562
3 2047.86 1391586
3 2047.86 1389307
3 2048.8 1388046
3 2049.61 1387774
3 2049.61 1384746
3 2051.92 1380843
3 2052.69 1372961
3 2052.69 1371512
3 2052.69 1367795
3 2052.69 1367001
3 2053.58 1366184
3 2055.15 1365905
3 2055.92 1365610
3 2055.92 1363943
3 2056.75 1363814
3 2058.24 1481329
3 2058.24 1474291
3 2058.24 1433349
3 2058.24 1428852
3 2058.24 1425824
3 2059.16 1424291
3 2059.16 1418593
3 2059.97 1417388
3 2059.97 1415451
3 2060.79 1414634
3 2060.79 1406026
3 2060.79 1404305
3 2060.79 1403180
3 2061.69 1382415
3 2061.69 1380919
3 2061.69 1380608
3 2062.52 1380242
3 2062.52 1374828
3 2063.32 1374143
3 2064.12 1372909
3 2064.12 1371784
3 2064.93 1370665
3 2072.45 1421236
3 2072.45 1412051
3 2072.45 1410121
3 2072.45 1407263
3 2072.45 1403100
3 2073.39 1389798
3 2073.39 1386059
3 2073.39 1384526
3 2074.24 1380293
3 2075 1374180
3 2075.78 1372420
3 2075.78 1371200
3 2075.78 1371097
3 2075.78 1370855
3 2075.78 1366664
3 2076.69 1366606
3 2076.69 1361401
3 2077.49 1360915
3 2078.28 1359483
3 2079.05 1355054
3 2079.05 1352950
3 2082.18 1351676
3 2082.18 1345310
3 2083 1345255
3 2083.77 1340180
3 2083.77 1339363
3 2084.59 1337410
3 2085.37 1336810
3 2085.37 1334880
3 2086.17 1456897
3 2086.17 1451719
3 2086.17 1439203
3 2086.17 1432713
3 2086.17 1422897
3 2086.17 1418191
3 2086.17 1415304
3 2086.17 1413100
3 2087.2 1410281
3 2087.2 1409651
3 2088.01 1401846
3 2088.01 1399916
3 2088.01 1398825
3 2088.01 1376804
3 2088.01 1376041
3 2088.01 1375258
3 2088.95 1372814
3 2088.95 1366820
3 2089.76 1366754
3 2089.76 1363726
3 2089.76 1360997
3 2090.65 1360639
3 2090.65 1357452
3 2092.18 1352437
3 2092.18 1351418
3 2092.18 1351268
3 2092.18 1350844
3 2093.04 1348601
3 2095.24 1346141
3 2095.24 1344936
3 2097.54 1342739
3 2097.54 1341611
3 2097.54 1340496
3 2098.36 1340072
3 2100.57 1508118
3 2100.57 1482707
3 2100.57 1472394
3 2100.57 1463574
3 2100.57 1450802
3 2100.57 1428373
3 2100.57 1408767
3 2100.57 1392165
3 2100.57 1391040
3 2101.6 1389325
3 2101.6 1388888
3 2101.6 1386421
3 2101.6 1382943
3 2101.6 1366448
3 2101.6 1350862
3 2102.52 1347724
3 2103.27 1346848
3 2104.74 1346149
3 2104.74 1345166
3 2105.59 1341254
3 2105.59 1339987
3 2105.59 1339563
3 2105.59 1336548
3 2106.49 1335076
3 2106.49 1333146
3 2107.31 1332722
3 2107.31 1332618
3 2109.57 1331064
3 2110.38 1330099
3 2110.38 1328072
3 2111.91 1327504
3 2111.91 1325878
3 2112.71 1325285
3 2114.17 1489830
3 2114.17 1473064
3 2114.17 1459199
3 2114.17 1446363
3 2114.17 1431931
3 2114.17 1424660
3 2114.17 1405358
3 2114.17 1404233
3 2115.16 1402980
3 2115.16 1398387
3 2115.16 1395086
3 2115.16 1389092
3 2115.16 1385591
3 2116.05 1380748
3 2116.05 1380458
1 2116.05 1375573
3 2116.89 1374508
3 2116.89 1373620
3 2116.89 1370620
3 2116.89 1369775
3 2118.72 1368700
3 2119.24 1367143
3 2119.24 1366979
3 2122.17 1364118
3 2122.67 1362273
3 2125.05 1361770
3 2126.03 1361255
3 2126.03 1359103
3 2126.56 1355825
3 2126.56 1352797
3 2126.56 1352374
3 2127.12 1350279
3 2127.7 1348440
3 2127.7 1348309
3 2128.28 1478879
3 2128.28 1470872
3 2128.28 1458562
3 2128.28 1449853
3 2128.28 1437249
3 2128.28 1431296
3 2128.28 1426281
3 2128.28 1413262
3 2128.28 1407081
3 2128.28 1404438
3 2128.28 1399742
3 2128.28 1397812
3 2129.2 1389759
3 2129.74 1380344
3 2131.3 1371582
3 2131.83 1365751
3 2132.37 1360984
3 2132.37 1357147
3 2132.37 1356330
3 2132.37 1352018
3 2133.18 1350962
3 2135.4 1347492
1 2136.16 1347441
3 2136.91 1343311
3 2137.68 1339005
3 2139.14 1338171
3 2141.45 1337046
3 2142.25 1505256
3 2142.25 1497957
3 2142.25 1492942
3 2142.25 1467631
3 2142.25 1460310
3 2143.23 1458546
3 2143.23 1447684
3 2143.23 1437019
3 2143.23 1426435
3 2143.23 1421433
3 2143.23 1404620
3 2144.24 1404412
3 2144.24 1404311
3 2145.05 1395860
3 2145.05 1393617
3 2145.05 1389077
3 2145.05 1388107
3 2145.05 1385355
3 2145.05 1382327
3 2145.05 1374867
3 2146.06 1373007
3 2146.88 1369068
3 2146.88 1364097
3 2146.88 1363889
3 2146.88 1362064
3 2146.88 1354958
3 2148.56 1353476
3 2149.33 1353246
3 2150.08 1352455
3 2150.08 1348231
3 2150.08 1347261
3 2150.96 1345612
3 2150.96 1344803
3 2152.5 1344379
3 2153.32 1343041
3 2156.34 1455930
3 2156.34 1423055
3 2156.34 1417659
3 2156.34 1412407
3 2156.34 1408091
3 2157.33 1398588
3 2157.33 1397894
3 2157.33 1390798
3 2157.33 1380984
3 2157.33 1376419
3 2158.24 1375919
3 2158.24 1372264
3 2159.03 1368786
3 2159.03 1361635
3 2159.03 1358789
3 2159.03 1347685
3 2159.9 1338447
3 2162.05 1338230
3 2162.05 1337719
3 2162.85 1337667
3 2162.85 1337243
3 2162.85 1336731
3 2162.85 1334066
3 2163.68 1333109
3 2164.43 1331787
3 2165.15 1331429
3 2165.15 1329905
3 2165.15 1327125
3 2167.39 1326312
3 2170.35 1498866
3 2170.35 1484099
3 2170.35 1479536
3 2170.35 1472049
3 2170.35 1467527
3 2170.35 1416567
3 2170.35 1405930
3 2170.35 1404186
3 2170.35 1403360
3 2171.38 1396485
3 2171.38 1387825
3 2171.38 1374342
3 2171.38 1370609
3 2171.38 1369456
3 2172.26 1368888
3 2173 1354854
3 2173.76 1351609
3 2173.76 1350727
3 2173.76 1350259
3 2173.76 1347751
3 2173.76 1347231
3 2174.62 1346030
3 2178.08 1341911
3 2178.82 1340838
3 2178.82 1340286
3 2179.56 1340239
3 2179.56 1339740
3 2179.56 1337528
3 2179.56 1337101
3 2180.37 1337070
3 2181.95 1335598
3 2184.16 1476086
3 2184.16 1469340
3 2184.16 1460158
3 2184.16 1458228
3 2184.16 1454696
3 2185.13 1441048
3 2185.13 1431436
3 2185.13 1428731
3 2185.13 1422847
3 2186 1416621
3 2186 1416326
3 2186 1396863
3 2186 1395305
3 2186 1393385
3 2186 1384286
3 2186 1380814
3 2186.98 1380037
3 2186.98 1374633
3 2186.98 1361591
3 2186.98 1346798
3 2198.57 1460791
3 2198.57 1459230
3 2198.57 1437295
3 2198.57 1426454
3 2198.57 1425220
3 2198.57 1410066
3 2198.57 1405752
3 2198.57 1401590
3 2198.57 1398449
3 2198.57 1393369
3 2198.57 1391753
3 2200.15 1390652
3 2200.15 1385045
3 2200.82 1380973
3 2200.82 1376451
3 2200.82 1369690
3 2200.82 1367887
3 2200.82 1359298
3 2201.58 1357801
3 2202.16 1357492
3 2202.7 1357027
3 2203.24 1354531
3 2203.24 1354083
3 2203.24 1353659
3 2204.39 1348152
3 2204.39 1347685
3 2204.94 1345445
3 2205.49 1340739
3 2207.03 1338790
3 2207.78 1335312
3 2210.04 1335201
3 2212.1 1517784
3 2212.1 1453617
3 2212.1 1450465
3 2212.1 1450407
3 2212.1 1436028
1 2212.1 1435071
3 2212.1 1424670
3 2212.1 1408473
3 2212.1 1401776
3 2212.1 1397053
3 2213.16 1391292
3 2213.16 1387930
3 2213.16 1386492
3 2213.16 1385655
3 2213.16 1374749
3 2213.16 1372701
3 2213.16 1371721
3 2213.16 1364794
3 2213.16 1364271
3 2214.6 1363843
3 2214.6 1359060
3 2215.2 1358767
3 2215.2 1356908
3 2216.29 1348713
3 2216.29 1346814
3 2216.29 1346390
3 2217.45 1343622
3 2217.45 1334483
3 2218.09 1332331
3 2218.6 1331204
3 2218.6 1330997
3 2220.61 1329679
3 2221.14 1328888
3 2221.74 1328557
3 2221.74 1328133
3 2221.74 1324996
3 2222.51 1324194
3 2222.51 1321358
3 2223.06 1320541
3 2226.16 1470452
3 2226.16 1454518
3 2226.16 1446171
3 2226.16 1443041
3 2226.16 1439889
3 2226.16 1417342
3 2226.16 1395171
3 2226.16 1387019
3 2227.14 1376448
3 2227.14 1371742
3 2227.82 1369558
3 2227.82 1360608
3 2227.82 1354513
3 2227.82 1354404
3 2228.45 1351622
3 2228.45 1350435
3 2229.02 1343715
3 2229.02 1343000
3 2229.58 1340568
3 2229.58 1339751
3 2230.14 1339606
3 2230.14 1339208
3 2230.74 1337721
3 2231.28 1337666
3 2231.28 1335569
3 2240.24 1454025
3 2240.24 1443280
3 2240.24 1442258
3 2240.24 1440725
3 2240.24 1418316
3 2240.24 1378151
3 2240.24 1376521
3 2240.24 1364775
3 2240.24 1363085
3 2241.03 1362918
3 2241.03 1360287
3 2241.03 1359162
3 2241.03 1357107
3 2241.03 1356186
3 2241.68 1351286
3 2241.68 1350357
3 2242.4 1349311
3 2242.4 1347621
3 2242.95 1347308
3 2243.46 1346988
3 2243.46 1345703
3 2243.46 1341970
3 2244.03 1341711
3 2244.03 1340040
3 2244.03 1339994
3 2245.1 1337463
3 2245.62 1335617
3 2246.6 1334537
3 2246.6 1333165
3 2246.6 1331645
3 2252.94 1328617
3 2254.38 1576322
3 2254.38 1557431
3 2254.38 1555279
3 2254.38 1546021
3 2254.38 1515567
3 2254.38 1509303
3 2254.38 1444434
3 2254.38 1437130
3 2254.38 1417002
3 2254.38 1415072
3 2254.38 1402824
3 2254.38 1393202
3 2255.23 1384660
3 2255.23 1384181
3 2255.23 1376495
3 2255.23 1373886
3 2256.3 1368027
3 2256.3 1367969
3 2256.92 1365807
3 2256.92 1363671
3 2257.5 1361950
3 2262.37 1360736
3 2266.83 1354993
3 2267.91 1354968
3 2267.91 1353609
3 2268.47 1489927
3 2268.47 1489503
3 2268.47 1483853
3 2268.47 1475014
3 2268.47 1474107
3 2268.47 1472574
3 2268.47 1455041
3 2268.47 1450738
3 2268.47 1437277
3 2268.47 1417313
3 2268.47 1413770
3 2269.3 1412521
3 2269.3 1405646
3 2269.3 1397689
3 2269.3 1385301
3 2269.3 1381999
3 2269.3 1379201
3 2269.3 1371150
3 2269.3 1368778
3 2270.02 1367724
3 2270.02 1366311
3 2270.02 1362839
3 2270.02 1346854
3 2270.64 1346196
3 2271.15 1344005
3 2271.15 1342253
3 2271.15 1337496
3 2271.15 1333472
3 2271.76 1332607
3 2271.76 1330677
3 2272.31 1328956
3 2274.78 1325804
3 2274.78 1325078
3 2274.78 1324341
3 2274.78 1323216
3 2276.95 1321957
3 2276.95 1319805
3 2280.66 1319064
3 2280.66 1319002
3 2281.73 1318874
3 2282.26 1517545
3 2282.26 1491826
3 2282.26 1478253
3 2282.26 1475225
3 2282.26 1466401
3 2282.26 1453179
3 2282.26 1450205
3 2283.08 1448484
3 2283.08 1435770
3 2283.08 1420515
3 2283.08 1411011
3 2283.08 1409676
3 2283.08 1385065
3 2283.08 1383129
3 2283.08 1376960
3 2283.8 1375835
3 2284.33 1374248
3 2284.33 1373578
3 2284.89 1371612
3 2285.41 1368601
3 2285.41 1364996
3 2285.97 1364245
3 2287.01 1356250
3 2287.01 1353247
3 2287.01 1350112
3 2287.01 1349287
3 2287.67 1348944
3 2290.82 1347841
3 2291.36 1346203
3 2291.9 1344281
3 2292.45 1342619
3 2292.45 1339378
3 2292.45 1338447
3 2293.05 1337594
3 2293.05 1333923
3 2293.05 1333510
3 2293.05 1332693
3 2293.05 1328135
3 2294.69 1326938
3 2294.69 1324118
3 2295.27 1323694
3 2296.3 1521788
3 2296.3 1505475
3 2296.3 1472360
3 2296.3 1452897
1 2296.3 1417411
3 2296.97 1406479
3 2296.97 1403614
3 2296.97 1377212
3 2296.97 1375282
3 2296.97 1369596
3 2296.97 1368471
3 2296.97 1366071
3 2297.72 1363919
3 2297.72 1361563
3 2298.29 1360087
3 2298.29 1358939
3 2298.29 1354649
3 2298.88 1353840
3 2299.44 1352148
3 2300.51 1350916
3 2301.03 1345613
3 2301.6 1344080
3 2302.13 1342549
3 2302.65 1342299
3 2303.18 1342190
3 2303.71 1341200
3 2304.78 1335262
3 2306.29 1333838
3 2310.37 1471011
3 2310.37 1445685
3 2310.37 1440467
3 2310.37 1439632
3 2310.37 1423464
3 2310.37 1406517
3 2310.37 1391822
3 2310.37 1384339
3 2310.37 1382427
3 2310.37 1381086
3 2310.37 1377899
3 2310.37 1375747
3 2310.37 1368372
3 2311.27 1367843
3 2311.27 1364255
3 2311.27 1361756
3 2311.86 1360967
3 2311.86 1359515
3 2311.86 1359160
3 2311.86 1356847
3 2311.86 1346580
3 2311.86 1345159
3 2311.86 1343229
3 2312.56 1341803
3 2312.56 1341750
3 2313.14 1340625
3 2313.14 1340571
3 2315.16 1336196
3 2317.74 1333114
3 2317.74 1332303
3 2318.29 1331486
3 2318.8 1329556
3 2324.2 1474593
3 2324.2 1465290
3 2324.2 1463334
3 2324.2 1455515
3 2324.2 1450701
3 2324.2 1439163
3 2324.2 1438739
3 2324.2 1436587
3 2324.2 1432016
3 2324.99 1421569
3 2324.99 1420312
3 2324.99 1415133
3 2324.99 1414466
3 2325.61 1412745
3 2325.61 1400031
3 2325.61 1395733
3 2326.2 1392705
3 2326.2 1372149
3 2326.76 1366081
3 2326.76 1364606
3 2326.76 1362360
3 2327.38 1358443
3 2327.38 1357345
3 2328.92 1356399
3 2329.44 1355274
3 2335.7 1350896
3 2335.7 1350447
3 2335.7 1350141
3 2335.7 1346149
3 2336.37 1344834
3 2336.37 1344738
3 2336.37 1343524
3 2336.37 1343452
3 2336.99 1338562
3 2336.99 1332026
3 2337.59 1331762
3 2338.12 1464267
3 2338.12 1452909
3 2338.12 1450053
3 2338.12 1429756
3 2338.12 1423915
3 2338.12 1411945
3 2338.12 1402863
3 2338.12 1401683
3 2338.87 1389782
3 2338.87 1386380
3 2338.87 1382652
3 2338.87 1367823
3 2338.87 1360139
3 2339.52 1359723
3 2340.06 1359307
3 2340.06 1357377
3 2340.06 1355396
3 2340.65 1351940
3 2341.18 1350219
3 2341.18 1347774
3 2342.23 1344082
3 2342.23 1334754
3 2348.91 1334613
3 2348.91 1332683
3 2352.05 1438134
3 2352.05 1428259
3 2352.05 1426329
3 2352.05 1421623
3 2352.05 1420498
3 2353.92 1416810
3 2353.92 1414130
3 2353.92 1404377
3 2355.5 1394511
3 2356.03 1392790
1 2359.49 1391485
3 2359.49 1390502
3 2360.05 1388508
3 2360.05 1387396
3 2364.06 1387250
3 2364.66 1380981
3 2364.66 1375960
3 2364.66 1373385
3 2364.66 1368809
3 2365.29 1367142
3 2365.29 1365212
3 2365.87 1357684
3 2365.87 1352669
3 2366.53 1448932
3 2366.53 1434500
3 2366.53 1413690
3 2366.53 1382191
3 2366.53 1379184
3 2366.53 1378487
3 2367.34 1373684
3 2367.34 1371767
3 2367.34 1368986
3 2367.34 1368073
3 2367.34 1366540
3 2367.34 1364453
3 2367.34 1362760
3 2367.34 1361028
3 2368.12 1359962
3 2368.12 1356621
3 2368.12 1356197
3 2368.75 1352830
3 2368.75 1350900
3 2368.75 1347146
3 2369.33 1344118
3 2369.33 1341510
3 2371.82 1341456
3 2371.82 1340407
3 2380.28 1510903
3 2380.28 1443565
3 2380.28 1438550
3 2380.28 1421129
3 2380.28 1409901
3 2380.28 1405980
3 2380.28 1392196
3 2380.28 1377009
3 2380.28 1375196
3 2380.28 1374851
3 2381.12 1369179
3 2381.12 1356358
3 2381.12 1350967
3 2382.18 1343010
3 2382.69 1342586
3 2385.62 1340554
3 2385.62 1335539
3 2387.09 1334792
3 2387.09 1325247
3 2387.69 1325047
3 2387.69 1323922
3 2388.25 1323893
3 2388.76 1323686
3 2391.72 1322104
3 2392.23 1321680
3 2394.23 1522046
3 2394.23 1499293
3 2394.23 1466233
3 2394.23 1412613
3 2394.23 1410461
3 2394.23 1397176
3 2394.23 1394811
3 2394.23 1386222
3 2394.23 1379285
3 2395.04 1376382
3 2395.04 1374815
3 2395.04 1373580
3 2395.66 1367851
3 2395.66 1367214
3 2395.66 1366397
3 2395.66 1364452
3 2395.66 1363387
3 2396.37 1357449
3 2396.92 1355825
3 2397.46 1355628
3 2397.97 1355519
3 2397.97 1353986
3 2398.53 1353779
3 2399.05 1342943
3 2399.05 1342519
3 2399.05 1341922
3 2399.05 1340601
3 2399.05 1335296
3 2399.05 1333951
3 2399.7 1329838
3 2399.7 1328529
3 2400.22 1326444
3 2400.73 1325693
3 2401.25 1324547
3 2407.37 1324084
3 2408.3 1496994
3 2408.3 1488643
3 2408.3 1484699
3 2408.3 1482230
3 2408.3 1467496
3 2408.3 1466441
3 2408.3 1452491
3 2408.3 1450958
3 2408.3 1449028
1 2409.13 1447953
3 2409.13 1441959
3 2409.13 1440786
3 2409.73 1432197
3 2409.73 1413704
3 2409.73 1411461
3 2409.73 1410107
3 2410.36 1403232
3 2410.36 1388750
3 2410.36 1382756
3 2410.36 1381939
3 2410.94 1378806
3 2410.94 1366320
3 2411.55 1365896
3 2411.55 1364613
3 2411.55 1364324
3 2411.55 1360460
3 2415.12 1359980
3 2415.65 1359689
3 2416.19 1357975
3 2416.74 1357567
3 2417.3 1357551
3 2417.3 1355648
3 2417.86 1354784
3 2418.39 1353761
3 2418.92 1353013
3 2418.92 1347019
3 2418.92 1346595
3 2419.56 1346231
3 2419.56 1344743
3 2420.17 1344079
3 2420.17 1342594
3 2422.32 1511945
3 2422.32 1497320
3 2422.32 1468196
3 2422.32 1442006
3 2422.32 1424371
3 2422.32 1418118
3 2422.32 1406681
3 2422.32 1395130
3 2423.55 1389892
3 2423.55 1385385
3 2423.55 1383641
3 2423.55 1380623
3 2423.55 1374265
3 2424.2 1366070
3 2424.2 1365696
3 2424.2 1361772
3 2424.79 1357204
3 2424.79 1356079
3 2425.33 1353141
3 2425.33 1350329
3 2425.33 1343605
3 2425.33 1341675
3 2425.33 1339345
3 2425.95 1337624
3 2425.95 1334000
3 2425.95 1333891
3 2425.95 1332646
3 2426.55 1330989
3 2426.55 1329598
3 2427.12 1328144
3 2428.16 1328019
3 2433.83 1324655
3 2433.83 1322810
3 2433.83 1321993
3 2434.41 1319207
3 2434.91 1315450
3 2435.43 1313997
3 2435.43 1312935
3 2435.43 1310771
3 2435.98 1310521
3 2436.5 1470895
3 2436.5 1450312
3 2436.5 1440849
3 2436.5 1435928
3 2436.5 1433974
3 2436.5 1410209
3 2436.5 1409392
3 2436.5 1394960
3 2436.5 1389715
3 2436.5 1387236
3 2436.5 1386427
3 2437.34 1382164
3 2437.34 1381090
3 2437.89 1380695
3 2437.89 1379955
3 2437.89 1376617
3 2437.89 1375274
3 2437.89 1363465
3 2437.89 1361907
3 2438.55 1354012
3 2438.55 1353195
3 2438.55 1353068
3 2438.55 1352570
3 2438.55 1351777
3 2439.19 1351353
3 2440.66 1347085
3 2441.67 1346210
3 2442.18 1345842
3 2442.18 1345400
3 2446.14 1344957
3 2446.64 1344478
3 2450.18 1457232
3 2450.18 1451820
3 2450.18 1449890
3 2450.18 1435225
3 2450.18 1413172
3 2450.18 1399288
3 2450.18 1389035
3 2450.18 1384799
3 2450.97 1382789
3 2450.97 1380131
3 2450.97 1378916
3 2451.56 1378307
3 2451.56 1376986
3 2451.56 1376822
3 2451.56 1372116
3 2452.17 1370822
3 2452.17 1370395
3 2452.7 1370236
3 2453.2 1361889
3 2453.2 1361395
3 2453.75 1357480
3 2453.75 1356663
3 2454.32 1356035
3 2454.84 1355899
3 2454.84 1352229
3 2454.84 1351710
3 2455.41 1348838
3 2455.41 1334888
3 2455.41 1334601
3 2455.98 1333299
3 2455.98 1333289
3 2456.52 1331803
3 2457.03 1331766
3 2457.03 1331756
3 2459.05 1330986
3 2464.24 1477188
3 2464.24 1462385
3 2464.24 1456502
3 2464.24 1452825
3 2464.24 1450673
3 2464.24 1442161
3 2464.24 1432963
3 2464.24 1417497
3 2464.24 1416950
3 2465.05 1410797
3 2465.05 1405222
3 2465.05 1403749
3 2465.05 1403074
3 2465.05 1396812
3 2465.05 1371259
3 2465.69 1363026
3 2465.69 1362238
3 2465.69 1361421
3 2465.69 1349081
3 2466.83 1348119
3 2466.83 1346794
3 2469.34 1343463
3 2469.34 1341995
3 2469.34 1341105
3 2469.9 1341013
3 2469.9 1338643
3 2469.9 1338554
3 2469.9 1337826
3 2469.9 1337004
3 2470.53 1335963
3 2470.53 1335539
3 2478.3 1485888
3 2478.3 1450884
3 2478.3 1431168
3 2478.3 1429016
3 2478.3 1410812
3 2478.3 1409684
3 2478.3 1405121
3 2478.3 1402405
3 2478.3 1398796
3 2478.3 1398190
3 2478.3 1397766
3 2479.14 1381049
3 2479.14 1373934
3 2479.14 1366671
3 2479.14 1365977
3 2479.14 1356957
3 2479.77 1353995
3 2479.77 1353766
3 2480.31 1346942
3 2480.31 1346021
3 2480.86 1345012
3 2481.37 1343433
3 2481.9 1341323
3 2481.9 1336765
3 2482.91 1333687
3 2483.42 1333353
3 2483.42 1332545
3 2483.95 1328295
3 2492.77 1516710
3 2492.77 1505155
3 2492.77 1479928
3 2492.77 1477998
3 2492.77 1476277
3 2492.77 1472544
3 2492.77 1433372
3 2492.77 1416211
3 2492.77 1387318
3 2492.77 1376412
3 2492.77 1375426
3 2493.9 1369974
3 2493.9 1366387
3 2493.9 1359512
3 2493.9 1354362
3 2493.9 1342950
3 2493.9 1340758
3 2495.58 1340206
3 2495.58 1336460
3 2496.4 1333432
3 2506.4 1497715
3 2506.4 1473761
3 2506.4 1472893
3 2506.4 1471768
3 2506.4 1458466
3 2506.4 1452581
3 2506.4 1448926
3 2506.4 1434983
3 2506.4 1434494
3 2506.4 1430772
3 2506.4 1415597
3 2506.4 1407980
3 2506.4 1406131
3 2507.6 1406074
3 2507.6 1398595
3 2507.6 1398412
3 2507.6 1397753
3 2507.6 1397727
3 2507.6 1396006
3 2507.6 1392378
3 2507.6 1378643
3 2508.6 1377110
3 2508.6 1375180
3 2508.6 1373417
3 2508.6 1370903
3 2509.52 1367855
3 2509.52 1367092
3 2509.52 1364142
3 2509.52 1363614
3 2510.4 1363190
3 2510.4 1359659
3 2510.4 1358842
3 2511.23 1357815
3 2511.23 1356278
3 2511.23 1349226
3 2511.23 1340880
3 2512.09 1335423
3 2515.69 1331141
3 2516.46 1330803
3 2517.2 1330077
3 2517.2 1329853
3 2518.71 1326599
3 2520.29 1473913
3 2520.29 1468898
3 2520.29 1423283
3 2520.29 1412782
3 2520.29 1408076
3 2521.24 1401532
3 2521.24 1397233
3 2521.24 1395093
3 2521.24 1390137
3 2521.24 1389818
3 2522.13 1388611
3 2522.94 1387894
3 2522.94 1379175
3 2522.94 1372651
3 2522.94 1366047
3 2522.94 1364202
3 2522.94 1363385
3 2522.94 1362667
3 2534.15 1468811
3 2534.15 1466960
3 2534.15 1445367
3 2534.15 1442004
3 2534.15 1431882
3 2534.15 1429952
3 2535.18 1429792
3 2535.18 1427194
3 2535.18 1426818
3 2535.18 1417261
3 2536.09 1415627
3 2536.09 1407670
3 2536.09 1406675
3 2536.95 1400629
3 2536.95 1400364
3 2537.78 1398805
3 2537.78 1398764
3 2537.78 1393469
3 2537.78 1390732
3 2537.78 1384880
3 2537.78 1377126
3 2538.51 1374974
3 2539.04 1368034
3 2539.04 1362370
3 2540.12 1361396
3 2540.63 1359269
3 2541.18 1357202
3 2541.18 1357040
3 2541.18 1355370
3 2541.18 1351892
3 2541.18 1345547
3 2541.18 1342436
3 2541.83 1342012
3 2542.35 1341192
3 2545.73 1336069
3 2546.26 1333031
3 2546.26 1331190
3 2546.8 1330978
3 2548.31 1437663
3 2548.31 1435400
3 2548.31 1435238
3 2548.31 1434370
3 2548.31 1423910
3 2548.31 1418895
3 2548.31 1418281
3 2548.31 1416560
3 2548.31 1412571
3 2548.31 1409680
3 2548.31 1397672
3 2549.19 1394081
3 2549.19 1378836
3 2549.76 1373871
3 2549.76 1373367
3 2549.76 1370617
3 2549.76 1366237
3 2550.38 1363845
3 2550.38 1359279
3 2550.95 1358259
3 2551.95 1357928
3 2551.95 1357837
3 2552.5 1356171
3 2552.5 1354097
3 2553.07 1351592
3 2553.6 1351063
3 2554.14 1349938
3 2554.14 1346233
3 2554.14 1343677
3 2554.14 1340851
3 2555.73 1340381
3 2556.34 1334095
3 2556.34 1333770
3 2556.97 1332624
3 2556.97 1330691
3 2562.62 1531523
3 2562.62 1531306
3 2562.62 1496870
3 2562.62 1493137
3 2562.62 1492313
3 2562.62 1490899
3 2562.62 1488101
3 2562.62 1479277
3 2562.62 1476065
3 2562.62 1450838
3 2562.62 1440779
3 2562.62 1440169
3 2562.62 1438849
3 2562.62 1437373
3 2562.62 1434124
3 2563.7 1411685
3 2563.7 1407639
3 2563.7 1393207
3 2563.7 1390948
3 2563.7 1389823
3 2563.7 1385796
3 2563.7 1384693
3 2564.65 1382093
3 2564.65 1380217
3 2564.65 1379498
3 2564.65 1377965
3 2565.55 1370952
3 2565.55 1366216
3 2565.55 1358964
3 2565.55 1356812
3 2567.13 1353825
3 2567.13 1352605
3 2567.13 1350675
3 2567.13 1350329
3 2567.13 1348492
3 2567.13 1346612
3 2567.13 1345833
3 2568.12 1338827
3 2569.58 1337924
3 2569.58 1337135
3 2573.34 1336902
3 2574.13 1334052
3 2574.95 1332772
3 2574.95 1332519
3 2576.46 1480104
3 2576.46 1451201
3 2576.46 1438690
3 2576.46 1429866
3 2576.46 1423872
3 2576.46 1406717
3 2577.42 1404468
3 2577.42 1403651
3 2577.42 1395290
3 2578.26 1393182
3 2578.26 1392124
3 2578.26 1390154
3 2578.26 1371406
3 2578.26 1370994
3 2578.26 1369238
3 2578.26 1367563
3 2579.23 1358479
3 2579.23 1356946
3 2579.23 1355889
3 2579.23 1349230
3 2580.1 1346648
3 2580.1 1341766
3 2580.1 1337771
3 2580.1 1336714
3 2580.96 1336454
3 2580.96 1334722
3 2580.96 1334211
3 2590.01 1452138
3 2590.01 1441085
3 2590.01 1431466
3 2590.01 1405369
3 2590.01 1389615
3 2590.01 1387894
3 2590.01 1387282
3 2590.01 1385352
3 2591.03 1383648
3 2591.03 1365828
3 2591.03 1361032
3 2591.03 1359499
3 2591.91 1358994
3 2592.7 1355603
3 2593.47 1354810
3 2593.47 1352234
3 2593.47 1349206
3 2593.47 1342025
3 2594.34 1341401
3 2594.34 1339224
3 2595.14 1338292
3 2595.14 1337691
3 2602.61 1336512
3 2602.61 1336405
3 2602.61 1336244
3 2604.17 1488798
3 2604.17 1483092
3 2604.17 1481162
3 2604.17 1458968
3 2604.17 1450702
3 2604.17 1446148
3 2604.17 1439345
3 2604.17 1427371
3 2605.14 1417532
3 2605.14 1406094
3 2605.14 1400980
3 2605.14 1400625
3 2606.01 1397597
3 2606.01 1396274
3 2606.81 1395149
3 2606.81 1391671
3 2606.81 1386628
3 2606.81 1379479
3 2606.81 1373448
3 2607.73 1371518
3 2608.49 1365293
3 2609.25 1363713
3 2610 1360797
3 2610 1358215
3 2611.5 1358068
3 2611.5 1354436
3 2612.28 1354183
3 2613.04 1353645
3 2613.83 1351415
3 2613.83 1351071
3 2614.61 1349721
3 2615.43 1348160
3 2615.43 1346316
3 2615.43 1344170
3 2615.43 1343231
3 2617.08 1339240
3 2617.87 1337824
3 2617.87 1337632
3 2618.65 1443332
3 2618.65 1434917
3 2618.65 1424077
3 2618.65 1420720
3 2618.65 1419595
3 2618.65 1418083
3 2618.65 1416006
3 2619.63 1414285
3 2619.63 1411257
3 2620.44 1406610
3 2620.44 1397019
3 2621.25 1395814
3 2621.25 1392713
3 2621.25 1385236
3 2622.1 1384812
3 2622.1 1382516
3 2622.1 1378818
3 2623.63 1378695
3 2624.39 1377928
3 2624.39 1373222
3 2624.39 1370290
3 2625.91 1368978
3 2625.91 1368882
3 2632.62 1538287
3 2632.62 1536754
3 2632.62 1528130
3 2632.62 1519520
1 2632.62 1513633
1 2632.62 1496335
3 2632.62 1478022
3 2632.62 1470724
3 2633.62 1470268
3 2633.62 1469143
3 2633.62 1467422
3 2633.62 1463374
3 2633.62 1444457
3 2633.62 1443879
3 2633.62 1430592
3 2634.59 1424592
3 2634.59 1418303
3 2634.59 1416593
3 2634.59 1416169
3 2635.47 1412626
3 2635.47 1410184
3 2635.47 1407065
3 2635.47 1403094
3 2636.31 1400066
3 2636.31 1398941
1 2636.31 1398890
3 2636.31 1385140
3 2636.31 1384716
3 2637.2 1379103
3 2637.97 1376040
3 2637.97 1376005
3 2638.75 1374075
3 2638.75 1368369
3 2638.75 1366398
3 2639.58 1364758
3 2639.58 1364755
3 2640.38 1364331
3 2640.38 1352060
3 2641.17 1349921
3 2641.89 1349032
3 2644.94 1348951
3 2647.65 1474701
3 2647.65 1472980
3 2647.65 1460139
3 2647.65 1452470
3 2647.65 1444915
3 2647.65 1443849
3 2647.65 1443646
3 2647.65 1441999
3 2647.65 1416280
3 2647.65 1403402
3 2649.43 1397313
3 2649.43 1393855
3 2649.43 1390377
3 2650.26 1385995
3 2650.26 1383839
3 2650.26 1382306
3 2651.08 1379486
3 2651.82 1379062
3 2651.82 1376995
3 2652.59 1374843
3 2654.75 1363598
3 2654.75 1362468
3 2655.53 1361136
3 2656.97 1360201
3 2656.97 1359273
3 2656.97 1359017
3 2656.97 1357718
3 2656.97 1357712
3 2657.96 1356179
3 2659.42 1356070
3 2659.42 1355362
3 2660.19 1456358
3 2660.19 1453330
3 2660.19 1438156
3 2660.19 1429615
3 2661.04 1427463
3 2661.04 1425460
3 2661.04 1424937
3 2661.04 1423666
3 2661.04 1410147
3 2661.04 1393444
3 2661.04 1385202
3 2662.67 1383766
3 2662.67 1380159
3 2663.43 1373048
3 2663.43 1371328
3 2663.43 1366966
3 2663.43 1365036
3 2663.43 1361202
3 2663.43 1355496
3 2665.76 1353688
3 2665.76 1344630
3 2666.55 1344380
3 2666.55 1340063
3 2667.32 1337084
3 2667.32 1336369
3 2674.4 1514728
3 2674.4 1490638
3 2674.4 1489140
3 2674.4 1470626
3 2674.4 1469677
3 2674.4 1450468
3 2674.4 1437856
3 2674.4 1417861
3 2674.4 1415140
3 2675.43 1413735
3 2675.43 1410257
3 2676.22 1407330
3 2676.22 1403686
3 2676.22 1399503
3 2676.22 1398741
3 2676.22 1397612
3 2677.08 1393721
3 2677.83 1393704
3 2677.83 1391951
3 2677.83 1387185
3 2678.61 1385950
3 2678.61 1384417
3 2678.61 1382344
3 2678.61 1381804
3 2679.44 1378046
3 2680.89 1372318
3 2681.61 1369290
3 2682.36 1367965
3 2682.36 1367071
3 2682.36 1365538
3 2682.36 1363667
3 2684.6 1361233
3 2684.6 1360176
3 2684.6 1359359
3 2684.6 1358800
3 2686.24 1357826
3 2688.43 1439279
3 2688.43 1431542
3 2688.43 1416603
3 2688.43 1408980
3 2688.43 1408163
3 2688.43 1405686
3 2689.39 1398811
3 2689.39 1390236
3 2689.39 1389561
3 2689.39 1385267
3 2690.23 1381750
3 2690.23 1381356
3 2691.01 1381062
3 2691.01 1377584
3 2691.01 1374348
3 2691.84 1374103
3 2691.84 1363244
3 2691.84 1362402
3 2691.84 1355875
3 2691.84 1354933
3 2691.84 1352564
3 2692.74 1351604
3 2693.5 1349747
3 2693.5 1346194
3 2693.5 1345770
3 2693.5 1344237
3 2693.5 1339222
3 2696.42 1339190
3 2696.42 1336049
3 2696.42 1334516
3 2700.74 1333883
3 2700.74 1330758
3 2701.5 1330528
3 2701.5 1329914
3 2701.5 1329097
3 2702.3 1427501
3 2702.3 1423324
3 2702.3 1405505
3 2702.3 1403395
3 2702.3 1391895
3 2702.3 1390371
3 2703.24 1389214
3 2703.24 1384792
3 2703.24 1383819
3 2703.24 1375527
3 2703.24 1368538
3 2703.24 1368114
3 2704.12 1365972
3 2704.12 1364676
3 2704.12 1363820
3 2704.95 1352734
3 2704.95 1350720
3 2705.72 1344326
3 2707.18 1341445
3 2707.18 1340628
3 2707.18 1339876
3 2708.01 1337243
3 2708.01 1336975
3 2708.77 1336253
3 2708.77 1335582
3 2709.53 1333742
3 2709.53 1333645
3 2709.53 1333366
3 2711.7 1331960
3 2716.05 1395717
3 2716.05 1393565
3 2716.05 1389865
3 2716.88 1376517
3 2716.88 1374279
3 2716.88 1366406
3 2716.88 1359461
3 2716.88 1354463
3 2716.88 1349343
3 2717.77 1341975
3 2717.77 1339324
3 2717.77 1337081
3 2718.52 1336753
3 2718.52 1335706
3 2718.52 1334611
3 2719.28 1334237
3 2719.28 1333625
3 2720.03 1332356
3 2720.03 1331932
3 2720.03 1331208
3 2720.81 1331023
3 2720.81 1329647
3 2720.81 1328774
3 2720.81 1327272
3 2720.81 1325551
3 2721.64 1324289
3 2721.64 1323120
3 2723.07 1322696
3 2730.05 1467567
3 2730.05 1457735
3 2730.05 1451706
3 2730.05 1448447
3 2730.05 1447428
3 2730.05 1434752
3 2730.05 1424383
3 2730.05 1420560
3 2730.05 1413685
3 2730.05 1405728
3 2731.09 1399734
3 2731.09 1398943
3 2731.09 1395172
3 2731.09 1392389
3 2731.09 1391439
3 2731.98 1391027
3 2731.98 1385517
3 2732.75 1375614
3 2732.75 1374611
3 2732.75 1367136
3 2732.75 1365858
3 2734.27 1363579
3 2734.27 1362125
3 2735.75 1361163
3 2736.48 1354395
3 2736.48 1351367
3 2737.95 1349296
3 2737.95 1343052
3 2738.72 1341339
3 2739.45 1337606
3 2744.41 1448389
3 2744.41 1433791
3 2744.41 1432093
3 2744.41 1426484
3 2744.41 1421398
3 2744.41 1416992
3 2745.37 1415271
3 2745.37 1410083
3 2745.37 1409310
3 2746.24 1409042
3 2746.24 1408493
3 2746.24 1403759
3 2746.24 1395170
3 2747.08 1394789
3 2747.08 1393427
3 2747.08 1392544
3 2747.08 1390007
3 2747.08 1388405
3 2748.69 1387457
3 2748.69 1376901
3 2748.69 1374488
3 2748.69 1371144
3 2748.69 1371068
3 2749.56 1368156
3 2749.56 1367340
3 2749.56 1365224
3 2749.56 1364602
3 2749.56 1358879
3 2750.44 1347012
3 2750.44 1346940
3 2750.44 1346598
3 2750.44 1346487
3 2751.3 1344335
3 2751.3 1337719
3 2751.3 1337460
3 2752.1 1332879
3 2752.1 1331754
3 2752.1 1327869
3 2752.91 1325939
3 2753.64 1325801
3 2754.36 1325784
3 2755.12 1324814
3 2755.91 1322884
3 2758.06 1536328
3 2758.06 1532116
3 2758.06 1499908
3 2758.06 1496807
3 2758.06 1485147
3 2758.06 1436608
3 2758.06 1424611
3 2758.06 1421605
3 2759.06 1415675
3 2759.06 1405628
3 2759.06 1400319
3 2759.06 1399616
3 2759.06 1394991
3 2759.06 1391941
3 2759.06 1391332
3 2759.06 1383566
3 2759.06 1382065
3 2760.06 1380135
3 2760.06 1379268
3 2760.06 1376616
3 2760.06 1376199
3 2760.91 1375931
3 2760.91 1375373
3 2760.91 1374135
3 2761.72 1360800
3 2761.72 1360765
3 2762.53 1349148
3 2762.53 1348498
3 2762.53 1337236
3 2762.53 1336132
3 2764.14 1334670
3 2764.14 1334626
3 2764.94 1332167
3 2764.94 1332155
3 2765.71 1331030
3 2765.71 1327621
3 2767.24 1327370
3 2767.24 1326871
3 2769.56 1326054
3 2772.59 1429874
3 2772.59 1417696
3 2772.59 1395451
3 2772.59 1385312
3 2772.59 1384065
3 2772.59 1382135
3 2773.57 1380170
3 2773.57 1367269
3 2773.57 1363110
3 2774.42 1362885
3 2774.42 1362686
3 2775.93 1362097
3 2775.93 1360167
3 2775.93 1357883
3 2775.93 1357171
3 2775.93 1355019
3 2777.61 1353325
3 2777.61 1351320
3 2778.46 1348866
3 2779.24 1348750
3 2781.18 1346965
3 2781.99 1344044
3 2781.99 1342922
3 2781.99 1341439
3 2781.99 1341389
3 2782.87 1341196
3 2782.87 1340834
3 2782.87 1339709
3 2782.87 1339593
3 2783.76 1338375
3 2783.76 1336338
3 2786.27 1431595
3 2786.27 1417670
3 2786.27 1412964
3 2786.27 1404375
3 2787.26 1398869
3 2787.26 1397674
3 2788.1 1396581
3 2788.1 1396141
3 2788.1 1391353
3 2788.1 1390383
3 2788.99 1390046
3 2788.99 1389567
3 2788.99 1381836
3 2788.99 1381759
3 2788.99 1379371
3 2789.91 1377130
3 2790.71 1376022
3 2790.71 1369257
3 2790.71 1367527
3 2795.26 1365702
3 2795.26 1362674
Score = 1371659
