    Blocking waiting for file lock on package cache
    Blocking waiting for file lock on package cache
    Blocking waiting for file lock on package cache
    Blocking waiting for file lock on package cache
    Blocking waiting for file lock on build directory
    Finished release [optimized] target(s) in 0.07s
     Running `target/release/tester ../a.out 0017`
3 2.874 1495064
3 2.874 1442653
3 2.874 1441783
3 2.874 1434910
3 2.874 1423594
3 2.874 1395265
3 2.874 1395263
3 2.874 1394105
3 2.874 1391775
3 2.874 1389645
3 3.837 1366124
3 3.837 1353687
3 3.837 1353316
3 3.837 1352989
3 3.837 1350605
3 3.837 1345030
3 4.68 1342753
3 4.68 1340866
3 5.464 1340423
3 5.464 1335734
3 5.464 1326485
3 6.839 1325386
3 8.045 1325297
3 9.474 1324918
3 9.474 1324686
3 12.71 1323906
3 12.71 1323136
3 14.013 1429845
3 14.013 1410965
3 14.013 1402700
3 14.013 1399229
3 14.541 1394225
3 14.541 1386830
3 14.541 1385106
3 14.541 1381389
3 14.541 1375893
3 14.541 1364392
3 14.541 1360970
3 14.541 1357951
3 14.541 1356287
3 15.185 1355987
3 15.185 1345640
3 28.419 1418163
3 28.419 1414385
3 28.419 1406114
3 28.419 1404284
3 28.419 1399986
3 28.984 1393803
3 28.984 1381370
3 28.984 1380058
3 28.984 1375493
3 29.52 1372339
3 29.52 1363242
3 29.52 1358309
3 30.007 1356141
3 30.007 1355944
3 30.007 1353620
3 30.521 1352336
3 31.457 1351615
3 31.457 1350550
3 31.457 1348769
3 31.957 1348486
3 31.957 1348406
3 31.957 1348011
3 32.44 1344310
3 32.909 1343973
3 33.873 1340715
3 33.873 1340291
3 34.816 1339594
3 35.273 1336767
3 42.795 1411045
3 42.795 1395443
3 42.795 1384091
3 42.795 1383306
3 43.846 1377361
3 43.846 1377116
3 44.66 1376458
3 44.66 1372524
3 44.66 1372314
3 44.66 1372129
3 44.66 1363440
3 44.66 1359994
3 44.66 1351874
3 44.66 1347811
3 45.609 1346402
3 46.356 1343619
3 46.356 1341398
3 46.356 1334632
3 46.356 1333388
3 46.356 1332964
3 46.356 1332399
3 46.356 1331661
3 47.256 1330363
3 47.256 1327832
3 47.256 1327789
3 48.073 1327537
3 48.073 1327408
3 48.889 1326972
3 50.789 1324548
3 50.789 1323412
3 52.263 1322388
3 56.704 1482973
3 56.704 1469777
3 56.704 1468960
3 56.704 1468653
3 56.704 1464355
3 56.704 1451029
3 56.704 1450470
3 56.704 1445336
3 57.661 1445267
3 57.661 1438340
3 57.661 1428596
3 57.661 1421104
3 57.661 1418538
3 57.661 1417482
3 58.53 1411593
3 58.53 1402843
3 58.53 1400610
3 58.53 1399107
3 58.53 1397802
3 58.53 1390741
3 59.404 1389992
3 59.404 1388169
3 59.404 1387761
3 59.404 1383561
3 59.404 1382041
3 59.404 1376115
3 60.314 1375045
3 60.314 1373556
3 60.314 1369469
3 60.314 1366285
3 60.944 1361258
3 60.944 1360589
3 60.944 1360250
3 60.944 1359120
3 60.944 1357970
3 61.461 1357614
3 61.98 1357411
3 62.926 1356559
3 63.462 1355742
3 70.204 1529999
3 70.204 1526132
3 70.204 1473721
3 70.204 1468808
3 70.204 1421007
3 70.204 1412682
1 70.204 1410029
3 70.204 1402224
3 70.204 1400253
3 70.827 1398420
3 70.827 1397302
3 70.827 1396691
3 70.827 1395347
3 70.827 1373886
3 70.827 1371556
3 71.364 1366980
3 71.364 1359967
3 71.881 1359796
3 71.881 1355212
3 71.881 1351300
3 71.881 1350876
3 71.881 1350059
3 72.415 1348972
3 72.894 1347592
3 72.894 1344930
3 73.568 1344797
3 73.568 1341921
3 75.118 1341676
3 75.864 1341348
3 75.864 1340859
3 76.695 1340853
3 77.449 1340222
3 77.449 1340213
3 78.042 1339968
3 78.642 1332805
3 78.642 1330833
3 78.642 1327702
3 79.639 1325004
3 80.127 1324160
3 80.127 1323719
3 80.127 1320706
3 82.429 1319441
3 82.429 1314857
3 83.065 1314433
3 84.594 1452453
3 84.594 1446459
3 84.594 1434677
3 84.594 1425549
3 84.594 1421727
3 85.45 1405611
3 86.254 1394680
3 86.254 1391732
3 86.254 1389991
3 87.928 1388541
3 87.928 1370280
3 87.928 1361318
3 88.751 1361174
3 91.071 1345071
3 91.854 1344255
3 91.854 1344091
3 91.854 1343822
3 91.854 1343398
3 92.69 1341665
3 94.443 1340886
3 94.443 1340327
3 94.443 1340012
3 95.259 1339588
3 95.259 1339301
3 95.259 1338538
3 95.259 1337883
3 96.179 1336208
3 96.831 1334608
3 97.644 1334270
3 98.467 1443468
3 98.467 1441138
3 98.467 1438793
3 98.467 1416246
3 98.467 1389710
3 98.467 1376930
3 98.467 1376065
3 98.467 1375903
3 98.467 1372150
3 98.467 1371726
3 98.467 1360172
3 99.45 1357224
3 99.45 1356903
3 99.45 1353955
3 99.45 1346201
3 100.29 1332707
3 100.29 1330162
3 102.223 1324785
3 102.223 1320119
3 102.223 1319952
3 103.03 1319860
3 103.03 1319583
3 103.792 1319512
3 103.792 1319418
3 103.792 1318053
3 108.394 1317937
3 108.937 1317470
3 108.937 1317141
3 108.937 1316059
3 109.487 1316035
3 109.954 1313387
3 109.954 1313172
3 111.034 1310333
3 111.634 1310050
3 112.396 1442203
3 112.396 1412459
3 112.396 1398004
3 112.396 1351337
3 112.396 1347104
3 113.017 1342615
3 113.017 1335925
3 113.017 1331566
3 113.017 1331130
3 114.133 1329545
3 114.133 1328159
3 114.604 1323539
3 115.059 1322517
3 115.539 1321958
3 115.539 1320521
3 116.488 1320256
3 116.488 1319672
3 117.284 1317111
3 126.317 1543632
3 126.317 1539673
3 126.317 1475724
3 126.317 1475214
3 126.317 1472336
3 126.317 1470654
3 126.317 1450759
3 126.317 1425348
3 126.317 1424078
3 126.317 1405464
3 126.317 1399316
3 126.94 1399247
3 126.94 1393541
3 126.94 1385821
3 126.94 1384457
3 126.94 1371565
3 127.465 1371548
3 127.465 1371208
3 127.938 1367095
3 128.403 1363449
3 128.403 1362447
3 128.966 1361116
3 128.966 1360669
3 128.966 1357607
3 129.931 1357566
3 130.696 1357124
3 130.696 1356307
3 130.696 1355086
3 130.696 1349642
3 130.696 1345765
3 131.489 1344096
3 133.953 1342486
3 135.138 1339059
3 135.138 1338269
3 135.138 1336584
3 135.945 1335313
3 135.945 1334754
3 135.945 1334613
3 135.945 1332252
3 136.937 1331481
3 136.937 1327183
3 136.937 1323305
3 136.937 1320955
3 137.466 1320391
3 140.261 1464211
3 140.261 1443738
3 140.261 1426543
3 140.261 1426298
3 140.261 1398437
3 140.261 1391751
3 140.261 1387252
3 140.915 1386838
3 140.915 1381234
3 140.915 1370690
3 140.915 1358490
3 140.915 1354277
3 140.915 1345139
3 141.532 1342953
3 142.294 1342394
3 142.907 1341586
3 142.907 1340611
3 143.388 1339101
3 143.388 1337399
3 143.388 1333446
3 143.902 1332066
3 143.902 1332021
3 144.372 1330345
3 144.372 1329103
3 144.84 1328965
3 144.84 1327693
3 145.308 1327134
3 146.665 1325676
3 148.491 1325014
3 150.06 1324573
3 150.06 1318238
3 150.679 1317679
3 154.159 1451229
3 154.159 1441646
3 154.159 1441372
3 154.159 1397319
3 154.159 1388968
3 154.159 1380465
3 154.159 1380394
3 154.159 1378233
3 154.159 1371449
3 154.95 1368625
3 154.95 1367143
3 154.95 1366295
3 154.95 1365358
3 154.95 1361997
3 154.95 1353999
3 155.563 1353541
3 155.563 1349036
3 156.492 1348791
3 157.01 1348556
3 158.9 1346498
3 158.9 1346253
3 158.9 1345776
3 160.422 1344791
3 160.422 1336766
3 160.422 1334473
3 160.422 1332488
3 160.422 1331003
3 162.732 1325395
3 162.732 1320838
3 163.516 1320414
3 163.516 1318366
3 163.516 1318266
3 165.051 1315646
3 165.051 1315501
3 168.319 1476499
3 168.319 1451389
3 168.319 1443629
3 168.319 1441438
3 168.319 1437829
3 168.319 1434156
3 168.319 1433732
3 168.319 1424982
3 168.319 1423911
3 168.319 1417472
3 168.319 1413519
3 168.319 1407980
3 169.336 1399687
3 169.336 1398036
3 169.336 1395889
3 169.336 1390865
3 170.168 1386263
3 170.168 1383652
3 170.168 1377767
3 172.612 1372125
3 175.167 1368566
3 175.167 1367677
3 175.947 1365787
3 175.947 1364342
3 175.947 1363783
3 176.769 1360874
3 179.876 1356394
3 179.876 1355970
3 180.681 1354885
3 181.456 1353053
3 182.237 1490764
3 182.237 1455691
3 182.237 1443985
3 182.237 1433419
3 182.237 1432891
3 182.237 1431776
3 182.237 1429737
3 182.237 1427712
3 182.237 1417023
3 183.143 1410803
3 183.143 1407143
3 183.143 1395189
3 183.143 1393845
3 183.143 1392005
3 183.143 1380520
3 183.99 1380096
3 184.77 1374454
3 184.77 1373528
3 184.77 1370376
3 184.77 1369910
3 184.77 1359368
3 186.348 1358981
3 186.348 1355571
3 187.149 1352637
3 187.149 1351555
3 187.149 1350683
3 187.149 1350227
3 187.149 1350028
3 187.149 1349417
3 188.089 1349172
3 189.269 1342755
3 189.269 1342039
3 189.889 1339642
3 190.348 1338379
3 190.348 1337275
3 190.348 1337010
3 190.348 1336586
3 196.288 1488167
3 196.288 1459456
3 196.288 1449261
3 196.288 1437766
3 196.288 1420747
3 196.288 1420491
3 196.288 1406472
3 196.288 1396669
3 196.288 1376727
3 196.288 1368654
3 197.038 1368409
3 197.038 1363677
3 197.038 1361124
3 197.038 1359120
3 197.671 1358266
3 198.465 1350499
3 198.465 1350086
3 199.215 1349159
3 199.215 1344583
3 199.834 1335422
3 199.834 1334736
3 200.634 1333919
3 201.224 1332763
3 202.538 1330678
3 203.285 1328292
3 203.285 1327733
3 204.7 1326192
3 205.409 1323494
3 210.406 1448115
3 210.406 1437323
3 210.406 1431721
3 210.406 1423442
3 210.406 1422828
3 210.406 1410572
3 210.406 1406993
3 210.406 1392121
3 210.406 1387070
3 210.406 1382671
3 210.406 1381236
3 210.406 1377060
3 211.39 1364390
3 211.39 1358572
3 211.39 1356430
3 211.39 1352930
3 211.39 1344258
3 211.39 1342190
3 211.93 1340306
3 211.93 1335657
3 212.415 1335168
3 212.415 1331077
3 212.415 1329555
3 213.002 1322578
3 213.468 1321863
3 214.236 1319456
3 214.236 1318875
3 215.011 1318578
3 215.011 1318298
3 215.791 1317586
3 215.791 1316206
3 215.791 1315453
3 216.802 1315156
3 224.239 1424692
3 224.239 1413288
3 224.239 1408983
3 224.239 1401897
3 224.239 1389221
3 224.239 1389180
3 224.239 1384922
3 225.063 1380656
3 225.063 1377282
3 225.063 1375876
3 225.063 1375014
3 225.063 1373443
3 225.063 1371591
3 225.583 1370329
3 225.583 1366718
3 226.099 1366415
3 226.099 1358266
3 226.577 1358243
3 226.577 1358018
3 226.577 1357922
3 226.577 1357796
3 226.577 1357710
3 227.167 1351904
3 227.167 1346921
3 227.167 1343038
3 227.651 1341542
3 227.651 1340162
3 227.651 1339603
3 227.651 1339173
3 227.651 1338382
3 227.651 1337388
3 229.139 1335457
3 229.896 1335069
3 238.387 1445631
3 238.387 1443529
3 238.387 1431392
3 238.387 1427638
3 238.387 1422539
3 238.387 1418366
3 238.387 1411136
3 238.387 1401996
3 238.387 1401179
3 238.387 1393543
3 238.387 1388521
3 238.387 1387148
3 239.5 1385083
3 239.5 1381114
3 239.5 1364738
3 239.5 1363891
3 239.5 1362665
3 240.375 1358264
3 240.375 1356894
3 240.375 1346769
3 240.375 1343521
3 240.375 1341954
3 241.814 1340747
3 242.765 1334543
3 243.234 1327910
3 243.234 1326935
3 243.234 1325070
3 243.757 1324253
3 244.301 1323650
3 245.032 1323489
3 245.797 1320374
3 247.357 1318256
3 252.155 1471164
3 252.155 1470919
3 252.155 1443061
3 252.155 1440731
3 252.155 1422470
3 252.155 1421221
3 252.155 1416404
3 252.155 1403547
3 252.155 1399578
3 252.155 1394665
3 252.155 1389023
3 253.111 1375004
3 253.111 1373145
3 253.111 1367227
3 253.727 1365101
3 254.199 1351071
3 254.666 1344804
3 255.251 1339986
3 255.251 1339798
3 256.826 1339134
3 257.603 1337209
3 257.603 1335453
3 258.385 1331799
3 258.385 1329527
3 259.185 1325147
3 259.185 1324418
3 262.239 1323219
3 263.75 1322175
3 266.247 1452504
3 266.247 1432380
3 266.247 1425981
3 266.247 1424962
3 266.247 1420499
3 266.247 1418545
3 266.247 1417791
3 267.373 1413449
3 267.373 1399172
3 267.373 1398228
3 267.373 1397502
3 267.373 1396089
3 267.373 1395988
3 268.226 1387205
3 268.226 1379451
3 268.226 1373093
3 268.908 1368629
3 270.121 1368509
3 270.121 1367558
3 270.121 1364267
3 270.784 1361559
3 270.784 1356646
3 271.389 1356045
3 271.389 1354665
3 271.389 1348566
3 272.194 1348393
3 272.194 1347576
3 272.194 1345549
3 273.011 1343550
3 273.79 1342800
3 275.346 1340470
3 276.122 1334925
3 276.122 1333545
3 280.023 1451218
3 280.023 1435352
3 280.023 1422777
3 280.023 1417414
3 280.023 1412363
3 280.023 1411772
3 280.023 1405135
3 280.023 1403618
3 280.023 1403567
3 280.023 1398709
3 280.023 1385967
3 280.023 1380845
3 281.02 1380053
3 281.02 1368278
3 281.02 1367861
3 281.02 1363203
3 282.468 1359789
3 282.468 1358514
3 282.468 1358269
3 282.468 1352197
3 282.468 1350618
3 283.342 1350037
3 283.906 1346885
3 284.363 1345093
3 284.363 1342292
3 285.319 1341868
3 289.634 1340998
3 289.634 1340948
3 294.17 1445076
3 294.17 1436592
3 294.17 1436326
3 294.17 1436188
3 294.17 1432294
3 294.17 1419224
3 294.17 1415298
3 294.17 1408318
3 294.757 1405251
3 294.757 1403348
3 294.757 1384491
3 294.757 1384064
3 294.757 1383853
3 294.757 1375440
3 294.757 1372922
3 295.284 1366928
3 295.284 1362716
3 295.284 1362292
3 295.284 1362192
3 295.775 1346705
3 295.775 1343677
3 295.775 1343373
3 296.273 1341980
3 298.793 1341538
3 299.371 1341163
3 308.082 1463769
3 308.082 1456434
3 308.082 1444101
3 308.082 1442425
3 308.082 1441625
3 308.082 1439184
3 308.082 1437577
3 308.082 1423971
3 308.082 1417154
3 308.082 1408014
3 308.082 1401993
3 308.082 1401748
3 308.669 1399353
3 308.669 1394203
3 308.669 1391797
3 308.669 1386884
3 308.669 1382195
3 308.669 1368428
3 308.669 1364746
3 309.245 1364539
3 309.245 1354437
3 309.721 1353097
3 309.721 1348551
3 309.721 1347992
3 310.204 1347696
3 310.763 1344676
3 310.763 1344185
3 310.763 1339311
3 310.763 1338568
3 311.84 1337978
3 311.84 1336598
3 311.84 1336238
3 322.032 1445191
3 322.032 1418811
3 322.032 1411776
3 322.032 1402636
3 322.032 1392483
3 322.032 1383816
3 322.032 1378810
3 322.032 1375066
3 322.032 1365392
3 322.651 1364012
3 323.177 1363588
3 323.177 1358741
3 323.177 1352062
3 323.177 1348947
3 323.671 1347764
3 325.116 1345722
3 325.116 1345523
3 325.597 1343193
3 326.973 1343147
3 336.203 1536397
3 336.203 1481829
3 336.203 1429203
3 336.203 1421449
3 336.203 1395949
3 336.203 1383884
3 336.203 1372343
3 336.203 1372300
3 337.005 1371741
3 337.005 1371312
3 337.847 1368132
3 337.847 1366752
3 338.643 1357867
3 338.643 1356337
3 339.434 1355210
3 340.2 1354771
3 340.958 1349858
3 340.958 1346074
3 340.958 1342038
3 345.845 1332530
3 346.312 1332247
3 347.549 1331430
3 347.549 1328756
3 350.509 1484606
3 350.509 1482406
3 350.509 1450007
3 350.509 1430489
3 350.509 1428246
3 350.509 1407298
3 351.167 1396911
3 351.167 1392327
3 351.167 1392223
3 351.167 1370643
3 351.167 1369573
3 351.167 1368756
3 351.8 1368117
3 351.8 1365174
3 351.8 1357286
3 351.8 1356065
3 352.305 1355641
3 352.305 1352480
3 352.305 1351678
3 352.797 1347645
3 352.797 1345388
3 352.797 1343517
3 352.797 1339203
3 353.4 1339178
3 353.4 1338933
3 353.888 1338892
3 354.445 1334703
3 354.445 1334458
3 357.029 1332540
3 357.029 1327627
3 357.833 1327464
3 361.682 1326899
3 364.01 1432358
3 364.01 1427069
3 364.01 1408381
3 364.01 1401698
3 364.01 1401418
3 364.01 1396479
3 364.01 1389466
3 364.01 1389187
3 364.962 1386308
3 364.962 1375402
3 364.962 1365721
3 364.962 1360048
3 365.823 1357745
3 365.823 1357321
3 365.823 1354490
3 366.625 1354143
3 366.625 1349559
3 366.625 1349433
3 366.625 1344421
3 367.375 1343334
3 367.375 1342775
3 367.375 1340888
3 367.923 1337613
3 367.923 1335334
3 368.707 1334517
3 375.727 1330848
3 375.727 1330446
3 376.552 1327861
3 376.552 1326626
3 377.339 1317110
3 378.102 1425515
3 378.102 1422414
3 378.102 1418592
3 378.102 1413194
3 378.102 1412949
3 378.102 1393237
3 378.969 1387375
3 378.969 1387243
3 378.969 1385000
3 379.733 1378250
3 379.733 1373636
3 380.209 1368688
3 380.209 1368002
3 381.276 1364249
3 381.755 1353013
3 381.755 1351186
3 381.755 1349831
3 384.126 1345657
3 384.126 1344254
3 385.099 1340903
3 389.007 1339420
3 392.285 1421692
3 392.285 1415850
3 392.285 1413148
3 392.285 1409178
3 392.285 1407673
3 392.838 1391378
3 392.838 1389104
3 392.838 1388842
3 392.838 1383200
3 392.838 1383182
3 393.546 1376603
3 393.546 1374654
3 393.546 1369245
3 394.376 1360465
3 394.376 1360041
3 395.149 1359324
3 395.149 1355143
3 395.149 1354181
3 395.149 1352702
3 395.657 1349410
3 395.657 1346014
3 396.136 1345565
3 396.602 1345346
3 396.602 1344721
3 396.602 1344500
3 396.602 1343086
3 398.025 1337068
3 398.025 1336533
3 398.025 1328444
3 398.025 1327859
3 398.81 1325361
3 399.582 1324969
3 400.342 1323995
3 400.342 1323178
3 401.111 1322933
3 402.654 1321870
3 406.357 1460567
3 406.357 1446970
3 406.357 1446563
3 406.357 1437877
3 406.357 1432964
3 406.357 1427662
3 406.357 1427658
3 407.039 1427478
3 407.039 1423842
3 407.039 1413520
3 407.039 1412936
3 407.039 1408245
3 407.671 1389984
3 408.162 1388003
3 408.162 1375555
3 408.162 1365391
3 408.162 1360839
3 408.162 1356512
3 408.162 1344194
3 410.525 1342294
3 412.014 1339455
3 412.835 1339210
3 413.624 1337423
3 414.413 1334336
3 414.413 1331652
3 415.211 1329460
3 420.431 1447203
3 420.431 1445839
3 420.431 1421477
3 420.431 1398960
3 420.431 1398536
3 420.431 1395412
3 420.993 1384353
3 420.993 1382544
3 420.993 1381645
3 420.993 1379163
3 420.993 1377788
3 421.743 1375452
3 421.743 1363595
3 421.743 1357170
3 422.576 1356746
3 422.576 1356344
3 422.576 1355911
3 423.273 1350702
3 423.764 1348538
3 423.764 1348479
3 424.243 1345815
3 424.703 1344998
3 425.502 1343754
3 426.31 1341186
3 426.31 1340401
3 426.31 1338347
3 429.974 1335130
3 430.947 1334706
3 434.259 1452510
3 434.259 1437719
3 434.259 1417928
3 434.259 1389804
3 434.259 1376695
3 434.259 1365072
3 434.923 1360770
3 434.923 1358440
3 434.923 1357055
3 434.923 1356296
3 434.923 1350171
3 435.468 1349881
3 435.468 1348116
3 435.468 1340753
3 435.468 1336294
3 435.963 1335915
3 435.963 1335098
3 437.03 1330185
3 437.03 1330175
3 437.03 1330134
3 437.649 1328725
3 437.649 1328480
3 437.649 1326150
3 440.96 1324657
3 441.598 1323423
3 442.371 1323199
3 443.142 1323049
3 448.018 1547661
3 448.018 1522041
3 448.018 1510119
3 448.018 1509874
3 448.018 1503308
3 448.018 1468572
3 448.018 1466457
3 448.018 1459520
3 448.018 1444492
3 448.018 1425010
3 448.018 1420711
3 448.018 1418885
3 448.969 1416656
3 448.969 1415098
3 448.969 1409532
3 448.969 1408359
3 448.969 1406029
3 448.969 1403766
3 448.969 1394939
3 449.757 1392725
3 449.757 1392166
3 449.757 1390874
3 449.757 1389847
3 449.757 1387885
3 450.329 1382830
3 450.329 1381704
3 450.329 1379935
3 450.329 1377232
3 450.842 1367120
3 451.303 1362247
3 451.303 1361823
3 451.303 1360440
3 451.303 1358220
3 451.801 1350719
3 451.801 1350006
3 452.248 1349442
3 453.781 1347532
3 454.241 1347223
3 454.241 1345843
3 454.241 1344509
3 458.917 1343518
3 462.29 1434894
3 462.29 1410330
3 463.294 1404258
3 463.294 1398471
3 463.811 1398284
3 464.278 1397860
3 464.278 1393276
3 464.278 1389863
3 464.862 1384950
3 465.838 1384705
3 466.393 1384136
3 476.195 1473953
3 476.195 1469622
3 476.195 1443925
3 476.195 1437398
3 476.195 1426825
3 476.195 1418541
3 476.195 1411604
3 477.104 1410651
3 477.104 1398351
3 477.104 1396970
3 477.104 1396153
3 477.104 1395281
3 477.104 1389240
3 477.88 1383246
3 477.88 1382822
3 477.88 1382346
3 477.88 1368985
3 478.823 1368507
3 478.823 1367464
3 478.823 1367281
3 478.823 1367028
3 479.336 1366783
3 479.336 1366545
3 479.336 1365165
3 479.822 1360252
3 480.73 1359122
3 480.73 1359100
3 480.73 1355474
3 480.73 1352450
3 481.319 1352026
3 481.786 1349783
3 484.567 1348490
3 485.117 1348476
3 490.044 1486293
3 490.044 1478488
3 490.044 1469529
3 490.044 1464055
3 490.044 1438677
3 490.044 1416016
3 490.044 1408681
3 490.044 1401668
3 490.044 1400534
3 490.044 1399975
3 490.044 1397438
3 490.044 1389183
3 490.044 1387067
3 490.694 1385687
3 490.694 1377757
3 490.694 1376769
3 491.446 1369844
3 491.446 1361263
3 491.941 1356142
3 491.941 1350484
3 491.941 1348262
3 491.941 1340566
3 491.941 1337579
3 491.941 1333464
3 491.941 1327199
3 492.616 1325902
3 492.616 1324901
3 495.72 1321630
3 496.249 1320757
3 496.249 1320088
3 496.958 1319377
3 504.964 1451473
3 504.964 1429092
3 504.964 1428289
3 504.964 1423691
3 504.964 1423376
3 504.964 1423132
3 504.964 1405644
3 504.964 1395523
3 504.964 1377033
3 504.964 1366317
3 504.964 1364357
3 506.331 1363214
3 506.331 1361330
3 507.24 1361290
3 507.24 1358954
3 507.24 1357575
3 508.059 1356758
3 508.059 1353312
3 508.874 1351144
3 508.874 1349795
3 509.93 1340583
3 510.509 1333805
3 510.509 1329533
3 510.509 1329288
3 510.509 1329041
3 511.619 1327654
3 512.1 1325744
3 512.1 1325324
3 518.45 1466377
3 518.45 1465262
3 518.45 1452951
3 518.45 1451455
1 518.45 1448303
3 518.45 1445973
3 518.45 1435310
3 518.45 1433256
3 518.45 1424531
3 519.205 1394084
3 519.205 1387813
3 519.205 1382297
3 519.205 1377608
3 519.205 1377179
3 519.205 1375555
3 519.205 1373225
3 519.768 1366516
3 519.768 1365753
3 519.768 1364921
3 519.768 1364621
3 519.768 1355987
3 519.768 1354395
3 520.369 1351906
3 520.369 1350017
3 520.369 1347724
3 520.369 1340701
3 520.913 1337309
3 520.913 1336039
3 521.948 1332415
3 521.948 1331644
3 523.499 1331455
3 524.252 1328140
3 524.252 1328030
3 525.131 1324361
3 532.376 1459255
3 532.376 1448051
3 532.376 1447617
3 532.376 1442101
3 532.376 1439274
3 532.376 1435650
3 532.376 1428131
3 532.376 1413397
3 533.307 1406336
3 533.307 1405519
3 533.307 1394727
3 534.175 1394481
3 534.175 1376097
3 535.018 1372863
3 535.018 1371884
3 544.152 1361737
3 546.088 1480819
3 546.088 1459905
3 546.088 1441154
3 546.088 1430434
3 546.088 1409127
3 546.088 1404008
3 546.088 1397655
3 546.627 1393438
3 546.627 1392597
3 546.627 1390349
3 546.627 1376189
3 546.627 1368823
3 547.165 1361908
3 547.165 1357351
3 547.165 1354184
3 547.646 1352334
3 547.646 1351493
3 547.646 1349250
3 547.646 1349005
3 548.152 1346826
3 548.152 1341323
3 548.741 1338415
3 548.741 1338086
3 549.226 1330247
3 560.418 1446227
3 560.418 1439033
3 560.418 1410909
3 560.418 1408308
3 560.418 1401796
3 560.418 1396403
3 560.418 1388950
3 561.464 1375870
3 561.464 1375311
3 561.464 1374859
3 561.464 1373806
3 561.464 1364758
3 561.464 1350925
3 562.307 1350734
3 562.307 1347823
3 562.307 1345493
3 562.979 1345069
3 562.979 1340349
3 562.979 1339814
3 562.979 1339390
3 562.979 1338969
3 562.979 1338410
3 563.559 1338170
3 563.559 1335561
3 563.559 1331661
3 564.148 1330331
3 564.148 1326404
3 564.148 1326323
3 564.148 1326142
3 565.648 1325845
3 566.107 1325002
3 566.107 1323502
3 566.107 1322312
3 567.142 1321453
3 568.046 1320946
3 574.197 1465830
3 574.197 1453519
3 574.197 1428801
3 574.197 1421937
3 574.197 1417891
3 574.197 1417185
3 574.197 1405616
3 574.197 1382579
3 574.197 1369985
3 574.942 1366789
3 574.942 1360892
3 574.942 1360771
3 574.942 1352597
3 575.778 1351325
3 575.778 1345392
3 575.778 1344112
3 577.201 1343688
3 577.787 1343263
3 577.787 1338965
3 587.145 1336155
3 587.932 1335213
3 588.707 1460472
3 588.707 1460227
3 588.707 1441966
3 588.707 1431892
3 588.707 1421467
3 588.707 1417713
3 588.707 1405402
3 588.707 1395573
3 588.707 1394196
3 588.707 1368721
3 588.707 1366812
3 588.707 1356775
3 589.688 1340683
3 590.482 1335983
3 590.482 1335451
3 590.482 1334603
3 590.482 1331555
3 591.325 1325582
3 592.098 1325473
3 594.54 1325337
3 594.54 1325141
3 594.54 1324241
3 595.421 1322025
3 595.421 1320316
3 596.44 1319499
3 599.401 1317009
3 600.171 1316585
3 600.171 1314125
3 602.595 1473443
3 602.595 1473317
3 602.595 1458467
3 602.595 1447328
3 602.595 1434448
3 602.595 1428932
3 602.595 1428250
3 602.595 1427826
3 602.595 1392391
3 602.595 1384434
3 602.595 1378926
3 603.305 1378109
3 603.305 1373678
3 603.305 1363554
3 603.305 1358404
3 603.305 1358141
3 603.815 1351670
3 603.815 1351111
3 603.815 1349008
3 605.043 1348833
3 605.043 1346719
1 606.127 1345498
3 606.127 1342849
3 606.127 1342324
3 606.625 1337533
3 606.625 1337143
3 607.119 1329676
3 608.963 1329214
3 608.963 1328817
3 608.963 1328393
3 609.692 1327804
3 610.293 1326142
3 611.058 1325011
3 611.058 1324734
3 613.334 1324101
3 616.399 1468832
3 616.399 1425060
3 616.399 1417103
3 616.399 1414860
3 617.293 1412804
3 617.293 1393947
3 617.293 1386207
3 618.113 1384844
3 618.113 1381832
3 618.113 1381464
3 618.935 1372482
3 618.935 1370182
3 618.935 1364406
3 618.935 1360279
3 618.935 1359462
3 618.935 1359310
3 619.839 1349558
3 619.839 1343907
3 620.664 1343662
3 620.664 1337956
3 620.664 1336884
1 620.664 1335871
3 621.491 1327816
3 621.491 1327571
3 630.368 1479643
3 630.368 1445827
3 630.368 1445452
3 630.368 1424160
3 630.368 1421228
3 630.368 1416269
3 631.227 1393660
3 631.227 1392958
3 631.227 1382631
3 631.227 1378333
3 631.227 1373579
3 631.227 1366244
3 631.227 1363414
3 631.227 1359790
3 632.109 1357082
3 632.109 1353959
3 632.109 1350631
3 632.109 1348240
3 632.109 1347390
3 632.109 1346829
3 632.756 1343280
3 632.756 1342856
3 632.756 1342039
3 632.756 1337126
3 632.756 1327368
3 633.656 1323772
3 633.656 1322626
3 634.975 1321766
3 634.975 1321697
3 634.975 1321138
3 636.012 1318395
3 644.434 1473664
3 644.434 1470450
3 644.434 1459658
3 644.434 1451263
3 644.434 1432406
3 644.434 1430257
3 644.434 1427893
3 644.434 1424356
3 644.434 1402827
3 645.003 1396484
3 645.003 1396337
3 645.003 1390362
3 645.003 1380863
3 645.003 1375843
3 645.603 1375488
3 645.603 1374821
3 646.09 1374533
3 646.09 1369607
3 646.09 1364694
3 646.09 1362403
3 646.09 1362285
3 646.09 1359184
3 646.602 1357632
3 646.602 1356854
3 646.602 1352165
3 647.222 1351779
3 647.222 1350950
3 647.811 1349126
3 648.334 1348309
3 648.334 1347892
3 649.33 1346158
3 649.804 1341950
3 650.275 1341679
3 650.275 1341434
3 650.772 1337285
3 650.772 1337085
3 651.676 1336796
3 652.128 1335014
3 652.631 1334145
3 658.264 1416112
3 658.264 1414483
3 658.264 1407148
3 658.264 1405784
3 658.264 1401486
3 658.87 1391753
3 658.87 1386125
3 658.87 1385370
3 658.87 1371489
3 658.87 1369053
3 658.87 1368507
3 659.415 1365722
3 659.415 1355793
3 659.415 1354395
3 660.41 1354104
3 660.41 1353865
3 660.41 1348905
3 661.883 1345684
3 662.799 1342991
3 662.799 1335034
3 663.436 1334610
3 663.436 1331309
3 663.436 1327974
3 663.436 1327826
3 663.436 1327071
3 663.436 1323789
3 663.962 1316454
3 664.714 1316052
3 672.374 1451017
3 672.374 1440804
3 672.374 1432187
3 672.374 1422456
3 672.374 1420126
3 672.374 1406107
3 673.277 1399340
3 673.277 1399179
3 673.277 1397212
3 673.277 1390751
3 673.277 1390522
3 673.277 1386690
3 674.163 1378882
3 674.163 1375379
3 674.991 1375277
3 674.991 1370970
3 676.619 1362489
3 676.619 1355154
3 681.013 1354798
3 683.231 1354682
3 686.606 1416540
3 686.606 1412824
3 686.606 1406629
3 687.372 1400298
3 687.372 1399660
3 687.372 1399284
3 687.372 1394147
3 687.372 1377260
3 687.372 1373598
3 687.372 1368416
3 688.278 1366480
3 688.278 1365921
3 688.77 1365676
3 690.155 1361031
3 690.155 1352971
3 692.473 1346907
3 692.473 1346328
3 700.358 1453859
3 700.358 1436473
3 700.358 1419843
3 700.358 1418212
3 700.358 1412570
3 700.358 1399790
3 700.358 1398017
3 700.358 1395074
3 700.358 1381343
3 701.324 1377589
3 701.324 1367393
3 701.324 1366170
3 701.324 1365353
3 701.324 1358183
3 701.324 1354695
3 701.883 1348873
3 703.482 1348694
3 703.952 1346622
3 706.049 1345040
3 706.049 1344859
3 706.049 1344209
3 707.959 1339398
3 709.393 1333276
3 709.393 1332877
3 709.393 1332060
3 714.169 1428936
3 714.169 1428512
3 714.169 1426182
3 714.169 1415902
3 714.169 1415657
3 714.169 1404865
3 714.169 1394300
3 714.169 1393827
3 715.104 1386060
3 715.104 1381147
3 715.104 1379093
3 716.694 1374944
3 716.694 1371289
3 716.694 1367190
3 718.265 1365921
3 718.265 1363678
3 718.265 1360295
3 719.076 1358915
3 719.076 1355744
3 719.872 1353062
3 719.872 1347420
3 719.872 1340085
3 721.126 1333044
3 728.301 1439219
3 728.301 1439023
3 728.301 1426682
3 728.301 1423700
3 728.301 1417409
3 728.301 1416850
3 729.175 1415410
3 729.175 1414560
3 729.175 1400541
3 729.175 1393974
3 729.175 1388836
3 729.175 1383985
3 729.175 1383540
3 729.947 1376508
3 729.947 1375703
3 729.947 1372453
3 729.947 1371073
3 729.947 1370677
3 730.515 1365869
3 730.515 1365572
3 731.002 1361855
3 731.002 1361411
3 731.002 1361211
3 731.799 1359488
3 731.799 1357132
3 731.799 1349741
3 731.799 1349165
3 731.799 1342228
3 732.645 1340155
3 733.538 1339338
3 733.538 1337824
3 733.538 1333240
3 733.538 1332516
3 735.179 1332271
3 742.517 1482945
3 742.517 1477831
3 742.517 1473139
3 742.517 1466336
3 742.517 1438471
3 742.517 1426848
3 742.517 1412947
3 743.424 1407720
3 743.424 1407475
3 743.424 1406957
3 743.424 1396319
3 743.424 1392321
3 744.303 1392216
3 744.303 1378619
3 744.303 1375955
3 744.303 1373397
3 744.303 1372914
3 744.303 1367173
3 745.156 1366583
3 745.156 1363431
3 745.156 1352669
3 746.749 1352448
3 746.749 1350731
3 746.749 1349355
3 746.749 1347744
3 746.749 1343115
3 747.636 1337899
3 748.457 1335823
3 748.457 1334776
3 749.279 1330478
3 749.279 1327743
3 749.279 1325917
3 750.094 1325699
3 750.094 1320996
3 750.094 1319535
3 750.094 1318976
3 751.828 1318700
3 752.729 1318536
3 752.729 1315955
3 756.482 1488771
3 756.482 1486441
3 756.482 1441627
3 756.482 1435579
3 756.482 1419749
3 756.482 1419504
3 757.473 1418616
3 757.473 1413282
3 757.473 1406536
3 757.473 1398132
1 758.466 1396189
3 758.466 1390689
3 758.466 1390195
3 758.466 1375404
3 758.466 1366388
3 758.466 1366054
3 758.466 1364761
3 759.364 1364434
3 759.364 1364337
3 760.151 1356200
3 760.151 1351869
3 760.784 1349001
3 760.784 1346131
3 761.419 1345948
3 766.594 1345621
3 767.301 1343565
3 768.086 1336412
3 770.532 1456167
3 770.532 1453944
3 770.532 1451980
3 770.532 1451421
3 770.532 1437642
3 770.532 1435091
3 770.532 1434570
3 770.532 1426382
3 770.532 1424058
3 770.532 1419635
3 770.532 1411769
3 770.532 1411178
3 770.532 1403767
3 770.532 1401890
3 771.55 1396111
3 771.55 1391813
3 771.55 1391787
3 771.55 1390913
3 771.55 1388992
3 772.392 1386171
3 772.392 1384791
3 773.132 1383478
3 773.132 1363987
3 773.644 1359245
3 773.644 1353539
3 774.41 1348291
3 775.178 1338313
3 775.178 1336634
3 775.178 1334175
3 776.166 1332613
3 776.166 1329877
3 780.189 1324740
3 780.189 1324316
3 782.838 1324082
3 784.254 1492283
3 784.254 1469638
3 784.254 1458590
3 784.254 1449462
3 784.254 1415497
3 784.807 1404497
3 784.807 1403117
3 784.807 1397364
3 784.807 1395121
3 784.807 1384735
3 784.807 1369917
3 785.438 1363237
3 785.438 1362469
3 785.438 1359625
3 786.375 1357480
3 786.375 1356445
3 786.878 1348729
3 786.878 1347314
3 787.838 1346814
3 788.314 1345666
3 789.739 1345606
3 798.227 1573674
3 798.227 1528324
3 798.227 1505621
3 798.227 1504241
3 798.227 1440074
3 798.227 1437755
3 798.227 1434432
3 798.227 1431916
3 798.227 1423250
3 798.227 1417902
3 798.227 1416963
3 799.098 1416811
3 799.098 1415994
3 799.098 1388017
3 799.098 1383716
3 799.098 1366248
3 799.098 1364402
3 799.619 1363817
3 799.619 1356264
3 799.619 1351574
3 799.619 1345744
3 799.619 1334249
3 799.619 1334027
3 800.322 1332869
3 803.981 1332258
3 804.475 1328992
3 804.475 1327462
3 804.475 1326616
3 805.521 1326485
3 808.054 1325336
3 809.295 1323184
3 809.295 1321768
3 810.098 1320388
3 811.013 1320260
3 811.013 1316170
3 811.58 1314007
3 811.58 1313082
3 812.053 1457050
3 812.053 1453898
3 812.053 1423249
3 812.053 1417937
3 812.053 1416137
3 812.053 1409504
3 812.053 1396008
3 812.053 1364457
3 812.637 1363298
3 812.637 1362977
3 812.637 1358807
3 812.637 1358385
3 812.637 1355843
3 812.637 1353936
3 813.276 1353048
3 813.276 1350293
3 813.276 1347743
3 813.276 1346078
3 814.15 1339101
3 814.15 1338876
3 815.128 1338211
3 816.241 1336951
3 816.241 1335112
3 817.044 1332782
3 817.044 1331402
3 818.587 1329832
3 822.949 1329686
3 822.949 1329262
3 824.708 1329071
3 826.369 1441064
3 826.369 1415032
3 826.369 1399734
3 826.369 1386431
3 826.369 1372255
3 826.369 1370627
3 826.369 1365938
3 826.369 1364985
3 826.369 1357819
3 827.217 1351667
3 827.217 1349827
3 828.046 1347884
3 828.046 1345730
3 828.046 1344545
3 828.889 1344121
3 829.74 1342235
3 829.74 1340876
3 829.74 1340828
3 831.326 1340404
3 832.093 1338997
3 833.805 1335759
3 833.805 1335344
3 833.805 1332721
3 840.679 1431461
3 840.679 1425274
3 840.679 1401987
3 840.679 1400295
3 840.679 1395997
3 840.679 1381766
3 840.679 1381521
3 840.679 1376607
3 841.488 1372542
3 841.488 1371081
3 841.488 1363697
3 841.488 1360289
3 841.488 1358916
3 842.148 1356965
3 842.148 1355018
3 842.148 1340049
3 842.148 1339616
3 842.65 1336088
3 843.13 1333614
3 843.13 1329030
3 843.649 1325102
3 844.629 1325036
3 844.629 1323941
3 845.138 1321752
3 845.138 1321507
3 847.624 1316427
3 848.577 1316251
3 850.778 1315451
3 854.416 1449902
3 854.416 1426321
3 854.416 1411363
3 854.416 1405848
3 854.416 1404439
3 854.416 1403348
3 855.078 1402528
3 855.078 1401711
3 855.078 1400302
3 855.078 1396034
3 855.916 1393130
3 855.916 1375311
3 855.916 1369925
3 855.916 1369301
3 855.916 1364923
3 856.771 1362082
3 856.771 1358780
3 857.583 1358464
3 857.583 1356555
3 857.583 1356317
3 857.583 1356259
3 858.26 1355252
3 858.26 1354684
3 858.73 1354497
3 858.73 1343857
3 858.73 1343433
3 859.208 1342666
3 859.669 1342574
3 860.133 1339826
3 860.133 1339494
3 860.718 1335196
3 860.718 1333597
3 861.516 1332793
3 861.516 1332072
3 861.516 1330497
3 863.676 1328689
3 863.676 1326910
3 864.281 1325423
3 865.786 1323715
3 865.786 1322505
3 866.578 1322135
3 866.578 1321768
3 868.151 1417344
3 868.151 1413236
3 868.151 1409483
3 868.151 1407650
3 868.151 1399693
3 868.151 1398313
3 868.151 1393920
3 868.151 1375417
3 869.042 1367702
3 869.042 1367457
3 869.042 1366070
3 869.87 1365646
3 871.466 1361705
3 871.466 1360944
3 874.485 1353990
3 874.485 1350818
3 874.485 1346784
3 882.126 1471681
3 882.126 1460775
3 882.126 1421996
3 882.126 1418545
3 882.126 1385841
3 882.126 1380760
3 882.126 1380156
3 882.126 1360361
3 882.126 1359037
3 882.126 1358170
3 882.126 1357571
3 882.745 1357012
3 882.745 1355124
3 882.745 1353467
3 882.745 1353398
3 883.285 1352581
3 883.285 1352196
3 883.285 1350223
3 883.285 1348752
3 883.285 1347868
3 883.285 1329238
3 883.285 1322468
3 883.285 1313723
3 883.921 1313587
3 883.921 1312175
3 884.504 1308437
3 885.163 1308414
3 887.365 1308078
3 887.365 1306242
3 888.791 1305110
3 896.411 1452625
3 896.411 1446983
3 896.411 1439026
3 896.411 1437019
3 896.411 1434689
3 896.411 1431546
3 896.411 1426163
3 897.044 1416335
3 897.044 1415380
3 897.044 1414255
3 897.044 1413382
3 897.7 1408798
3 897.7 1400048
3 898.232 1399656
3 898.232 1399136
3 899.397 1390632
3 900.194 1389559
3 900.194 1383917
3 900.194 1380905
3 900.979 1378941
3 900.979 1376920
3 900.979 1376321
3 901.495 1371606
3 901.495 1369976
3 902.647 1369293
3 902.647 1368898
3 902.647 1366361
3 903.229 1366116
3 903.229 1364468
3 903.229 1360981
3 903.709 1358826
3 910.26 1446789
3 910.26 1432751
3 910.26 1432454
3 910.26 1431682
3 910.26 1425085
3 910.26 1422862
3 910.26 1418667
3 911.157 1417949
3 911.157 1412965
3 911.157 1412897
3 911.986 1406720
3 911.986 1405019
3 911.986 1400106
3 912.812 1397751
3 912.812 1389104
3 912.812 1383818
3 912.812 1382000
3 912.812 1379129
3 913.661 1375124
3 913.661 1372077
3 913.661 1370656
3 914.48 1369702
3 914.48 1368317
3 915.281 1366435
3 916.076 1365481
3 916.851 1362480
3 916.851 1362015
3 916.851 1360803
3 916.851 1359596
3 917.679 1359351
3 917.679 1350880
3 917.679 1348837
3 917.679 1348592
3 918.492 1344805
3 919.296 1341962
3 920.088 1340582
3 924.706 1421670
3 924.706 1393753
3 924.706 1393508
3 924.706 1389629
3 924.706 1387299
3 924.706 1385214
3 924.706 1382610
3 924.706 1379220
3 925.601 1372337
3 925.601 1370007
3 925.601 1363735
3 925.601 1359342
3 926.4 1358525
3 926.4 1358471
3 927.908 1357151
3 928.369 1356727
3 928.853 1353222
3 929.322 1349790
3 931.635 1348973
3 934.488 1348735
3 936.742 1345821
3 937.511 1345366
3 938.272 1424433
3 938.272 1415525
3 938.272 1415245
3 938.272 1414995
3 938.272 1408312
3 938.272 1398663
3 938.272 1396139
3 938.272 1386999
3 939.158 1370964
3 939.158 1370895
3 939.158 1370096
3 939.158 1369360
3 939.158 1369119
3 939.996 1368991
3 939.996 1365042
3 939.996 1361563
3 939.996 1361314
3 939.996 1360497
3 940.914 1358100
3 940.914 1354105
3 940.914 1348777
3 940.914 1347220
3 940.914 1346944
3 941.824 1346683
3 941.824 1341770
3 941.824 1341435
3 941.824 1340902
3 942.582 1340454
3 942.582 1339732
3 942.582 1334748
3 942.582 1334324
3 943.304 1333272
3 943.304 1330711
3 943.304 1330100
3 944.313 1329541
3 944.313 1328161
3 944.894 1326673
3 945.432 1325980
3 945.432 1325583
3 945.432 1324002
3 946.21 1323380
3 946.21 1323185
3 947.829 1320775
3 947.829 1320216
3 952.378 1470155
3 952.378 1457428
3 952.378 1439732
3 952.378 1426435
3 952.378 1426011
3 952.378 1412654
3 952.378 1400794
3 952.378 1399895
3 952.378 1392882
3 952.378 1372449
3 953.313 1369029
3 953.313 1353255
3 953.313 1350220
3 954.177 1348003
3 954.177 1344226
3 954.177 1342214
3 954.177 1338530
3 954.177 1337034
3 955.792 1336084
3 955.792 1332986
3 955.792 1329817
3 955.792 1327480
3 956.6 1325984
3 966.385 1454888
3 966.385 1452131
3 966.385 1452062
3 966.385 1451917
3 966.385 1424723
3 966.385 1420481
3 966.385 1419081
3 966.385 1413901
3 966.385 1410779
3 966.385 1378388
3 966.385 1373475
3 966.385 1370287
3 967.168 1369334
3 967.168 1368587
3 967.168 1367855
3 967.95 1360833
3 968.718 1350818
3 968.718 1348206
3 969.495 1347511
3 969.495 1347420
3 969.495 1345326
3 971.958 1344728
3 971.958 1344348
3 971.958 1343384
3 980.123 1462792
3 980.123 1451337
3 980.123 1436760
3 980.123 1424963
3 980.123 1413928
3 980.123 1405921
3 981.022 1405852
3 981.022 1405359
3 981.898 1402924
3 981.898 1401544
3 981.898 1392440
3 982.718 1386798
3 982.718 1385981
3 982.718 1384976
3 982.718 1366219
3 982.718 1364044
3 983.601 1363620
3 983.601 1358196
3 983.601 1356526
3 984.339 1352992
3 984.339 1348697
3 985.099 1347332
3 989.733 1346095
3 989.733 1345671
3 989.733 1345342
3 989.733 1337941
3 989.733 1335611
3 990.613 1335366
3 990.613 1330559
3 992.738 1329677
3 992.738 1328250
3 993.263 1328005
3 993.742 1327282
3 993.742 1327102
3 994.224 1506208
3 994.224 1499195
3 994.224 1475257
3 994.224 1467699
3 994.224 1465456
3 994.224 1444097
3 994.224 1439407
3 994.224 1434400
3 994.224 1427387
3 994.224 1421393
3 994.918 1419631
3 994.918 1417974
3 994.918 1417157
3 995.481 1414419
3 995.481 1399786
3 995.481 1394852
3 996.104 1393044
3 996.104 1390235
3 996.104 1388762
3 996.687 1385651
3 996.687 1381595
3 997.312 1370279
3 997.312 1366416
3 997.312 1365469
3 997.312 1359637
3 997.312 1357781
3 997.312 1355390
3 997.312 1348653
3 998.13 1346711
3 999.925 1344381
3 1001.52 1343556
3 1001.52 1342960
3 1008.21 1453359
3 1008.21 1437449
3 1008.21 1437204
3 1008.21 1406989
3 1008.21 1402505
3 1008.21 1393828
3 1008.21 1391555
3 1008.21 1390815
3 1008.21 1387532
3 1008.81 1385852
3 1008.81 1381928
3 1008.81 1380197
3 1008.81 1376036
3 1008.81 1375968
3 1008.81 1372635
3 1008.81 1372261
3 1008.81 1372211
3 1009.45 1371702
3 1009.45 1371103
3 1009.92 1369723
3 1010.6 1368973
3 1010.6 1363478
3 1010.6 1362699
3 1011.42 1359191
3 1011.42 1358767
3 1012.22 1352511
3 1012.22 1351843
3 1012.22 1344508
3 1013.04 1336754
3 1013.04 1336405
3 1013.04 1335981
3 1013.04 1334461
3 1022.07 1443141
3 1022.07 1442404
3 1022.07 1414073
3 1022.07 1402921
3 1022.07 1390504
3 1022.07 1389687
1 1022.07 1389636
3 1022.07 1373442
3 1022.07 1373270
3 1022.07 1365589
3 1022.07 1363812
3 1022.07 1358899
3 1022.07 1358433
3 1023.06 1356285
3 1023.83 1355608
3 1024.47 1355142
3 1024.47 1354165
3 1024.47 1350353
3 1024.98 1345336
3 1024.98 1345091
3 1025.47 1344214
3 1025.47 1340683
3 1025.47 1337967
3 1025.96 1336099
3 1026.6 1332907
3 1027.19 1332719
3 1027.88 1328016
3 1027.88 1325847
3 1027.88 1321927
3 1035.05 1321263
3 1036.05 1407074
3 1036.05 1402432
3 1036.05 1400112
3 1036.05 1395626
3 1036.05 1390840
3 1036.05 1389461
3 1036.05 1381470
3 1036.05 1374632
3 1036.7 1372535
3 1037.24 1368358
3 1037.24 1363137
3 1037.24 1362290
3 1037.24 1359755
3 1037.85 1359236
3 1037.85 1346850
3 1037.85 1346081
3 1037.85 1343225
3 1038.81 1342739
3 1039.34 1342550
3 1039.34 1341991
3 1039.34 1341729
3 1041.96 1341078
3 1043.72 1341027
3 1043.72 1340833
3 1046.82 1337258
3 1050.59 1434027
3 1050.59 1405995
1 1050.59 1402279
3 1050.59 1400583
3 1050.59 1383393
3 1050.59 1383236
3 1050.59 1383063
3 1050.59 1377399
3 1051.48 1373682
3 1051.48 1372263
3 1051.48 1370730
3 1051.48 1370596
3 1051.48 1367825
3 1051.48 1365832
3 1051.48 1365015
3 1051.48 1363596
3 1052.36 1363490
3 1052.36 1356606
3 1052.97 1355961
3 1052.97 1355015
3 1052.97 1350164
3 1052.97 1349775
3 1054.33 1349740
3 1055.02 1347737
3 1055.02 1347668
3 1056 1346686
3 1056 1346262
3 1056 1338850
3 1057.61 1338680
3 1058.38 1335326
3 1058.38 1332460
3 1058.38 1332323
3 1059.04 1329522
3 1059.04 1328842
3 1059.04 1328705
3 1059.65 1325123
3 1059.65 1320025
3 1061.15 1317799
3 1064.29 1424494
3 1064.29 1423935
3 1064.29 1414927
3 1064.29 1406944
3 1064.29 1402555
3 1064.29 1398956
3 1064.29 1390441
3 1064.29 1379938
3 1064.87 1372797
3 1064.87 1371319
3 1064.87 1371268
3 1065.5 1368250
3 1065.5 1361660
3 1065.5 1360675
3 1065.5 1360251
3 1065.5 1358906
3 1065.5 1356667
3 1066.81 1354064
3 1067.32 1350734
3 1067.32 1350094
3 1067.32 1347373
3 1067.32 1345856
3 1067.87 1344074
3 1067.87 1341831
3 1067.87 1340038
3 1067.87 1339336
3 1068.85 1339161
3 1068.85 1338344
3 1069.78 1337704
3 1069.78 1335513
3 1070.25 1331905
3 1070.25 1331598
3 1070.25 1331578
3 1070.74 1330600
3 1076.28 1330471
3 1076.28 1330226
3 1076.82 1329005
3 1078.22 1441810
3 1078.22 1437943
3 1078.22 1425280
3 1078.22 1411793
3 1078.22 1403046
3 1078.22 1384701
3 1078.22 1383123
3 1078.22 1382878
3 1078.22 1373206
3 1078.82 1364029
3 1078.82 1359169
3 1078.82 1358610
3 1078.82 1353527
3 1079.31 1351564
3 1079.31 1346378
3 1079.79 1346090
3 1079.79 1344170
3 1079.79 1343676
3 1079.79 1342504
3 1079.79 1342080
3 1082.41 1339023
3 1082.41 1335585
3 1082.41 1335340
3 1084.9 1330545
3 1084.9 1329461
3 1085.69 1328151
3 1085.69 1327131
3 1085.69 1326771
3 1085.69 1321858
3 1086.5 1321796
3 1091.59 1319584
3 1092.07 1518015
3 1092.07 1513326
3 1092.07 1488654
3 1092.07 1484584
3 1092.07 1465066
3 1092.07 1455938
3 1092.07 1426464
3 1092.07 1426429
3 1092.07 1410870
3 1092.69 1401986
3 1093.17 1386554
3 1093.17 1379704
3 1093.17 1371072
3 1093.17 1359786
3 1093.17 1349107
3 1093.74 1346777
3 1094.21 1346139
3 1094.79 1345402
3 1096.31 1344562
3 1096.31 1344138
3 1097.14 1336801
3 1097.14 1334471
3 1101.52 1331257
3 1101.52 1322122
3 1101.52 1319157
3 1102.01 1318733
3 1102.01 1315234
3 1103.16 1314850
3 1105.57 1310664
3 1105.57 1308634
3 1106.09 1457405
3 1106.09 1454253
3 1106.09 1422306
3 1106.09 1406854
3 1106.09 1403112
3 1106.09 1389444
3 1106.09 1387114
3 1106.09 1387064
3 1106.09 1384959
3 1106.65 1384729
3 1106.65 1379525
3 1106.65 1379273
3 1106.65 1379229
3 1106.65 1377491
3 1106.65 1372934
3 1106.65 1369007
3 1107.49 1343631
3 1107.49 1339523
3 1107.49 1334834
3 1108.18 1334385
3 1108.18 1333773
3 1108.18 1328756
3 1108.66 1327939
3 1108.66 1326889
3 1108.66 1326381
3 1120.4 1484889
3 1120.4 1460181
3 1120.4 1454105
3 1120.4 1437716
3 1120.4 1433346
3 1120.4 1432125
3 1120.4 1420125
3 1120.4 1420099
3 1120.4 1419304
3 1120.4 1398629
3 1120.4 1397853
3 1120.4 1383618
3 1120.4 1366340
3 1120.4 1361264
3 1121.49 1360085
3 1121.49 1359437
3 1121.49 1354524
3 1122.3 1352574
3 1123.28 1349793
3 1123.28 1349369
3 1123.28 1346719
3 1124.09 1344431
3 1124.09 1340388
3 1124.09 1337266
3 1124.09 1334225
3 1125.17 1332824
3 1125.17 1327836
3 1125.17 1327285
3 1125.76 1323492
3 1125.76 1318318
3 1125.76 1318202
3 1127.47 1316784
3 1128.24 1312461
3 1128.24 1312264
3 1129.01 1311447
3 1129.01 1310131
3 1129.78 1308830
3 1130.53 1308406
3 1134.24 1441522
3 1134.24 1441098
3 1134.24 1434771
3 1134.24 1431417
3 1134.24 1429858
3 1134.24 1420999
3 1135.15 1415552
3 1135.93 1412722
3 1135.93 1410810
3 1135.93 1403804
3 1136.84 1403095
3 1136.84 1402431
3 1137.77 1402007
3 1138.58 1399499
3 1138.58 1391194
3 1139.17 1378868
3 1139.17 1374840
3 1139.17 1373460
3 1147.95 1368414
3 1148.77 1430601
3 1148.77 1428448
3 1148.77 1409958
3 1148.77 1397474
3 1148.77 1396253
3 1149.55 1377272
3 1149.55 1361224
3 1149.55 1360685
3 1149.55 1359835
3 1149.55 1351062
3 1150.07 1351018
3 1150.07 1348042
3 1150.07 1345455
3 1150.58 1342394
3 1150.58 1341295
3 1150.58 1340871
3 1153.65 1339258
3 1162.34 1494079
1 1162.34 1492902
3 1162.34 1476786
3 1162.34 1470250
3 1162.34 1470192
3 1162.34 1459400
3 1162.34 1440910
3 1162.34 1431782
3 1162.34 1426933
3 1162.34 1415817
3 1162.34 1405779
3 1162.34 1404986
3 1162.34 1404747
3 1163.33 1392286
3 1163.33 1390713
3 1164.17 1387198
3 1164.17 1380872
3 1164.17 1371979
3 1164.17 1368750
3 1164.17 1354603
3 1164.17 1352796
3 1164.17 1351903
3 1164.73 1349437
3 1164.73 1348975
3 1164.73 1347348
3 1165.28 1345968
3 1166.25 1345057
3 1166.25 1344718
3 1166.75 1340997
3 1166.75 1336806
3 1167.56 1334508
3 1168.12 1334084
3 1176.74 1441506
3 1176.74 1421719
3 1176.74 1420534
3 1176.74 1412839
3 1176.74 1408893
3 1176.74 1402370
3 1176.74 1396970
3 1176.74 1396153
3 1176.74 1395362
3 1176.74 1387380
3 1176.74 1385027
3 1176.74 1383626
3 1176.74 1380578
3 1177.61 1377034
3 1177.61 1374063
3 1177.61 1366146
3 1178.4 1366106
3 1178.4 1364576
3 1178.4 1360844
3 1178.4 1358277
3 1179.22 1356676
3 1180.02 1352378
3 1180.02 1346736
3 1180.65 1341124
3 1188.21 1336226
3 1189.15 1335616
3 1189.15 1335374
3 1189.15 1327937
3 1189.65 1326275
3 1189.65 1325053
3 1189.65 1323114
3 1190.19 1427958
3 1190.19 1422587
3 1190.19 1401694
3 1190.19 1395208
3 1190.19 1394784
3 1190.19 1393848
3 1190.19 1390798
3 1190.79 1388468
3 1190.79 1385891
3 1190.79 1384339
3 1191.47 1382943
3 1191.47 1370381
3 1191.47 1370267
3 1191.47 1366451
3 1191.47 1363299
3 1191.47 1360533
3 1192.19 1355844
3 1192.19 1355148
3 1192.19 1352818
3 1192.19 1348854
3 1192.19 1326075
3 1192.75 1323023
3 1192.75 1322167
3 1193.23 1318218
3 1193.23 1317973
3 1194.61 1317468
3 1204.24 1472964
3 1204.24 1460621
3 1204.24 1440914
3 1204.24 1429327
3 1204.24 1418431
3 1204.24 1412789
3 1204.24 1412754
3 1204.24 1405749
3 1204.99 1404753
3 1204.99 1403936
3 1205.46 1396855
3 1205.92 1394789
3 1206.38 1386063
3 1206.38 1382499
3 1206.38 1381255
3 1206.91 1376756
3 1206.91 1376282
3 1207.39 1371843
3 1207.39 1371169
3 1207.39 1367545
3 1208.13 1362029
3 1208.13 1356977
3 1208.9 1356660
3 1209.53 1355387
3 1209.98 1355353
3 1209.98 1353973
3 1209.98 1353475
3 1209.98 1351761
3 1209.98 1348899
3 1210.49 1348263
3 1210.49 1348156
3 1210.49 1347495
3 1211.04 1347071
3 1211.04 1345047
3 1211.04 1344488
3 1211.51 1343564
3 1216.01 1343404
3 1216.01 1338820
3 1218.06 1522058
3 1218.06 1517175
3 1218.06 1501251
3 1218.06 1467221
3 1218.06 1464632
3 1218.06 1457297
3 1218.59 1446505
3 1218.59 1442831
3 1218.59 1433939
3 1218.59 1427945
3 1219.09 1421706
3 1219.09 1419529
3 1219.09 1407938
3 1219.84 1405608
3 1220.51 1394677
3 1221.6 1392965
3 1222.4 1386766
3 1222.4 1377756
3 1223.22 1377681
3 1223.22 1368699
3 1223.22 1360761
3 1224.05 1358756
3 1224.05 1355419
3 1224.05 1351090
3 1224.05 1350191
3 1224.05 1348412
3 1224.05 1344581
3 1224.05 1343991
3 1224.96 1343201
3 1225.53 1340688
3 1225.53 1339703
3 1225.53 1338702
3 1225.53 1338185
3 1225.53 1337965
3 1226.08 1334273
3 1226.08 1333456
3 1228.5 1332210
3 1228.5 1331126
3 1232.51 1505029
3 1232.51 1493534
3 1232.51 1491291
3 1232.51 1465566
3 1232.51 1454063
3 1232.51 1450832
3 1232.51 1432044
3 1232.51 1412038
3 1232.51 1402208
3 1232.51 1398590
3 1232.51 1393776
3 1232.51 1384865
3 1232.51 1384306
3 1233.49 1379752
3 1233.94 1378078
3 1233.94 1377422
3 1234.46 1375588
3 1234.46 1374919
3 1234.46 1370308
3 1234.46 1362802
3 1234.46 1361366
3 1234.96 1360100
3 1234.96 1357478
3 1234.96 1356080
3 1234.96 1350144
3 1235.61 1349132
3 1236.37 1346864
3 1237.14 1344545
3 1237.14 1343560
3 1237.98 1343324
3 1239.52 1338161
3 1239.52 1337737
3 1240.31 1334184
3 1241.06 1333308
3 1241.81 1331928
3 1246.51 1451108
3 1246.51 1425239
3 1246.51 1417915
3 1246.51 1410110
3 1246.51 1396091
3 1246.51 1383299
3 1247.45 1377736
3 1247.45 1370520
3 1247.45 1361431
3 1247.45 1357360
3 1247.45 1348535
3 1247.45 1348184
3 1248.3 1347608
3 1248.3 1345278
3 1248.3 1341031
3 1248.3 1335183
3 1248.3 1334366
3 1249.7 1332030
3 1249.7 1328159
3 1249.7 1327735
3 1249.7 1320617
3 1250.55 1318372
3 1253.73 1317917
3 1253.73 1317293
3 1254.3 1316812
3 1254.3 1314614
3 1255.22 1314245
3 1255.68 1313333
3 1256.13 1312977
3 1256.76 1312368
3 1260.53 1424367
3 1260.53 1409616
3 1260.53 1403952
3 1261.37 1397126
3 1261.37 1390010
3 1261.37 1386586
3 1261.37 1377458
3 1261.37 1375141
3 1261.37 1374219
3 1261.37 1373795
3 1261.37 1369460
3 1261.37 1365895
3 1262.3 1364920
3 1262.3 1364103
3 1262.3 1355103
3 1262.3 1354963
3 1262.3 1354354
3 1263.13 1352860
3 1263.72 1349424
3 1264.17 1349233
3 1264.17 1348762
3 1264.17 1342550
3 1265.59 1337354
3 1266.06 1336863
3 1266.63 1336066
3 1266.63 1335111
3 1268.77 1334414
3 1270.65 1333437
3 1270.65 1333403
3 1270.65 1329830
3 1271.5 1326577
3 1274.12 1429807
3 1274.12 1424051
3 1274.12 1419467
3 1274.12 1418011
3 1274.12 1411074
3 1274.12 1405517
3 1275.02 1404700
3 1275.02 1402464
3 1275.02 1401947
3 1275.02 1401084
3 1275.79 1397583
3 1275.79 1391663
3 1275.79 1380871
3 1275.79 1378086
3 1275.79 1377834
3 1276.34 1370156
3 1276.34 1363107
3 1276.34 1358699
3 1276.34 1356732
3 1277.87 1354401
3 1282.17 1353710
3 1282.69 1352731
3 1282.69 1351487
3 1283.33 1351067
3 1283.84 1350508
3 1284.37 1348323
3 1284.86 1344582
3 1288.47 1428775
3 1288.47 1423212
3 1288.47 1418628
3 1288.47 1418226
3 1288.47 1414745
3 1288.47 1411649
3 1288.47 1408727
3 1288.47 1404973
3 1289.19 1393478
3 1289.19 1391050
3 1289.19 1384249
3 1289.19 1379560
3 1289.86 1379415
3 1290.32 1377415
3 1290.32 1376717
3 1290.94 1372342
3 1291.51 1367480
3 1291.51 1360565
3 1292.15 1358392
3 1292.68 1354948
3 1293.25 1354131
3 1293.25 1349885
3 1293.25 1348408
3 1293.74 1347825
3 1293.74 1343900
3 1294.23 1343688
3 1294.23 1342293
3 1294.23 1341869
3 1295.15 1341292
3 1295.15 1340475
3 1302.6 1545192
3 1302.6 1481025
3 1302.6 1480466
3 1302.6 1420598
3 1302.6 1417025
3 1302.6 1412159
3 1302.6 1411125
3 1302.6 1389946
3 1302.6 1387513
3 1302.6 1383329
3 1302.6 1378749
3 1302.6 1378149
3 1303.56 1377369
3 1303.56 1369889
3 1303.56 1364976
3 1303.56 1364552
3 1303.56 1360835
3 1303.56 1359398
3 1304.55 1356586
3 1304.55 1352085
3 1305.51 1350118
3 1305.51 1349162
3 1306.23 1349093
3 1307.67 1342557
3 1307.67 1336899
3 1307.67 1324362
3 1308.53 1318869
3 1308.53 1318052
3 1308.53 1315722
3 1308.53 1313159
3 1309.37 1310016
3 1310.18 1309909
3 1312.9 1309060
3 1313.46 1308636
3 1316.25 1426765
3 1316.25 1421613
3 1316.25 1416050
3 1316.25 1415403
3 1316.25 1404985
3 1316.25 1404168
3 1316.25 1399479
3 1316.25 1390729
3 1316.25 1386868
3 1316.25 1379040
3 1316.95 1376797
3 1316.95 1372133
3 1316.95 1371134
3 1316.95 1370907
3 1316.95 1363134
3 1317.49 1362710
3 1317.49 1350422
3 1317.95 1341294
3 1317.95 1336457
3 1318.42 1335425
3 1319.86 1335077
3 1326.7 1333121
3 1330.19 1416765
3 1330.19 1398072
3 1330.19 1392251
3 1330.19 1390959
3 1330.19 1388100
3 1330.19 1385317
3 1330.19 1379714
3 1330.19 1374060
3 1331.08 1371730
3 1331.08 1371710
3 1331.08 1371465
3 1331.56 1364027
3 1331.56 1360876
3 1331.56 1358964
3 1331.56 1357584
3 1331.56 1357504
3 1331.56 1349010
3 1332.1 1344097
3 1332.1 1344091
3 1333.02 1340553
3 1333.02 1340129
3 1333.51 1337875
3 1333.98 1336477
3 1333.98 1335097
3 1334.49 1331944
3 1335.25 1330746
3 1338.8 1329761
3 1338.8 1329337
3 1344.08 1489767
3 1344.08 1467721
3 1344.08 1420304
3 1344.08 1418712
3 1344.08 1401965
3 1344.08 1397241
3 1344.08 1389275
3 1344.08 1387473
3 1344.08 1386465
3 1344.08 1373778
3 1344.08 1369277
3 1345.06 1356055
3 1345.68 1355537
3 1346.15 1350475
3 1346.15 1344481
3 1347.47 1334329
3 1348.24 1333138
3 1348.24 1332691
3 1348.24 1331503
3 1348.24 1329265
3 1348.89 1328341
3 1348.89 1325319
3 1350.79 1319563
3 1351.4 1315963
3 1358.09 1520874
3 1358.09 1485801
3 1358.09 1461248
3 1358.09 1454823
3 1358.09 1454264
3 1358.09 1453676
3 1358.09 1449680
3 1358.09 1438422
3 1358.09 1432565
3 1358.09 1417798
3 1358.09 1417155
3 1358.09 1405840
3 1358.09 1402364
3 1359.07 1378272
3 1359.07 1367566
3 1359.07 1367365
3 1359.07 1366714
3 1359.94 1365682
3 1359.94 1361111
3 1359.94 1356141
3 1360.79 1355305
3 1360.79 1353914
3 1361.59 1353355
3 1362.07 1351147
3 1362.58 1348522
3 1362.58 1345952
3 1362.58 1344260
3 1363.57 1343609
3 1367.62 1341339
3 1367.62 1336127
3 1368.42 1335703
3 1369.18 1334811
3 1369.18 1334567
3 1371.69 1332014
3 1372.15 1432099
3 1372.15 1431854
3 1372.15 1430074
3 1372.15 1425573
3 1372.15 1402120
3 1372.15 1397822
3 1372.15 1393700
3 1372.15 1383211
3 1372.15 1370254
3 1372.84 1367244
3 1372.84 1363499
3 1373.37 1362203
3 1373.37 1361893
3 1373.37 1350930
3 1373.37 1340304
3 1373.87 1338824
3 1373.87 1336581
3 1374.37 1335044
3 1374.37 1332724
3 1374.92 1331482
3 1375.4 1330394
3 1375.89 1329245
3 1375.89 1329000
3 1375.89 1325481
3 1377.76 1325189
3 1386.14 1478006
3 1386.14 1475381
3 1386.14 1449349
3 1386.14 1430859
3 1386.14 1414181
3 1386.14 1407489
3 1386.14 1404152
3 1387.07 1400490
3 1387.07 1392891
3 1387.07 1388256
3 1387.91 1386278
3 1388.71 1381978
3 1388.71 1381319
3 1388.71 1378900
3 1388.71 1377720
3 1389.59 1369742
3 1389.59 1369368
3 1390.39 1367412
3 1390.39 1364044
3 1390.39 1362633
3 1391.18 1357152
3 1391.18 1354308
3 1391.18 1353491
3 1400.44 1505056
3 1400.44 1504099
3 1400.44 1500452
3 1400.44 1496094
3 1400.44 1461358
3 1400.44 1460634
3 1400.44 1435752
3 1400.44 1433422
3 1401.08 1430398
3 1401.08 1408830
3 1401.08 1393033
3 1401.08 1387391
3 1401.08 1377955
3 1401.08 1377163
3 1401.08 1368900
3 1401.08 1365856
3 1401.65 1363981
3 1401.65 1350540
3 1401.65 1350059
3 1401.65 1348124
3 1402.3 1346417
3 1402.3 1345127
3 1406.17 1344535
3 1406.17 1344147
3 1406.17 1343112
3 1406.7 1342350
3 1406.7 1339569
3 1406.7 1339224
3 1408.68 1336894
3 1409.15 1336759
3 1409.15 1335366
3 1410.1 1335271
3 1410.1 1334913
3 1410.1 1332351
3 1410.6 1331490
3 1410.6 1330519
3 1411.18 1329684
3 1411.66 1329364
3 1413.04 1329165
3 1414.12 1461354
3 1414.12 1454822
3 1414.12 1443996
3 1414.12 1431282
3 1414.12 1416444
3 1414.12 1413573
3 1414.12 1411243
3 1414.12 1402374
3 1414.12 1398392
3 1414.82 1396366
3 1414.82 1394900
3 1414.82 1392219
3 1414.82 1391402
3 1414.82 1385696
3 1414.82 1385137
3 1416.48 1380778
3 1417.32 1377606
3 1417.32 1375363
3 1417.32 1374835
3 1417.32 1356194
3 1417.32 1353184
3 1417.32 1349138
3 1418.17 1348485
3 1418.17 1342132
3 1418.96 1340752
3 1418.96 1338354
3 1419.77 1337219
3 1421.58 1337183
3 1423.86 1336932
3 1425.39 1336460
3 1425.39 1335901
3 1425.39 1335839
3 1428.47 1443439
3 1428.47 1425178
3 1428.47 1416646
3 1428.47 1405715
3 1428.47 1387386
3 1428.47 1382048
3 1428.47 1377359
3 1428.47 1376906
3 1428.47 1374352
3 1428.47 1372876
3 1429.43 1368262
3 1429.43 1364388
3 1429.43 1364126
3 1430.26 1360124
3 1430.26 1359250
3 1430.26 1359075
3 1430.26 1356468
3 1431.09 1351948
3 1431.09 1349588
3 1431.09 1348771
3 1431.91 1348526
3 1431.91 1344301
3 1431.91 1342258
3 1432.74 1341895
3 1434.71 1341695
3 1434.71 1340875
3 1434.71 1337723
3 1438.29 1337111
3 1438.29 1332324
3 1438.76 1331900
3 1439.27 1331469
3 1442.39 1506260
3 1442.39 1499247
3 1442.39 1499178
3 1442.39 1495063
3 1442.39 1458617
3 1442.39 1453490
3 1442.39 1443684
3 1442.39 1422745
3 1442.39 1422493
3 1442.39 1417909
3 1443 1413220
3 1443 1410208
3 1443 1408828
3 1443 1397366
3 1443 1391250
3 1443 1389491
3 1443 1380200
3 1443.54 1378899
3 1443.54 1371219
3 1443.54 1366334
3 1443.54 1364703
3 1443.54 1363452
3 1443.54 1350912
3 1444.38 1350667
3 1445.17 1349502
3 1445.17 1348685
3 1445.17 1348452
3 1446 1346122
3 1446 1344027
3 1446.79 1336293
3 1446.79 1331837
3 1449.9 1330721
3 1450.67 1328166
3 1451.34 1325864
3 1452.01 1317043
3 1453.54 1316978
3 1453.54 1316789
3 1454.38 1316671
3 1456.1 1422227
3 1456.1 1417538
3 1456.1 1411896
3 1456.1 1400512
3 1456.1 1398846
3 1456.1 1387871
3 1456.65 1374952
3 1456.65 1362030
3 1456.65 1358929
3 1457.21 1353361
3 1457.21 1352386
3 1458.81 1349942
3 1458.81 1349790
3 1459.62 1343032
3 1459.62 1340888
3 1459.62 1339808
3 1460.46 1336781
3 1460.46 1334895
3 1461.26 1328050
3 1461.26 1326199
3 1463.62 1321713
3 1463.62 1321468
3 1470.78 1505286
3 1470.78 1503377
3 1470.78 1463635
3 1470.78 1463211
3 1470.78 1456269
3 1470.78 1453672
3 1470.78 1446735
3 1470.78 1444804
3 1470.78 1439162
3 1470.78 1429113
3 1470.78 1423466
3 1470.78 1410018
3 1470.78 1384080
3 1471.75 1381818
3 1471.75 1378031
3 1471.75 1370887
3 1471.75 1369749
3 1472.57 1369558
3 1472.57 1368337
3 1472.57 1367737
3 1472.57 1365307
3 1473.44 1358961
3 1473.44 1357183
3 1474.1 1352270
3 1474.55 1346072
3 1475.01 1344461
3 1475.01 1341245
3 1475.48 1340999
3 1476.08 1340575
3 1476.08 1340424
3 1476.56 1339865
3 1484.03 1456588
3 1484.03 1455156
3 1484.03 1427980
3 1484.03 1418199
3 1484.03 1413867
3 1484.03 1405117
3 1484.03 1401683
3 1484.03 1390752
3 1484.03 1390602
3 1484.97 1390450
3 1484.97 1384280
3 1484.97 1380408
3 1484.97 1380163
3 1484.97 1377376
3 1484.97 1376923
3 1484.97 1374210
3 1484.97 1369499
3 1485.7 1368418
3 1485.7 1367601
3 1485.7 1367302
3 1485.7 1363585
3 1485.7 1362344
3 1486.21 1361736
3 1486.21 1357204
3 1486.21 1352382
3 1487.72 1350139
3 1490.96 1349680
3 1490.96 1344991
3 1491.56 1343416
3 1493.02 1338308
3 1493.62 1337203
3 1495.16 1336863
3 1495.97 1336779
3 1498.18 1408955
3 1498.18 1405494
3 1498.18 1403290
3 1498.72 1395536
3 1498.72 1395329
3 1498.72 1392635
3 1498.72 1386745
3 1499.22 1377617
3 1499.22 1372011
3 1499.22 1371529
3 1499.22 1367894
3 1499.22 1362252
3 1499.81 1362102
3 1499.81 1358921
3 1500.29 1358898
1 1500.29 1358470
3 1500.94 1357266
3 1501.43 1357153
3 1501.43 1356842
3 1501.95 1352680
3 1501.95 1346390
3 1501.95 1343546
3 1502.49 1338962
3 1502.95 1335844
3 1503.91 1331540
3 1503.91 1328084
3 1503.91 1323914
3 1506.54 1323494
3 1506.54 1322677
3 1512.1 1440986
3 1512.1 1434145
3 1512.1 1431815
3 1512.1 1401148
3 1512.1 1400912
3 1512.1 1395482
3 1512.1 1395206
3 1512.1 1394231
3 1512.1 1394055
3 1512.8 1389144
3 1512.8 1375114
3 1512.8 1368198
3 1512.8 1363218
3 1512.8 1339661
3 1512.8 1337317
3 1513.51 1333937
3 1513.51 1333582
3 1516.08 1332447
3 1516.08 1331595
3 1517.38 1331580
3 1518.34 1330021
3 1526.46 1420706
3 1526.46 1409994
3 1526.46 1408601
3 1526.46 1397280
3 1526.46 1386580
3 1526.46 1371846
3 1526.46 1369516
3 1527.38 1368411
3 1527.38 1364848
3 1528.18 1360506
3 1528.95 1351768
3 1529.74 1351157
3 1533.35 1349103
3 1540.24 1499617
3 1540.24 1482536
3 1540.24 1457577
3 1540.24 1448009
3 1540.24 1442367
3 1540.24 1398185
3 1541.13 1395855
3 1541.13 1388818
3 1541.13 1379678
3 1541.13 1374765
3 1541.98 1373755
3 1542.8 1367723
3 1543.26 1360777
3 1543.26 1359988
3 1543.26 1356473
3 1543.73 1356228
3 1543.73 1355848
3 1543.73 1353876
3 1546.69 1352485
3 1547.46 1349546
3 1554.18 1479140
3 1554.18 1469035
3 1554.18 1463393
3 1554.18 1462567
3 1554.18 1429477
3 1554.79 1420704
3 1554.79 1408184
3 1554.79 1402962
3 1554.79 1398049
3 1555.31 1393652
3 1555.82 1393179
3 1556.63 1388595
3 1556.63 1383315
3 1556.63 1381405
3 1556.63 1373386
3 1558.29 1373340
3 1559.11 1372523
3 1562.59 1371241
3 1563.08 1363846
3 1564.5 1362745
3 1564.5 1361365
3 1565.04 1352713
3 1565.54 1352050
3 1565.54 1349579
3 1565.54 1348984
3 1566.1 1348519
3 1566.58 1344221
3 1568.07 1484680
3 1568.07 1476162
3 1568.07 1471608
3 1568.07 1469074
3 1568.07 1452958
3 1568.07 1448970
3 1568.07 1421995
3 1568.07 1421717
3 1568.07 1420846
3 1568.07 1418516
3 1568.07 1406213
3 1568.07 1403591
3 1568.67 1399766
3 1568.67 1391961
3 1568.67 1387066
3 1568.67 1386708
3 1568.67 1385895
3 1569.22 1379372
3 1569.22 1368938
3 1569.22 1366236
3 1569.22 1356937
3 1569.22 1356088
3 1569.85 1354976
3 1569.85 1350615
3 1569.85 1348931
3 1569.85 1347809
3 1571.17 1345602
3 1571.97 1344572
3 1572.74 1344148
3 1572.74 1342870
3 1573.61 1342768
3 1574.38 1339847
3 1574.38 1339776
3 1575.17 1339266
3 1577.46 1338925
3 1578.23 1334797
3 1578.23 1334647
3 1578.23 1333980
3 1579.03 1332199
3 1579.79 1331775
3 1582.05 1488709
3 1582.05 1480446
3 1582.05 1475389
3 1582.05 1469747
3 1582.05 1468951
3 1582.05 1460115
3 1582.05 1452807
3 1582.05 1444227
3 1582.05 1439286
3 1582.05 1431326
3 1582.05 1415210
3 1582.05 1398445
3 1582.05 1396949
3 1582.05 1390252
3 1583.04 1389214
3 1583.04 1388046
3 1583.04 1380464
3 1583.04 1379032
3 1583.04 1377700
3 1583.04 1369213
3 1583.92 1368101
3 1583.92 1367295
3 1583.92 1365399
3 1583.92 1365154
3 1583.92 1358937
3 1583.92 1356612
3 1583.92 1355745
3 1583.92 1354286
3 1584.85 1353142
3 1584.85 1349928
3 1584.85 1342991
3 1584.85 1342174
3 1584.85 1340727
3 1586.47 1340011
3 1586.47 1337426
3 1586.47 1337132
3 1587.28 1335877
3 1588.86 1335530
3 1589.68 1331376
3 1591.94 1328143
3 1591.94 1327671
3 1593.48 1326955
3 1594.22 1326218
3 1594.97 1326134
3 1596.45 1482926
3 1596.45 1450182
3 1596.45 1447455
3 1596.45 1432698
3 1596.45 1425905
3 1596.45 1406360
3 1596.45 1401167
3 1596.45 1396840
3 1596.45 1395350
3 1596.45 1390485
3 1596.45 1388813
3 1596.45 1386570
3 1596.45 1377392
3 1597.4 1373094
3 1597.4 1368405
3 1597.4 1368253
3 1598.19 1361905
3 1598.19 1361070
3 1598.98 1360253
3 1598.98 1359708
3 1598.98 1357718
3 1599.76 1350214
3 1600.51 1349790
3 1601.27 1342735
3 1601.27 1339993
3 1602.82 1339989
3 1603.59 1339852
3 1604.35 1337659
3 1605.24 1337538
3 1605.68 1337118
3 1610.03 1503190
3 1610.03 1470538
3 1610.03 1447175
3 1610.03 1442910
1 1610.03 1440274
3 1610.03 1433683
3 1610.03 1422777
3 1610.03 1420447
3 1610.03 1415770
3 1610.61 1410857
3 1610.61 1406067
3 1610.61 1390950
3 1610.61 1387798
3 1610.61 1384627
3 1610.61 1383220
3 1611.48 1377713
3 1611.48 1376703
3 1611.48 1369450
3 1611.48 1369026
3 1611.48 1368209
3 1612.43 1361705
3 1612.43 1359375
3 1612.43 1359232
3 1612.43 1358428
3 1613.88 1356551
3 1613.88 1355171
3 1613.88 1354612
3 1614.8 1352897
3 1617.21 1349737
3 1617.21 1347984
3 1617.68 1347318
3 1617.68 1344176
3 1617.68 1342168
3 1618.16 1342037
3 1618.16 1338279
3 1618.63 1337085
3 1618.63 1336526
3 1624.04 1555229
3 1624.04 1512697
3 1624.04 1465593
3 1624.04 1463230
3 1624.04 1461773
3 1624.04 1459575
3 1624.04 1459182
3 1624.04 1440591
3 1624.04 1435902
3 1624.04 1433701
3 1624.98 1423621
3 1624.98 1414784
3 1624.98 1408389
3 1624.98 1399639
3 1624.98 1386067
3 1624.98 1383523
3 1625.83 1371964
3 1625.83 1363108
3 1625.83 1356649
3 1625.83 1351074
3 1626.63 1347704
3 1627.43 1344062
3 1627.43 1339974
3 1628.25 1339157
3 1631.37 1338778
3 1632.44 1333671
3 1632.44 1332946
3 1632.44 1328923
3 1634.31 1328389
3 1635.24 1328101
3 1638.01 1466597
3 1638.01 1447178
3 1638.01 1428917
3 1638.01 1428742
3 1638.01 1421676
3 1638.01 1404947
3 1638.01 1401416
3 1638.01 1397118
3 1638.01 1386807
3 1638.59 1386107
3 1638.59 1382931
3 1638.59 1376979
3 1638.59 1370599
3 1638.59 1358855
3 1639.12 1358650
3 1639.12 1352867
3 1639.88 1350954
3 1639.88 1339684
3 1639.88 1336545
3 1640.98 1329354
3 1640.98 1327316
3 1640.98 1326813
3 1640.98 1325303
3 1641.65 1323535
3 1641.65 1323074
3 1642.43 1322666
3 1643.14 1322321
3 1643.69 1321005
3 1646.15 1320919
3 1652.05 1463158
3 1652.05 1458881
3 1652.05 1447453
3 1652.05 1443664
3 1652.05 1437426
3 1652.05 1434274
3 1652.05 1424142
3 1652.05 1416571
3 1652.73 1396053
3 1652.73 1393224
3 1652.73 1392800
3 1652.73 1392276
3 1652.73 1390117
3 1652.73 1388256
3 1652.73 1384114
3 1652.73 1373612
3 1653.31 1367317
3 1653.31 1361041
3 1653.31 1360354
3 1653.31 1354530
3 1653.31 1354054
3 1653.31 1353713
3 1653.82 1353468
3 1653.82 1352097
3 1653.82 1351203
3 1654.41 1347971
3 1654.41 1346481
3 1654.41 1342183
3 1659.13 1338200
3 1666.24 1427012
3 1666.24 1426195
3 1666.24 1418176
3 1666.24 1409540
3 1666.24 1408771
3 1666.24 1402482
3 1666.24 1400074
3 1667 1397958
3 1667 1393698
3 1667 1393374
3 1667 1391883
3 1667 1384063
3 1667 1375573
3 1667 1371294
3 1667 1367187
3 1667 1364857
3 1667.57 1364533
3 1667.57 1363907
3 1667.57 1363348
3 1667.57 1357841
3 1668.1 1356948
3 1668.1 1356370
3 1668.1 1354091
3 1668.1 1353173
3 1668.64 1346962
3 1668.64 1341320
3 1668.64 1337461
3 1669.16 1336553
3 1669.67 1331640
3 1670.57 1331395
3 1678.24 1328578
3 1678.24 1327081
3 1678.24 1322524
3 1679.06 1321573
3 1679.06 1320193
3 1679.06 1319948
3 1679.89 1319732
3 1679.89 1319624
3 1680.65 1427830
3 1680.65 1422006
3 1680.65 1421138
3 1680.65 1402877
3 1680.65 1396931
3 1680.65 1396372
3 1680.65 1391875
3 1680.65 1377925
3 1680.65 1373012
3 1680.65 1371632
3 1680.65 1363436
3 1680.65 1363288
3 1681.35 1350508
3 1681.35 1350084
3 1681.87 1346667
3 1681.87 1345786
3 1682.35 1344245
3 1682.88 1340915
3 1683.37 1340675
3 1683.37 1340361
3 1683.37 1339937
3 1683.37 1336950
3 1683.37 1335865
3 1683.37 1335672
3 1684.42 1333342
3 1684.42 1332918
3 1684.9 1329747
3 1685.4 1326486
3 1687.38 1324834
3 1687.38 1324592
3 1687.38 1324168
3 1694.31 1375051
3 1694.31 1368168
3 1694.31 1363131
3 1694.81 1355557
3 1694.81 1352010
3 1694.81 1350630
3 1694.81 1349796
3 1694.81 1349315
3 1695.32 1345740
3 1695.77 1344383
3 1695.77 1344360
3 1695.77 1343689
3 1696.68 1343543
3 1707.12 1343352
3 1708.5 1398486
3 1708.5 1398187
3 1708.5 1392798
3 1708.5 1391418
3 1708.5 1389097
3 1708.5 1386397
3 1709.03 1380745
3 1709.51 1377568
3 1709.51 1369968
3 1709.51 1369224
3 1709.51 1368319
3 1709.51 1368268
3 1709.51 1366048
3 1709.51 1345400
3 1709.51 1345333
3 1710.05 1344735
3 1710.54 1340668
3 1711.83 1338018
3 1711.83 1337803
3 1712.28 1334041
3 1712.28 1330683
3 1713.61 1330091
3 1714.18 1329789
3 1714.18 1329532
3 1722.18 1447688
3 1722.18 1445761
3 1722.18 1416140
3 1722.18 1394183
3 1722.18 1386052
3 1722.18 1381751
3 1722.18 1372623
3 1723.06 1364022
3 1723.06 1362726
3 1723.06 1359238
3 1723.06 1359001
3 1723.06 1351949
3 1723.06 1351170
3 1723.06 1348641
3 1723.06 1347744
3 1723.95 1343151
3 1723.95 1342906
3 1724.74 1340505
3 1724.74 1338419
3 1724.74 1334138
3 1724.74 1332002
3 1724.74 1331084
3 1725.24 1327089
3 1725.24 1325349
3 1725.76 1324375
3 1730.65 1323548
3 1731.13 1322791
3 1736.45 1519776
3 1736.45 1510648
3 1736.45 1505006
3 1736.45 1502297
3 1736.45 1494544
3 1736.45 1490923
3 1736.45 1480759
3 1737.52 1475243
3 1737.52 1452294
3 1737.52 1447996
3 1737.52 1437203
3 1737.52 1428193
3 1737.52 1416698
3 1737.52 1411056
3 1737.52 1406796
3 1737.52 1392993
3 1737.52 1388871
3 1737.52 1387278
3 1738.44 1382910
3 1738.44 1381530
3 1738.44 1377334
3 1738.44 1371692
3 1738.44 1361927
3 1738.44 1360755
3 1738.44 1353268
3 1739.3 1350529
3 1739.3 1349963
3 1739.3 1347404
3 1739.3 1338796
3 1739.3 1336968
3 1739.3 1333154
3 1740.73 1330939
3 1740.73 1328226
3 1740.73 1325646
3 1740.73 1325643
3 1741.42 1315413
3 1741.42 1314898
3 1741.42 1312348
3 1741.42 1309600
3 1741.96 1309041
3 1741.96 1307661
3 1749.4 1304797
3 1750.17 1507598
3 1750.17 1479262
3 1750.17 1459717
3 1750.17 1447041
3 1750.17 1411968
3 1750.17 1411544
3 1751.09 1395295
3 1751.09 1394982
3 1751.09 1390494
3 1751.09 1381091
3 1751.09 1369840
3 1751.09 1368554
3 1751.09 1368309
3 1751.92 1361398
3 1751.92 1357160
3 1751.92 1354917
3 1751.92 1353934
3 1752.4 1352649
3 1752.4 1350639
3 1753.06 1349470
3 1753.06 1348571
3 1753.06 1346241
3 1753.88 1343213
3 1753.88 1331457
3 1753.88 1331337
3 1754.73 1330887
3 1755.7 1329951
3 1756.7 1324387
3 1757.3 1323726
3 1757.8 1322098
3 1757.8 1320441
3 1757.8 1319061
3 1757.8 1314717
3 1757.8 1312936
3 1758.45 1312383
3 1758.45 1309002
3 1758.45 1306825
3 1758.45 1304971
3 1758.45 1304886
3 1764.54 1420628
3 1764.54 1411984
3 1764.54 1406342
3 1764.54 1405443
3 1764.54 1405074
3 1764.54 1403731
3 1764.54 1399918
3 1764.54 1380479
3 1765.42 1370583
3 1765.42 1370338
3 1765.42 1364205
3 1765.42 1359883
3 1765.42 1354480
3 1766.25 1350174
3 1766.25 1345352
3 1768.07 1343850
3 1768.07 1338656
3 1768.07 1338232
3 1768.55 1333716
3 1771.53 1329264
3 1771.53 1327579
3 1772.42 1327334
3 1772.42 1326940
3 1773.23 1326142
3 1774.18 1324075
3 1774.18 1314998
3 1774.18 1314975
3 1774.66 1314416
3 1775.61 1313372
3 1778.17 1445803
3 1778.17 1441028
3 1778.17 1430703
3 1778.17 1406670
3 1778.17 1406619
3 1778.17 1400879
3 1778.17 1394768
3 1778.17 1388892
3 1779.21 1384207
3 1779.21 1382522
3 1779.21 1367788
3 1779.84 1364636
3 1779.84 1347906
3 1780.4 1347193
3 1781.97 1338269
3 1782.77 1337420
3 1782.77 1336283
3 1783.86 1333685
3 1785.37 1332674
3 1785.37 1329633
3 1786.79 1327230
3 1786.79 1325561
3 1787.29 1322789
3 1792.04 1492227
3 1792.04 1486777
3 1792.04 1468516
3 1792.04 1442868
3 1792.04 1442787
3 1792.04 1437210
3 1792.58 1429804
3 1792.58 1423239
3 1792.58 1420676
3 1792.58 1416281
3 1793.09 1413219
3 1793.09 1410439
3 1793.09 1400979
3 1793.09 1398252
3 1793.09 1388742
3 1793.68 1386420
3 1793.68 1386262
3 1793.68 1385075
3 1794.18 1384635
3 1794.18 1382511
3 1794.18 1369631
3 1794.18 1366374
3 1794.69 1362225
3 1794.69 1357245
3 1796.09 1357045
3 1796.57 1353488
3 1796.57 1348295
3 1800.35 1346630
3 1800.35 1345925
3 1800.35 1344666
3 1801.2 1344313
3 1805.09 1338984
3 1805.09 1337497
3 1805.09 1335993
3 1805.9 1331945
3 1806.58 1463157
3 1806.58 1461133
3 1806.58 1456949
3 1806.58 1442999
3 1806.58 1424353
3 1807.16 1421654
3 1807.16 1419272
3 1807.16 1413289
3 1807.16 1413044
3 1807.16 1409261
3 1807.16 1404294
3 1807.97 1399647
3 1807.97 1398830
3 1808.67 1389026
3 1808.67 1388602
3 1808.67 1388493
3 1809.16 1386041
3 1809.16 1384661
3 1809.16 1379902
3 1809.16 1377696
3 1809.68 1376332
3 1809.68 1374290
3 1810.18 1371330
3 1810.18 1369119
3 1810.18 1366354
3 1810.18 1359991
3 1810.18 1350353
3 1810.18 1350210
3 1810.18 1349651
3 1810.18 1349406
3 1818.19 1335366
3 1818.19 1327775
3 1819 1327092
3 1820.52 1535382
1 1820.52 1518761
3 1820.52 1516431
3 1820.52 1505500
3 1820.52 1496372
3 1820.52 1472162
3 1820.52 1468248
3 1820.52 1463559
3 1820.52 1461831
3 1820.52 1457788
3 1820.52 1441162
3 1821.49 1432412
3 1821.49 1409865
3 1821.49 1407535
3 1821.49 1401513
3 1821.49 1400489
3 1821.49 1394945
3 1821.49 1390929
3 1822.24 1385800
3 1822.24 1374931
3 1822.24 1363360
3 1822.24 1357641
3 1822.86 1346849
3 1822.86 1342160
3 1823.44 1341636
3 1824.06 1338345
3 1824.64 1338100
3 1825.86 1337660
3 1826.93 1332659
3 1828.01 1331576
3 1828.78 1331152
3 1831.27 1329454
3 1831.79 1327839
3 1832.31 1318629
3 1832.31 1317122
3 1834.22 1441874
3 1834.22 1424480
3 1834.22 1421484
3 1834.22 1414817
3 1834.22 1405082
3 1834.22 1404265
3 1834.22 1398559
3 1834.22 1389105
3 1834.22 1388898
3 1834.22 1384293
3 1834.22 1374114
3 1834.22 1372839
1 1834.22 1366909
3 1835.42 1362972
3 1835.42 1362318
3 1836.22 1359231
3 1836.22 1355115
3 1836.22 1349903
3 1836.72 1343799
3 1837.17 1341683
3 1837.17 1341181
3 1837.17 1339096
3 1837.92 1337698
3 1837.92 1335450
3 1837.92 1333120
3 1837.92 1325376
3 1838.59 1323973
3 1839.04 1318331
3 1839.53 1316727
3 1839.53 1316394
3 1840.21 1313093
3 1841.06 1312195
3 1841.06 1312038
3 1841.06 1311793
3 1848.01 1454981
3 1848.01 1423330
3 1848.01 1422789
3 1848.01 1397404
3 1848.01 1394580
3 1848.93 1392818
3 1848.93 1388669
3 1848.93 1375312
3 1848.93 1374888
3 1848.93 1360938
3 1849.78 1354855
3 1849.78 1354296
3 1849.78 1353425
3 1849.78 1351858
3 1850.62 1351673
3 1851.42 1350856
3 1851.42 1349661
3 1852.22 1349555
3 1853 1341362
3 1853 1337972
3 1853 1336881
3 1854.6 1335266
3 1854.6 1334842
3 1855.4 1334717
3 1859.11 1333751
3 1862.12 1442323
3 1862.12 1429440
3 1862.12 1419239
3 1862.12 1413337
3 1862.12 1392914
3 1862.12 1385999
3 1862.12 1379812
3 1862.12 1378986
3 1862.12 1371062
3 1862.12 1362512
3 1862.7 1360131
3 1862.7 1355442
3 1862.7 1354625
3 1863.2 1353442
3 1863.2 1347127
3 1863.68 1340685
3 1863.68 1337231
3 1864.23 1336167
3 1866.25 1334780
3 1872.32 1334635
3 1873.08 1333120
3 1873.57 1330380
3 1873.57 1329220
3 1874.04 1325553
3 1874.04 1325367
3 1875.15 1324972
3 1875.15 1320940
3 1876.08 1483481
3 1876.08 1481946
3 1876.08 1455373
3 1876.08 1451287
3 1876.08 1444324
3 1876.08 1437387
3 1876.08 1404735
3 1876.08 1403867
3 1876.08 1400745
3 1876.72 1383059
3 1876.72 1377436
3 1876.72 1361469
3 1876.72 1358067
3 1876.72 1353769
3 1876.72 1341094
3 1876.72 1340170
3 1876.72 1338666
3 1877.31 1338242
3 1877.31 1338105
3 1877.31 1329355
3 1877.31 1326439
3 1878.82 1326275
3 1879.28 1326204
3 1880.01 1325113
3 1881.54 1324689
3 1883.86 1319849
3 1886.03 1316673
3 1886.03 1316380
3 1890.37 1409986
3 1890.37 1406221
3 1890.37 1401070
3 1890.37 1400290
3 1890.37 1397033
3 1890.37 1395629
3 1890.37 1389641
3 1890.37 1387736
3 1890.95 1385579
3 1890.95 1385447
3 1890.95 1383872
3 1890.95 1378230
3 1890.95 1377559
3 1890.95 1374081
3 1891.48 1373521
3 1891.48 1373279
3 1891.48 1371441
3 1891.98 1370716
3 1891.98 1370471
3 1891.98 1361642
3 1892.53 1357415
3 1892.53 1352702
3 1893.06 1349689
3 1893.06 1349444
3 1893.54 1349020
3 1893.99 1347599
3 1893.99 1347527
3 1893.99 1343861
3 1893.99 1343087
3 1894.48 1342834
3 1894.48 1342222
3 1894.95 1337906
3 1895.41 1336491
3 1896.3 1336242
3 1896.79 1336036
3 1897.97 1335130
3 1900.02 1333191
3 1901.61 1331208
3 1903.79 1329228
3 1904.25 1451918
3 1904.25 1440423
3 1904.25 1438986
3 1904.25 1436673
3 1904.25 1435421
3 1904.25 1433650
3 1904.25 1430528
3 1904.25 1419810
3 1904.25 1413792
3 1905.01 1408942
3 1905.81 1406412
3 1905.81 1403024
3 1905.81 1402827
3 1905.81 1399022
3 1906.62 1396925
3 1906.62 1390027
3 1906.62 1385338
3 1906.62 1379912
3 1906.62 1379771
3 1907.39 1372284
3 1907.39 1371860
3 1907.87 1363358
3 1908.34 1362381
3 1912.04 1361792
3 1912.04 1351669
3 1912.88 1350180
3 1914.57 1348209
3 1915.27 1347634
3 1915.27 1340252
3 1918.15 1453693
3 1918.15 1452437
3 1918.15 1437904
3 1918.15 1432967
3 1918.15 1420649
3 1918.15 1419804
3 1918.15 1410279
3 1918.15 1400408
3 1918.15 1399487
3 1918.78 1379265
3 1918.78 1373415
3 1918.78 1365510
3 1918.78 1362262
3 1918.78 1353512
3 1919.35 1346262
3 1919.35 1346254
3 1919.35 1343857
3 1919.85 1343579
3 1921.06 1338921
3 1921.06 1337937
3 1921.06 1337791
3 1921.06 1334601
3 1921.63 1330303
3 1924.83 1330013
3 1924.83 1328519
3 1924.83 1328095
3 1924.83 1323947
3 1932.01 1454784
3 1932.01 1449157
3 1932.01 1436950
3 1932.01 1436705
3 1932.01 1434646
3 1932.61 1426737
3 1932.61 1421747
3 1932.61 1416721
3 1933.12 1413984
3 1933.12 1410727
3 1933.63 1408254
3 1933.63 1406617
3 1933.63 1406166
3 1933.63 1402468
3 1933.63 1401862
3 1933.63 1394545
3 1934.17 1392578
3 1934.17 1389827
3 1934.17 1385782
3 1934.17 1379631
3 1935 1378028
3 1935 1377424
3 1935 1371683
3 1935 1366084
3 1935.81 1365839
3 1935.81 1361248
3 1935.81 1356913
3 1935.81 1356311
3 1935.81 1354756
3 1936.36 1350792
3 1937.17 1349114
3 1946.23 1435954
3 1946.23 1403150
3 1946.23 1401698
3 1946.23 1400164
3 1946.23 1395844
3 1946.23 1395599
3 1946.23 1387519
3 1947.31 1376742
3 1947.31 1372834
3 1947.31 1371937
3 1947.31 1365256
3 1947.31 1365116
3 1947.31 1360774
3 1948.18 1359394
3 1948.18 1358970
3 1948.98 1356193
3 1948.98 1353666
3 1948.98 1350078
3 1948.98 1349697
3 1949.79 1349273
3 1949.79 1349028
3 1951.31 1348969
3 1953.61 1347100
3 1954.38 1342411
3 1960.71 1406400
3 1960.71 1401439
3 1960.71 1397694
3 1960.71 1392299
3 1961.56 1391395
3 1961.56 1382000
3 1961.56 1380603
3 1961.56 1378847
3 1961.56 1375582
3 1961.56 1371696
3 1962.4 1370474
3 1962.4 1369366
3 1962.4 1369255
3 1962.4 1366646
3 1963 1364677
3 1963.58 1361746
3 1964.15 1355804
3 1964.93 1355185
3 1965.74 1352852
3 1967.31 1352607
3 1968.35 1350480
3 1968.35 1347706
3 1968.91 1347228
3 1972.35 1346612
3 1973.13 1342509
3 1973.13 1334552
3 1974.65 1484945
3 1974.65 1471351
3 1974.65 1469108
3 1974.65 1455078
3 1974.65 1454656
3 1975.51 1436395
3 1975.51 1426467
3 1975.51 1421814
3 1975.51 1421569
3 1975.51 1418460
3 1975.51 1417315
3 1976.37 1416756
3 1977.13 1410245
3 1977.68 1410000
3 1977.68 1407055
3 1977.68 1407036
3 1977.68 1402875
3 1978.27 1402316
3 1978.27 1393374
3 1978.27 1389640
3 1978.79 1376829
3 1978.79 1372359
3 1979.82 1369327
3 1979.82 1368961
3 1980.34 1366631
3 1980.87 1366618
3 1980.87 1366194
3 1980.87 1362834
3 1980.87 1362639
3 1980.87 1361942
3 1982.5 1356744
3 1983.09 1355769
3 1983.09 1354952
3 1984.53 1350305
3 1984.53 1349488
3 1984.53 1347525
3 1984.53 1347280
3 1984.53 1347099
3 1985.4 1341835
3 1985.4 1341411
3 1986.53 1340394
3 1987.25 1335610
3 1988.01 1425706
3 1988.01 1418503
3 1988.01 1417901
3 1988.01 1403320
3 1988.85 1393529
3 1988.85 1383758
3 1988.85 1362889
3 1988.85 1362513
3 1988.85 1362169
3 1988.85 1362072
3 1990.48 1361850
3 1990.48 1360616
3 1991.08 1353598
3 1991.08 1351954
3 1991.08 1348783
3 1992.58 1347715
3 1993.55 1345206
3 1994.9 1336538
3 1998.47 1335664
3 2002.18 1466052
3 2002.18 1457039
3 2002.18 1456925
3 2002.18 1450909
3 2002.18 1427933
3 2002.18 1427598
3 2002.18 1418933
3 2002.18 1398614
3 2002.18 1393285
3 2002.18 1388692
3 2002.18 1388133
3 2002.18 1383361
3 2003.06 1382276
3 2003.06 1379375
3 2003.06 1379293
3 2003.06 1377905
3 2003.06 1376717
3 2003.06 1369773
3 2003.06 1369669
3 2003.69 1369303
3 2003.69 1368873
3 2003.69 1364184
3 2003.69 1363440
3 2003.69 1360605
3 2004.52 1358402
3 2004.52 1357148
3 2004.52 1357072
3 2005.36 1353532
3 2005.36 1351746
3 2005.36 1351670
3 2005.36 1351153
3 2006.21 1349178
3 2006.21 1344609
3 2007.27 1342860
3 2008.5 1342301
3 2008.5 1342081
3 2009.02 1340513
3 2009.02 1337563
3 2009.02 1334490
3 2010.03 1329089
3 2011.49 1328171
3 2011.49 1324721
3 2011.49 1324297
3 2012.22 1317795
3 2012.22 1316978
3 2016.26 1444834
3 2016.26 1439069
3 2016.26 1435544
3 2016.26 1430408
3 2016.26 1429550
3 2016.26 1424733
3 2017.14 1413085
3 2017.14 1411415
3 2017.14 1407140
3 2017.14 1407117
3 2018.01 1405333
3 2018.01 1397716
3 2018.83 1392155
3 2018.83 1384616
3 2018.83 1383529
3 2018.83 1382509
3 2018.83 1378860
3 2018.83 1376622
3 2018.83 1374562
3 2018.83 1369991
3 2019.79 1359199
3 2020.69 1357027
3 2020.69 1355590
3 2020.69 1349948
3 2030.58 1431835
3 2030.58 1414983
3 2030.58 1403548
3 2030.58 1403115
3 2030.58 1401361
3 2030.58 1396493
3 2030.58 1393064
3 2030.58 1377904
3 2030.58 1369373
3 2030.58 1368921
3 2031.51 1367714
3 2031.51 1362934
3 2032.3 1358964
3 2032.3 1357292
3 2032.3 1353950
3 2033.14 1352438
3 2033.14 1351058
3 2033.92 1346145
3 2033.92 1345675
3 2035.53 1345369
3 2035.53 1344936
3 2036.84 1344176
3 2038.29 1339878
3 2038.29 1339696
3 2038.29 1338475
3 2038.83 1334965
3 2040.73 1334698
3 2043.32 1332254
3 2043.32 1329871
3 2044.12 1443692
3 2044.12 1439938
3 2044.12 1426595
3 2044.12 1423416
3 2044.12 1416560
3 2044.12 1409101
3 2045.01 1400496
3 2045.01 1396904
3 2045.01 1396560
3 2045.01 1386590
3 2045.01 1378537
3 2045.01 1373847
3 2045.65 1369263
3 2046.17 1356616
3 2046.17 1349631
3 2046.17 1348421
3 2047.03 1343637
3 2047.03 1336851
3 2048.51 1335943
3 2049.19 1333700
3 2049.19 1331642
3 2049.19 1331385
3 2050.36 1329233
3 2050.36 1326605
3 2050.95 1326039
3 2050.95 1325570
3 2051.52 1323178
3 2058.17 1474024
3 2058.17 1433310
3 2058.17 1425353
3 2058.17 1418670
3 2058.17 1415313
3 2058.17 1409319
3 2058.17 1403021
3 2058.85 1401984
3 2058.85 1388254
3 2058.85 1381323
3 2060.76 1380371
3 2060.76 1380126
3 2061.26 1379973
3 2061.26 1375979
3 2061.26 1370364
3 2061.26 1364684
3 2061.26 1364105
3 2061.79 1360261
3 2061.79 1359444
3 2061.79 1358738
3 2062.29 1356657
3 2062.29 1356412
3 2062.78 1356074
3 2066.47 1354193
3 2066.47 1353487
3 2067 1352006
3 2067 1350173
3 2067.48 1349749
3 2067.95 1348813
3 2072.52 1510819
3 2072.52 1489708
3 2072.52 1476266
3 2072.52 1472443
3 2072.52 1460948
3 2072.52 1457758
3 2072.52 1451147
3 2072.52 1449077
3 2073.42 1438285
3 2073.42 1427061
3 2073.42 1417175
3 2073.42 1417173
3 2073.42 1416301
3 2074.2 1407173
3 2074.2 1395638
3 2074.74 1394821
3 2074.74 1388705
3 2074.74 1386210
3 2075.29 1376152
3 2076.35 1373702
3 2076.35 1368760
1 2076.35 1365872
3 2077.03 1365269
3 2077.84 1365055
3 2081.03 1364397
3 2082.08 1359484
3 2083.23 1358003
3 2083.23 1354467
3 2084.69 1354033
3 2086.3 1428903
3 2086.3 1428344
3 2086.3 1411895
3 2086.3 1401626
3 2086.3 1386925
3 2086.3 1385931
3 2087.22 1377885
3 2087.22 1375455
3 2087.22 1371157
3 2088.07 1367441
3 2088.88 1366624
3 2088.88 1365355
3 2088.88 1354765
3 2088.88 1352417
3 2088.88 1351217
3 2089.55 1344204
3 2089.55 1340916
3 2090.05 1339536
3 2090.75 1339135
3 2090.75 1338443
3 2090.75 1336113
3 2090.75 1334623
3 2091.55 1334064
3 2092.74 1332097
3 2094.29 1328724
3 2095.51 1326729
3 2100.55 1420292
3 2100.55 1414596
3 2100.55 1412957
3 2100.55 1400243
3 2100.55 1390012
3 2100.55 1359809
3 2100.55 1357729
3 2101.14 1357305
3 2101.14 1355332
3 2101.88 1352931
3 2102.91 1350688
3 2103.37 1349793
3 2103.37 1344694
3 2114.34 1481938
3 2114.34 1479695
3 2114.34 1475000
3 2114.34 1468512
3 2114.34 1468088
3 2114.34 1449051
3 2114.34 1435021
3 2115.22 1416067
3 2115.22 1409301
3 2115.88 1393235
3 2115.88 1393062
3 2115.88 1389939
3 2116.36 1386324
3 2116.36 1375660
3 2116.97 1375205
3 2116.97 1371691
3 2116.97 1369033
3 2117.47 1367653
3 2117.47 1366753
3 2117.47 1365928
3 2117.47 1362455
3 2117.47 1361036
3 2118.04 1357134
3 2118.04 1353837
3 2118.04 1347702
3 2118.54 1347278
3 2119.48 1342830
3 2119.95 1341708
3 2119.95 1341284
3 2120.48 1336860
3 2120.97 1333201
3 2121.43 1333026
3 2121.43 1330733
3 2122.39 1327139
3 2122.9 1322770
3 2122.9 1321780
3 2122.9 1320421
3 2124.83 1320079
3 2124.83 1319105
3 2125.44 1318681
3 2128.42 1485624
3 2128.42 1467363
3 2128.42 1466217
3 2128.42 1452267
3 2128.42 1452198
3 2128.42 1446073
3 2128.42 1423213
3 2129.02 1420495
3 2129.5 1417399
3 2129.5 1414853
3 2129.5 1409818
3 2130.51 1403979
3 2130.51 1401820
3 2133.05 1398337
3 2138.6 1397345
3 2138.6 1392641
3 2138.6 1389983
3 2138.6 1389275
3 2139.48 1388341
3 2139.48 1387973
3 2139.48 1387728
3 2140.29 1385070
3 2140.29 1381734
3 2140.29 1380358
3 2141.11 1379934
3 2141.11 1374613
3 2141.11 1373398
3 2141.11 1368326
3 2141.92 1367869
3 2141.92 1367461
3 2141.92 1366224
3 2141.92 1363769
3 2142.56 1454779
3 2142.56 1434636
3 2142.56 1430648
3 2142.56 1407027
3 2142.56 1405263
3 2143.14 1404193
3 2143.63 1403748
3 2143.63 1402401
3 2143.63 1394608
3 2143.63 1391456
3 2143.63 1389404
3 2143.63 1380577
3 2144.19 1376982
3 2144.19 1372293
1 2144.19 1363417
3 2144.19 1361865
3 2144.19 1354530
3 2144.78 1349961
3 2144.78 1349402
3 2145.25 1340710
3 2146.78 1336806
3 2150.95 1316315
3 2150.95 1314340
3 2151.73 1309514
3 2151.73 1307184
3 2152.84 1306805
3 2154.33 1305211
3 2154.97 1304966
3 2154.97 1304106
3 2155.9 1303849
3 2155.9 1302881
3 2155.9 1302636
3 2156.58 1422791
3 2156.58 1406675
3 2156.58 1388414
3 2156.58 1383064
3 2156.58 1380758
3 2156.58 1377693
3 2156.58 1372953
3 2156.58 1370212
3 2157.35 1364218
3 2157.35 1360662
3 2157.35 1352705
3 2158.75 1334845
3 2159.26 1330882
3 2159.73 1330436
3 2159.73 1329919
3 2160.75 1327953
3 2161.22 1323613
3 2162.49 1321959
3 2163.32 1321370
3 2164.75 1320923
3 2164.75 1320202
3 2165.91 1319220
3 2165.91 1318906
3 2168.41 1318394
3 2170.36 1435040
3 2170.36 1432562
3 2170.36 1423457
3 2170.36 1400278
3 2170.36 1397126
3 2170.36 1396799
3 2171.25 1387671
3 2171.25 1383267
3 2171.25 1380706
3 2171.99 1378354
3 2171.99 1367914
3 2173.12 1366374
3 2173.12 1359164
3 2173.62 1353049
3 2173.62 1346106
3 2174.1 1345289
3 2174.1 1345044
3 2174.1 1342768
3 2174.1 1336779
3 2174.65 1336752
3 2179.04 1334826
3 2179.04 1334449
3 2179.86 1333761
3 2179.86 1327728
3 2179.86 1327483
3 2180.7 1325680
3 2180.7 1323091
3 2182.06 1322969
3 2182.06 1322182
3 2184.57 1420804
3 2184.57 1420380
3 2184.57 1420221
3 2184.57 1415467
3 2184.57 1392278
3 2184.57 1377853
3 2184.57 1374995
3 2185.47 1373105
3 2185.47 1353211
3 2185.47 1345175
3 2186.28 1342037
3 2187.82 1339365
3 2188.59 1338941
3 2197.34 1338300
3 2198.12 1411705
3 2198.12 1405954
3 2198.12 1403712
3 2198.12 1395854
3 2198.12 1395430
3 2198.12 1389436
3 2198.12 1387318
3 2198.99 1387217
3 2198.99 1380369
3 2198.99 1377935
3 2198.99 1377472
3 2198.99 1376774
3 2198.99 1374952
3 2199.59 1370941
3 2199.59 1367210
3 2200.05 1362845
3 2200.05 1360600
3 2200.05 1360317
3 2200.58 1359096
3 2200.58 1350951
3 2200.58 1347534
3 2204.79 1347118
3 2205.26 1344479
3 2205.26 1338963
3 2205.26 1335479
3 2205.26 1334941
3 2205.26 1330895
3 2206.28 1330078
3 2206.74 1326926
3 2208 1320260
3 2208.59 1320242
3 2208.59 1320041
3 2212.23 1396350
3 2212.23 1396237
3 2212.23 1395813
3 2212.23 1394822
3 2212.23 1394207
3 2212.91 1393055
3 2212.91 1392707
3 2212.91 1386438
3 2212.91 1381882
3 2212.91 1380582
3 2213.46 1373710
3 2213.46 1370987
3 2213.46 1369414
3 2214.12 1369196
3 2214.9 1367448
3 2216.16 1366829
3 2217.33 1361642
3 2217.33 1360873
3 2217.33 1360698
3 2218.15 1353363
3 2218.15 1351745
3 2218.68 1351500
3 2225.18 1349394
3 2225.77 1348970
3 2226.6 1470784
3 2226.6 1454668
3 2226.6 1443617
3 2226.6 1435660
3 2226.6 1428654
3 2226.6 1412096
3 2227.46 1406317
3 2227.46 1405457
3 2227.46 1395746
3 2227.46 1394366
3 2227.46 1369772
3 2227.97 1361914
3 2227.97 1357765
3 2227.97 1357279
3 2228.44 1356720
3 2228.44 1354407
3 2229.01 1347132
3 2229.01 1344186
3 2229.01 1340094
3 2234.35 1336509
3 2234.35 1334175
3 2235.02 1329362
3 2235.02 1327109
3 2235.02 1325808
3 2235.66 1325249
3 2235.66 1324272
3 2240.55 1468590
3 2240.55 1451353
3 2240.55 1441337
3 2240.55 1412569
3 2241.41 1391694
3 2241.41 1388093
3 2241.41 1387669
3 2241.41 1387060
3 2241.41 1386566
3 2241.41 1384395
3 2242.28 1383105
3 2242.28 1381714
3 2242.28 1373876
3 2242.28 1370783
3 2242.28 1369966
3 2243.12 1367983
3 2243.12 1361073
3 2244.48 1360547
3 2245.12 1357710
3 2245.72 1356733
3 2245.72 1356309
3 2245.72 1353094
3 2246.75 1348793
3 2246.75 1348421
3 2247.31 1342779
3 2248.01 1339928
3 2248.01 1338337
3 2248.01 1337289
3 2248.01 1336007
3 2248.01 1334431
3 2248.83 1334320
3 2250.43 1332304
3 2250.43 1331660
3 2254.09 1493512
3 2254.09 1474655
3 2254.09 1457983
3 2254.09 1443557
3 2254.09 1430091
3 2254.09 1423649
3 2254.09 1412670
3 2254.09 1411598
3 2254.69 1408619
3 2254.69 1406289
3 2254.69 1405865
3 2254.69 1398257
3 2254.69 1395012
3 2254.69 1394459
3 2255.26 1393642
3 2255.26 1390819
3 2255.26 1390084
3 2255.26 1389839
3 2255.26 1373963
3 2255.86 1366537
3 2255.86 1364835
3 2255.86 1363261
3 2255.86 1362392
3 2255.86 1357364
3 2255.86 1352451
3 2255.86 1348853
3 2256.52 1345641
3 2257.08 1343311
3 2257.08 1340388
3 2257.08 1340210
3 2259.65 1339571
3 2259.65 1337404
3 2260.43 1334882
3 2261.23 1333910
3 2262.01 1332567
3 2262.78 1331069
3 2262.78 1330252
3 2263.58 1328418
3 2267.75 1328292
3 2268.54 1456920
3 2268.54 1434874
3 2268.54 1413150
3 2268.54 1413121
3 2268.54 1400839
3 2268.54 1385169
3 2268.54 1381997
3 2268.54 1372154
3 2268.54 1371821
3 2268.54 1366621
3 2269.48 1363125
3 2269.48 1358212
3 2269.48 1354371
3 2270.3 1347298
3 2271.08 1347040
3 2271.87 1343037
3 2272.51 1341667
3 2272.51 1336151
3 2272.98 1333238
3 2272.98 1327735
3 2273.49 1326018
3 2273.95 1324638
3 2274.57 1324223
3 2274.57 1321723
3 2275.36 1319654
3 2277.72 1319498
3 2278.69 1318274
3 2282.45 1423931
3 2282.45 1422551
3 2282.45 1408723
3 2282.45 1403207
3 2282.45 1401376
3 2283.06 1399311
3 2283.06 1389278
3 2283.06 1387337
3 2283.06 1374315
3 2283.06 1372141
3 2283.06 1370825
3 2283.76 1345592
3 2283.76 1343790
3 2284.55 1340159
3 2284.55 1339698
3 2285.36 1336953
3 2285.36 1334623
3 2285.36 1332363
3 2285.36 1332295
3 2286.18 1332150
3 2286.18 1331905
3 2287.8 1325222
3 2288.89 1323855
3 2288.89 1323167
3 2288.89 1321623
3 2289.41 1321446
3 2290.6 1319166
3 2296.66 1441950
3 2296.66 1408912
3 2296.66 1405203
3 2296.66 1404958
3 2296.66 1402365
3 2296.66 1393225
3 2296.66 1389256
3 2296.66 1378541
3 2296.66 1378358
3 2297.58 1376521
3 2297.58 1374374
3 2297.58 1370879
3 2298.43 1370847
3 2299.98 1363892
3 2299.98 1362021
3 2299.98 1359646
3 2301.62 1358214
3 2302.21 1356499
3 2302.72 1356266
3 2302.72 1356125
3 2302.72 1348772
3 2302.72 1341839
3 2303.55 1340864
3 2303.55 1340305
3 2309.97 1335933
3 2309.97 1334079
3 2309.97 1332699
3 2309.97 1328965
3 2310.6 1422242
3 2310.6 1392768
3 2310.6 1392712
3 2310.6 1386215
3 2310.6 1385793
3 2310.6 1385791
3 2310.6 1383741
3 2310.6 1382361
3 2310.6 1373193
3 2310.6 1368704
3 2310.6 1366912
3 2310.6 1360990
3 2312.68 1352843
3 2312.68 1351890
3 2313.18 1349790
3 2313.18 1348074
3 2313.77 1347922
3 2313.77 1347564
3 2313.77 1346184
3 2315.35 1346034
3 2315.35 1345548
3 2316.16 1343418
3 2316.16 1339292
3 2316.16 1337912
3 2316.96 1337791
3 2317.76 1336124
3 2317.76 1335879
3 2318.26 1333401
3 2318.26 1332149
3 2318.82 1328857
3 2318.82 1328702
3 2323.87 1328433
3 2324.34 1431317
3 2324.34 1422237
3 2324.34 1421323
3 2324.34 1412892
3 2324.34 1412315
3 2324.34 1403372
3 2324.34 1401248
3 2324.34 1401140
3 2324.34 1396231
3 2324.93 1394453
3 2324.93 1393768
3 2324.93 1389184
3 2324.93 1387548
3 2325.53 1386115
3 2325.53 1370556
3 2326.02 1368402
3 2326.02 1363954
3 2326.52 1362760
3 2327.03 1361427
3 2327.03 1349952
3 2327.03 1343328
3 2327.54 1342075
3 2327.54 1341069
3 2327.54 1340645
3 2327.54 1339577
3 2327.54 1338178
3 2327.54 1334529
3 2328.1 1332527
3 2329.99 1331217
3 2330.72 1326527
3 2331.41 1322644
3 2331.88 1322181
3 2335.8 1322059
3 2338.07 1427956
3 2338.07 1427711
3 2338.07 1423126
3 2338.07 1411181
3 2338.07 1410824
3 2338.07 1406812
3 2338.07 1404390
3 2338.07 1402548
3 2338.9 1382824
3 2338.9 1382550
3 2338.9 1382084
3 2338.9 1382020
3 2338.9 1377946
3 2338.9 1370933
3 2339.44 1370829
3 2339.44 1369721
3 2340.41 1364808
3 2340.41 1361656
3 2343 1355752
3 2343 1354700
3 2343 1354276
3 2343.49 1351427
3 2352.24 1509094
3 2352.24 1474473
3 2352.24 1458118
3 2352.24 1454966
3 2352.24 1454898
3 2352.24 1450382
3 2352.24 1445933
3 2352.24 1439563
3 2352.24 1437867
3 2352.24 1428154
3 2353.12 1419474
3 2353.12 1413480
3 2353.12 1411150
3 2353.12 1405186
3 2353.12 1403842
3 2353.12 1403744
3 2353.12 1396507
3 2353.95 1393365
3 2353.95 1388847
3 2353.95 1387379
3 2353.95 1385901
3 2353.95 1383727
3 2354.81 1374599
3 2355.62 1374596
3 2355.62 1374202
3 2355.62 1372792
3 2355.62 1368635
3 2358.08 1356723
3 2358.08 1353123
3 2358.08 1352535
3 2358.93 1349413
3 2358.93 1344500
3 2359.75 1344496
3 2360.56 1339061
3 2361.36 1335586
3 2361.36 1334338
3 2361.36 1333990
3 2361.89 1333431
3 2361.89 1332900
3 2366.58 1439776
3 2366.58 1432815
3 2366.58 1428666
3 2366.58 1426499
3 2366.58 1424169
3 2366.58 1420719
3 2366.58 1409615
3 2366.58 1393288
3 2366.58 1365211
3 2367.52 1364913
3 2367.52 1364820
3 2367.52 1363581
3 2367.52 1357939
3 2368.32 1354326
3 2369.86 1354118
3 2369.86 1354027
3 2369.86 1351007
3 2370.7 1348802
3 2370.7 1342838
3 2371.52 1341415
3 2371.52 1335301
3 2371.52 1334902
3 2372.33 1334421
3 2373.12 1334176
3 2373.12 1333359
3 2375.44 1330892
3 2377.74 1323417
3 2377.74 1320700
3 2378.79 1319883
3 2380.04 1416584
3 2380.04 1409602
3 2380.04 1395652
3 2380.04 1395093
3 2380.04 1391086
3 2380.04 1365100
3 2380.98 1350760
3 2380.98 1342575
3 2381.52 1342444
3 2381.52 1342151
3 2381.98 1340521
3 2381.98 1328687
3 2381.98 1328390
3 2382.51 1326444
3 2382.51 1324540
3 2394.43 1505787
3 2394.43 1499793
3 2394.43 1492856
3 2394.43 1492039
3 2394.43 1489796
3 2394.43 1475284
3 2394.43 1442754
3 2395.47 1442405
3 2395.47 1434651
3 2395.47 1433397
3 2395.47 1423859
3 2396.33 1420155
3 2396.33 1417810
3 2396.33 1415480
3 2396.33 1405111
3 2396.33 1403985
3 2397.2 1403744
3 2397.2 1402444
3 2398.05 1399292
3 2398.75 1397905
3 2399.22 1397544
3 2399.22 1392502
3 2399.22 1392078
3 2399.22 1391478
3 2399.73 1382969
3 2400.26 1382754
3 2400.26 1382330
3 2400.26 1376998
3 2400.88 1375607
3 2400.88 1374790
3 2400.88 1369084
3 2401.39 1368839
3 2401.88 1357344
3 2402.58 1356042
3 2402.58 1353848
3 2403.34 1351259
3 2403.34 1344287
3 2404.88 1342037
3 2404.88 1340233
3 2407.92 1339674
3 2408.69 1442374
3 2408.69 1427555
3 2408.69 1427447
3 2408.69 1426267
3 2408.69 1426022
3 2408.69 1420380
3 2408.69 1405799
3 2408.69 1398480
3 2408.69 1397989
3 2409.44 1397028
3 2409.44 1396993
3 2409.44 1392409
3 2409.44 1371936
3 2409.44 1369047
3 2409.95 1365857
3 2410.45 1361847
3 2410.45 1359176
3 2410.93 1356381
3 2411.39 1354855
3 2411.39 1350971
3 2411.9 1347323
3 2413.29 1342171
3 2413.29 1340439
3 2413.77 1338406
3 2414.23 1335828
3 2416.04 1332944
3 2418.73 1331261
3 2422.04 1467538
3 2422.04 1417760
3 2422.04 1405998
3 2422.04 1405874
3 2422.04 1405236
3 2422.04 1397901
3 2422.04 1394048
3 2422.59 1381737
3 2422.59 1368423
3 2422.59 1365908
3 2422.59 1365484
3 2422.59 1363516
3 2422.59 1359218
3 2422.59 1358000
3 2423.16 1352994
3 2423.16 1351886
3 2423.16 1348816
3 2423.16 1342758
3 2423.71 1341580
3 2425.73 1341512
3 2425.73 1338555
3 2431.33 1337414
3 2431.33 1332210
3 2431.92 1331393
3 2431.92 1328357
3 2431.92 1328164
3 2432.66 1324592
3 2433.45 1321227
3 2433.45 1320319
3 2433.45 1320294
3 2433.45 1319345
3 2433.45 1318130
3 2434.28 1318013
3 2434.28 1315722
3 2436.09 1513882
3 2436.09 1453694
3 2436.09 1451087
3 2436.09 1449005
3 2436.09 1446122
3 2436.09 1409414
3 2436.09 1408624
3 2436.09 1403868
3 2436.09 1395844
3 2436.09 1385227
3 2436.69 1374629
3 2436.69 1371357
3 2436.69 1355488
3 2436.69 1352526
3 2437.43 1352309
3 2437.43 1349058
3 2438.87 1348351
3 2438.87 1345364
3 2439.5 1342420
3 2439.5 1341735
3 2439.5 1341612
3 2439.5 1341603
3 2439.5 1329110
3 2439.5 1323508
3 2440.02 1323084
3 2440.02 1320004
3 2440.02 1319660
3 2440.57 1318701
3 2440.57 1318142
3 2441.35 1316762
3 2441.35 1315204
3 2450.38 1412295
3 2450.38 1402536
3 2450.38 1390489
3 2450.38 1385811
3 2450.38 1383815
3 2450.38 1376947
3 2450.38 1376194
3 2450.38 1375145
3 2450.38 1372012
3 2450.38 1364992
3 2451.08 1361252
3 2451.08 1357165
3 2451.08 1354600
3 2451.58 1353010
3 2452.06 1346025
3 2452.06 1345858
3 2452.56 1344260
3 2460.87 1342458
3 2464.72 1478824
3 2464.72 1461438
3 2464.72 1433829
3 2464.72 1432449
3 2464.72 1429234
3 2464.72 1422575
3 2465.56 1415240
3 2465.56 1412400
3 2465.56 1402585
3 2465.56 1399216
3 2465.56 1391016
3 2465.56 1388029
3 2465.56 1375571
3 2465.56 1368087
3 2465.56 1364086
3 2466.41 1363398
3 2466.41 1358444
3 2466.41 1356600
3 2467.26 1343886
3 2467.26 1341891
3 2467.26 1340725
3 2467.26 1340451
3 2468.07 1339561
3 2468.87 1339287
3 2469.64 1338000
3 2469.64 1335190
3 2469.64 1330055
3 2473.04 1326440
3 2473.04 1322910
3 2473.53 1320507
3 2473.98 1319727
3 2473.98 1317764
3 2473.98 1313976
3 2475.4 1313660
3 2478.47 1460790
3 2478.47 1460347
3 2478.47 1435586
3 2478.47 1433755
3 2478.47 1424745
3 2478.47 1410726
3 2478.47 1403417
3 2479 1397483
3 2479 1388621
3 2479.68 1378444
3 2479.68 1377182
3 2480.48 1375348
3 2480.48 1364317
3 2480.48 1364261
3 2480.48 1359963
3 2481.59 1358005
3 2481.59 1356625
3 2481.59 1356420
3 2482.11 1350887
3 2482.56 1350466
3 2482.56 1349169
3 2482.56 1346729
3 2485.52 1345640
3 2485.98 1345354
3 2485.98 1345109
3 2492.07 1384218
3 2492.07 1381111
3 2492.07 1370840
3 2492.59 1364800
3 2492.59 1354214
3 2493.29 1351307
3 2493.29 1350400
3 2493.29 1350086
3 2494.64 1350065
3 2495.11 1348584
3 2495.59 1345086
3 2495.59 1344000
3 2496.06 1341752
3 2496.51 1341261
3 2497.02 1340024
3 2497.02 1337098
3 2497.51 1333989
3 2499.46 1332675
3 2499.95 1332251
3 2504.24 1327085
3 2504.24 1326805
3 2504.24 1326395
3 2506.09 1513933
3 2506.09 1501396
3 2506.09 1495997
3 2506.09 1449746
3 2506.09 1440117
3 2506.09 1437603
3 2506.09 1430268
3 2506.09 1427996
3 2506.09 1421128
3 2506.09 1414306
3 2506.09 1406787
3 2506.71 1401193
3 2506.71 1399934
3 2506.71 1398065
3 2506.71 1395163
3 2506.71 1391546
3 2506.71 1385904
3 2506.71 1376453
3 2507.33 1369793
3 2507.33 1368854
3 2507.33 1363314
3 2507.33 1359639
3 2507.83 1359418
3 2507.83 1357760
3 2507.83 1357373
3 2507.83 1354221
3 2507.83 1351958
3 2507.83 1351713
3 2508.44 1348679
3 2509.39 1347275
3 2509.39 1346740
3 2509.39 1344041
3 2509.39 1343302
3 2509.39 1343037
3 2510.23 1340407
3 2510.23 1340189
3 2510.23 1332252
3 2512 1331647
3 2512.77 1331088
3 2513.58 1329819
3 2514.38 1327489
3 2514.38 1323907
3 2514.38 1323815
3 2515.19 1322348
3 2515.19 1321680
3 2515.19 1321523
3 2516 1320964
3 2516 1316380
3 2520.3 1448869
3 2520.3 1438199
3 2520.3 1433069
3 2520.3 1431505
3 2520.3 1430041
3 2520.3 1428661
3 2520.3 1420267
3 2520.3 1417869
3 2520.91 1410534
3 2522.21 1404892
3 2522.21 1403737
3 2522.21 1399447
3 2522.21 1378179
3 2522.21 1368756
3 2522.21 1366684
3 2522.21 1363658
3 2523.12 1362278
3 2523.12 1362053
3 2524.66 1359304
3 2525.33 1351969
3 2525.33 1350589
3 2526.28 1350030
3 2534.43 1483174
3 2534.43 1473561
3 2534.43 1470588
3 2534.43 1463651
3 2534.43 1462834
3 2534.43 1461767
3 2534.43 1459829
3 2534.43 1450701
3 2534.43 1449091
3 2534.43 1436311
3 2535.54 1435947
3 2535.54 1432546
3 2535.54 1423527
3 2535.54 1422799
3 2535.54 1419647
3 2535.54 1418826
3 2535.54 1417725
3 2536.42 1407793
3 2536.42 1407369
3 2536.42 1400821
3 2536.42 1397992
3 2536.42 1390842
3 2536.42 1389589
3 2537.34 1388703
3 2538.16 1384146
3 2538.16 1373473
3 2538.16 1372290
3 2538.16 1355728
3 2538.16 1354399
3 2539.04 1353485
3 2539.04 1351380
3 2539.04 1347439
3 2541.47 1345819
3 2543.27 1344286
3 2543.27 1344184
3 2543.27 1341854
3 2544.07 1341084
3 2544.07 1339407
3 2544.9 1339162
3 2546.44 1336647
3 2547.98 1335027
3 2548.75 1457517
3 2548.75 1455486
3 2548.75 1441227
3 2548.75 1438405
3 2548.75 1434219
3 2548.75 1428577
3 2548.75 1426790
3 2548.75 1418343
3 2548.75 1410966
3 2549.7 1404646
3 2549.7 1398940
3 2549.7 1396570
3 2549.7 1393786
3 2549.7 1393165
3 2550.55 1388252
3 2550.55 1381610
3 2550.55 1373215
3 2551.37 1367004
3 2552.15 1365624
3 2552.93 1365065
3 2552.93 1365034
3 2553.72 1363567
3 2553.72 1359573
3 2553.72 1354289
3 2553.72 1348695
3 2555.75 1348033
3 2562.57 1481010
3 2562.57 1468334
3 2562.57 1457801
3 2562.57 1454649
3 2562.57 1445663
3 2562.57 1422752
3 2562.57 1406636
3 2562.57 1399317
3 2562.57 1399240
3 2563.14 1394597
3 2563.14 1392106
3 2563.14 1381748
3 2563.14 1374892
3 2563.89 1361099
3 2563.89 1353699
3 2563.89 1350296
3 2564.71 1350179
3 2564.71 1349572
3 2565.77 1349521
3 2566.35 1348717
3 2566.35 1341796
3 2566.35 1339738
3 2566.35 1338570
3 2567.43 1334096
3 2571.06 1333672
3 2572.05 1332773
3 2572.51 1331704
3 2573.03 1330061
3 2573.03 1326244
3 2573.03 1323915
3 2573.59 1322665
3 2576.31 1446363
3 2576.31 1438355
3 2576.31 1417238
3 2576.31 1411746
3 2576.31 1406446
3 2576.31 1401712
3 2576.88 1401643
3 2576.88 1386790
3 2576.88 1367933
3 2576.88 1361274
3 2576.88 1354625
3 2577.54 1350887
3 2578.14 1346001
3 2578.77 1344585
3 2578.77 1344480
3 2590.44 1519550
3 2590.44 1491195
3 2590.44 1489815
3 2590.44 1482480
3 2590.44 1458499
3 2590.44 1444327
3 2590.44 1441997
3 2590.44 1441438
3 2590.44 1438277
3 2591.11 1432635
3 2591.11 1425088
3 2591.11 1424903
3 2591.11 1413043
3 2591.11 1390352
3 2591.11 1379715
3 2591.11 1379457
3 2591.11 1377127
3 2591.67 1376571
3 2591.67 1370454
3 2591.67 1369449
3 2591.67 1363791
3 2591.67 1360029
3 2591.67 1355731
3 2592.19 1354874
3 2592.19 1348589
3 2592.19 1344392
3 2592.69 1340876
3 2592.69 1340384
3 2592.69 1339181
3 2593.19 1338054
3 2593.65 1335399
3 2593.65 1335089
3 2594.56 1333470
3 2600.45 1322539
3 2602.36 1315141
3 2604.69 1464030
3 2604.69 1451842
3 2604.69 1449449
3 2604.69 1448632
3 2604.69 1447669
3 2605.56 1443702
3 2605.56 1431315
3 2605.56 1426633
3 2605.56 1426209
3 2606.44 1424512
3 2606.44 1418047
3 2607.09 1417665
3 2607.09 1415335
3 2607.09 1413716
3 2607.09 1407238
3 2607.09 1406207
3 2607.09 1405567
3 2607.09 1397067
1 2608.24 1392693
3 2608.24 1392336
3 2608.24 1384210
3 2609.08 1384139
3 2609.08 1383932
3 2609.93 1379702
3 2610.79 1379297
3 2612.41 1378010
3 2612.41 1376967
3 2612.41 1376630
3 2613.91 1376492
3 2614.41 1376247
3 2615.51 1372613
3 2615.51 1368135
3 2615.51 1368095
3 2616.32 1367622
3 2616.32 1365734
3 2616.32 1365489
3 2617.32 1364893
3 2617.91 1364451
3 2617.91 1363071
3 2618.7 1459570
3 2618.7 1452557
3 2618.7 1443295
3 2618.7 1435541
3 2618.7 1418986
3 2618.7 1412609
3 2618.7 1404732
3 2618.7 1403165
3 2618.7 1397503
3 2618.7 1394664
3 2618.7 1385581
3 2618.7 1382693
3 2619.71 1380668
3 2619.71 1373553
3 2619.71 1373484
3 2619.71 1372811
3 2619.71 1369442
3 2619.71 1363797
3 2620.57 1361180
3 2620.57 1358872
3 2621.14 1358679
3 2621.14 1356542
3 2621.64 1356287
3 2621.64 1349960
3 2621.64 1348356
3 2621.64 1347590
3 2622.13 1347348
3 2622.13 1346976
3 2622.13 1337975
3 2622.92 1337694
3 2625.47 1335695
3 2626.45 1335576
3 2626.45 1333539
3 2626.45 1333526
3 2626.45 1332608
3 2627.26 1331946
3 2629.07 1331196
3 2629.54 1330188
3 2630 1329584
3 2632.1 1520418
3 2632.1 1488186
3 2632.1 1447551
3 2632.1 1447395
3 2632.1 1447306
3 2632.1 1438000
3 2632.1 1419273
3 2632.1 1407957
3 2632.1 1395807
3 2632.78 1393689
3 2632.78 1388828
3 2632.78 1376573
3 2632.78 1376493
3 2632.78 1365780
3 2632.78 1364925
3 2634.25 1363397
3 2634.25 1354708
3 2634.25 1348642
3 2634.25 1346896
3 2635.21 1345077
3 2635.68 1342312
3 2637.94 1338463
3 2641.49 1336327
3 2646.12 1511909
3 2646.12 1476855
3 2646.12 1450823
3 2646.12 1441478
3 2646.12 1423767
3 2646.12 1418372
3 2646.12 1413144
3 2646.12 1412585
3 2647.04 1405425
3 2647.04 1392088
3 2647.04 1384068
3 2647.04 1376733
3 2647.04 1374832
3 2647.04 1374408
3 2647.04 1371485
3 2647.91 1370711
3 2647.91 1363376
3 2647.91 1355950
3 2647.91 1353519
3 2647.91 1348102
3 2647.91 1343475
3 2647.91 1340353
3 2647.91 1340207
3 2647.91 1337877
3 2648.79 1328749
3 2648.79 1327077
3 2650.33 1326958
3 2650.33 1326059
3 2651.11 1323836
3 2651.11 1319701
3 2651.91 1318640
3 2652.84 1318371
3 2656.56 1317581
3 2656.56 1317336
3 2660.08 1436413
3 2660.08 1435510
3 2660.08 1430853
3 2660.08 1429183
3 2660.08 1424312
3 2660.08 1417320
3 2660.08 1406951
3 2660.87 1406010
3 2660.87 1404769
3 2660.87 1404767
3 2661.52 1399854
3 2661.52 1385104
3 2661.52 1377299
3 2661.52 1374969
3 2661.52 1369422
3 2662.17 1367855
3 2662.17 1366380
3 2662.17 1365525
3 2662.77 1363695
3 2662.77 1359397
3 2663.25 1358939
3 2663.25 1357559
3 2663.25 1357022
3 2667.42 1356214
3 2667.42 1355740
3 2668.05 1354549
3 2668.05 1353472
3 2668.57 1351550
3 2669.09 1351126
3 2671.02 1349746
3 2673.77 1349494
3 2674.6 1435265
3 2674.6 1429554
3 2674.6 1424323
3 2674.6 1421666
3 2674.6 1420849
3 2674.6 1413659
3 2674.6 1411403
3 2674.6 1408607
3 2674.6 1408362
3 2674.6 1407814
3 2675.34 1405571
3 2675.34 1401177
3 2675.96 1400944
3 2675.96 1395238
3 2675.96 1395196
3 2675.96 1392215
3 2675.96 1390388
3 2675.96 1375999
3 2676.82 1363364
3 2676.82 1354224
3 2676.82 1354049
3 2678.4 1353476
3 2678.4 1345856
3 2678.99 1342592
3 2678.99 1342545
3 2678.99 1342300
3 2678.99 1341738
3 2679.97 1341069
3 2682.95 1341039
3 2682.95 1339965
3 2683.48 1334455
3 2683.48 1334159
3 2683.48 1333343
3 2685.44 1331699
3 2685.44 1328430
3 2688.32 1432966
3 2688.32 1417558
3 2688.32 1409674
3 2688.32 1409250
3 2688.32 1401293
3 2688.32 1396086
3 2688.32 1392650
3 2688.32 1389549
3 2688.9 1386398
3 2688.9 1377818
3 2688.9 1373880
3 2688.9 1370017
3 2688.9 1368637
3 2688.9 1354336
3 2689.54 1354190
3 2689.54 1351860
3 2689.54 1342078
3 2690.03 1339648
3 2690.63 1333470
3 2692.11 1330878
3 2692.11 1330526
3 2693.05 1329412
3 2702.45 1418559
3 2702.45 1396711
3 2702.45 1395107
3 2702.45 1392574
3 2702.45 1374581
3 2702.45 1364235
3 2703.32 1361684
3 2703.32 1356995
3 2703.32 1356127
3 2703.32 1347195
3 2703.32 1342469
1 2703.32 1334276
3 2704.1 1333032
3 2704.1 1329676
3 2704.1 1328734
3 2704.67 1328499
3 2704.67 1328489
3 2704.67 1320164
3 2705.28 1318325
3 2705.28 1315719
3 2706.3 1315613
3 2706.3 1314233
3 2706.8 1313389
3 2708.17 1312120
3 2708.17 1311066
3 2708.72 1309686
3 2708.72 1309111
3 2716.3 1472026
3 2716.3 1459272
3 2716.3 1456367
3 2716.3 1447741
3 2716.3 1443568
3 2716.3 1436631
3 2716.3 1417774
3 2716.3 1414389
3 2716.3 1409025
3 2716.3 1404727
3 2716.93 1402854
3 2716.93 1387814
3 2716.93 1386673
3 2717.47 1385372
3 2717.47 1378763
3 2717.94 1378078
3 2717.94 1375910
3 2717.94 1365941
3 2717.94 1362948
3 2717.94 1353161
3 2718.45 1350831
3 2718.92 1347285
3 2718.92 1346199
3 2719.68 1346064
3 2720.45 1344854
3 2722.74 1344132
3 2723.46 1343749
3 2723.46 1343325
3 2723.46 1343145
3 2723.97 1328986
3 2724.51 1324564
3 2725.46 1324005
3 2730.14 1409661
3 2730.14 1404889
3 2730.14 1394934
3 2730.14 1387002
3 2730.14 1386804
3 2730.69 1382284
3 2730.69 1371412
3 2730.69 1370032
3 2730.69 1369846
3 2730.69 1364390
3 2731.29 1364278
3 2731.29 1364033
3 2734.34 1360485
3 2734.34 1357470
3 2735.17 1356752
3 2736.1 1356328
3 2739.59 1353844
3 2744.32 1459184
3 2744.32 1450056
3 2744.32 1436037
3 2744.32 1435137
3 2744.32 1432894
3 2744.32 1412367
3 2744.32 1396965
3 2744.32 1396148
3 2744.32 1387044
3 2745.04 1374866
3 2745.52 1374404
3 2745.52 1374214
3 2746.03 1373509
3 2746.03 1370801
3 2746.55 1369820
3 2746.55 1369712
3 2746.55 1363955
3 2746.55 1363904
3 2747.18 1363415
3 2747.18 1362035
3 2747.68 1357123
3 2747.68 1349026
3 2747.68 1348650
3 2747.68 1347329
3 2747.68 1343835
3 2748.78 1342033
3 2757.09 1338205
3 2757.09 1337388
3 2757.09 1336272
3 2757.9 1335729
3 2758.37 1453784
3 2758.37 1450559
3 2758.37 1449095
3 2758.37 1448626
3 2758.37 1440821
3 2758.37 1438850
3 2758.37 1434672
3 2758.37 1431571
3 2758.37 1421385
3 2758.37 1386312
3 2759.37 1379944
3 2759.37 1379901
3 2759.37 1375317
3 2760.01 1373428
3 2760.01 1373004
3 2760.01 1372202
3 2760.01 1366303
3 2760.01 1346015
3 2760.01 1345916
3 2760.01 1338796
3 2760.01 1338341
3 2760.01 1334644
3 2761.06 1334560
3 2761.96 1333154
3 2761.96 1331947
3 2762.78 1330567
3 2762.78 1330019
3 2762.78 1329101
3 2765.1 1328200
3 2766.15 1327383
3 2769.9 1327363
3 2769.9 1327227
3 2769.9 1325847
3 2770.72 1324141
3 2771.5 1323563
3 2771.5 1322998
3 2772.29 1439069
3 2772.29 1422739
3 2772.29 1417311
3 2772.29 1406452
3 2772.29 1398495
3 2772.29 1395863
3 2772.29 1392946
3 2772.29 1391868
3 2773.26 1389997
3 2773.26 1388002
3 2773.26 1387870
3 2773.26 1387255
3 2773.26 1381138
3 2773.26 1376063
3 2774.16 1374683
3 2774.16 1372894
3 2774.16 1371521
3 2774.16 1356287
3 2775.05 1355975
3 2775.05 1353928
3 2775.83 1350838
3 2775.83 1347717
3 2775.83 1341326
3 2775.83 1338996
3 2776.72 1336687
3 2776.72 1336638
3 2776.72 1333907
3 2776.72 1333483
3 2778.25 1333111
3 2781.64 1331811
3 2782.42 1329255
3 2786.34 1448566
3 2786.34 1435340
3 2786.34 1434536
3 2786.34 1415705
3 2786.34 1412554
3 2786.34 1408195
3 2786.34 1394904
3 2786.34 1392483
3 2786.34 1380288
3 2787.1 1373648
3 2787.1 1369556
3 2787.1 1364643
3 2787.1 1362292
3 2787.74 1360674
3 2788.33 1354102
3 2788.33 1353678
3 2788.92 1351836
3 2788.92 1351694
3 2789.55 1351467
3 2789.55 1351222
3 2789.55 1349578
3 2790.03 1346949
3 2791.27 1342877
3 2794.14 1342564
3 2794.93 1342005
3 2794.93 1340994
3 2794.93 1339614
query_times: 98
Score = 1353950
