    Blocking waiting for file lock on package cache
    Blocking waiting for file lock on package cache
    Blocking waiting for file lock on package cache
    Blocking waiting for file lock on package cache
    Blocking waiting for file lock on build directory
    Finished release [optimized] target(s) in 0.05s
     Running `target/release/tester ../a.out 0020`
3 1.378 1126885
1 1.378 1079929
3 1.378 1072684
3 1.378 1059877
3 1.378 1051912
3 1.378 1040061
3 1.378 1031026
3 1.378 1028141
3 1.378 1025985
3 1.378 1004324
3 1.378 1003573
3 2.04 995410
3 2.04 986535
3 2.04 982906
3 2.523 981569
3 2.523 974672
3 2.523 974288
3 3.017 965925
3 3.918 963234
3 3.918 961220
3 5.914 960518
3 14.016 1084605
3 14.016 1057786
3 14.016 1041538
3 14.016 1038847
3 14.016 1019195
3 14.016 1018106
3 14.016 1017709
3 14.687 1014048
3 15.148 1013033
3 15.148 1011131
3 15.148 997876
3 15.148 995909
3 15.148 991601
3 15.148 990541
3 15.148 989296
3 15.606 988999
3 16.013 985635
3 17.921 984799
3 17.921 982832
3 17.921 979262
3 17.921 978092
3 18.399 969929
3 18.399 964391
3 18.399 961306
3 28.09 1058307
3 28.09 1052381
3 28.09 1049971
3 28.09 1049541
3 28.09 1046310
3 28.09 1024194
3 28.788 1022287
3 28.788 1014942
3 28.788 1014193
3 28.788 1010952
3 28.788 1002315
3 29.476 998477
3 29.476 996402
3 30.136 984975
3 30.136 979391
3 30.136 978660
3 30.816 972773
3 31.854 972608
3 32.232 971458
3 32.232 968345
3 36.261 968146
3 36.843 966630
3 42.341 1130899
3 42.341 1121240
3 42.341 1118787
3 42.341 1049763
3 42.341 1045117
3 42.341 1042083
3 42.341 1039481
3 42.341 1034154
3 42.341 1032845
3 42.341 1029960
3 42.888 1027683
3 42.888 1024682
3 42.888 1017904
3 43.279 1016418
3 43.279 1006292
3 43.279 1005160
3 43.279 998002
3 43.279 997299
3 43.701 994544
3 43.701 990764
3 44.076 988797
3 44.802 988442
3 45.171 983857
3 46.26 979241
3 46.26 978844
3 55.279 978825
3 55.745 978434
3 56.555 1038015
3 56.555 1036400
3 56.555 1020484
3 56.555 1004220
3 56.555 1002463
3 56.555 1002066
3 56.555 1000824
3 57.267 999558
3 57.267 996488
3 57.267 988179
3 58.066 986176
3 58.46 982540
3 58.879 980874
3 58.879 974358
3 58.879 973205
3 59.457 971462
3 59.457 970360
3 59.457 968285
3 59.457 966318
3 60.101 964073
3 60.101 964061
3 60.73 960788
3 60.73 960027
3 62.072 957270
3 62.072 956873
3 70.026 1156110
3 70.026 1154552
3 70.026 1106999
2 70.026 1104608
3 70.026 1045830
3 70.026 1034417
3 70.026 1030756
3 70.026 1023718
3 70.026 1017775
3 70.026 1007342
3 70.026 1002759
3 70.026 996527
3 70.026 994538
3 70.58 990877
3 70.58 978964
3 71.019 976913
3 71.019 973957
3 71.019 968740
3 71.403 967165
2 71.403 965883
3 71.403 963712
3 71.982 963404
3 71.982 961021
3 72.594 960370
3 72.594 959105
3 72.594 955444
3 73.751 950655
3 74.346 950599
3 74.346 948090
3 84.255 1087543
3 84.255 1083625
3 84.255 1077056
3 84.255 1070448
3 84.255 1066059
3 84.255 1058337
3 84.255 1054972
2 84.993 1043990
3 84.993 1043971
3 84.993 1041280
3 84.993 1040051
3 84.993 1036956
3 85.667 1034690
3 85.667 1030872
3 86.334 1028988
3 86.334 1026151
3 86.334 1023810
3 87.107 1018324
3 87.107 1015227
2 87.653 1013521
3 87.653 1010830
3 87.653 1006059
3 88.132 1003479
3 88.132 998343
3 88.132 994433
3 88.747 992294
3 88.747 990938
3 88.747 986574
3 88.747 986470
3 88.747 984395
3 89.424 983158
3 89.894 980438
3 89.894 980041
3 89.894 979554
3 91.459 979495
3 92.052 977617
2 92.681 972988
3 93.312 972661
3 98.301 1079134
3 98.301 1076100
3 98.301 1064170
3 98.301 1049615
3 98.301 1030528
3 98.301 1029922
3 98.301 1027320
3 98.301 1018210
3 98.301 1015176
3 98.301 1010666
3 98.301 1008235
3 98.814 1007802
3 98.814 1007685
3 99.215 1001895
3 99.215 997745
3 99.215 994711
3 99.215 991616
3 99.636 991219
3 99.636 988528
3 100.691 984944
2 101.91 984701
3 106.192 974182
3 112.118 1078235
3 112.118 1073820
3 112.118 1070072
3 112.118 1069502
3 112.118 1054005
3 112.118 1040320
3 112.118 1032508
3 112.118 1020578
3 112.118 1002383
3 112.593 994938
3 112.593 984256
3 112.593 969387
3 112.593 969173
3 113.02 967360
3 113.02 966997
3 113.02 965136
3 113.409 961464
3 117.835 960995
3 117.835 960636
3 126.278 1088621
3 126.278 1081110
3 126.278 1049970
3 126.278 1036632
3 126.278 1023718
3 126.278 1008482
3 126.278 1007049
3 126.278 1000528
3 126.278 996676
3 126.278 993844
3 127.512 987395
3 127.512 981356
3 127.512 975655
3 127.512 974161
3 127.931 974097
3 127.931 973700
3 129.591 968393
3 129.591 968142
3 129.591 960897
3 130.001 960462
3 130.001 957771
3 130.722 953374
3 131.092 951832
3 137.503 950274
3 138.284 950079
3 138.915 948625
3 140.154 1039228
2 140.154 1012188
3 140.154 1010732
3 140.154 1004237
3 140.154 1000591
2 140.154 998573
3 140.154 996966
3 140.154 996278
3 140.154 991191
3 140.154 988500
3 140.899 979381
3 140.899 978869
2 140.899 971615
3 141.544 970542
3 141.544 969919
3 142.763 969866
3 143.358 969522
3 143.969 967194
3 145.155 959742
3 145.155 956707
3 145.155 956181
3 145.919 954530
3 146.633 954100
3 154.188 1150443
3 154.188 1134195
3 154.188 1131504
3 154.188 1077151
3 154.188 1067904
3 154.188 1054378
3 154.188 1053808
3 154.188 1050147
3 154.188 1048564
3 154.188 1036961
3 154.867 1034886
3 154.867 1025379
3 155.247 1017216
3 155.247 1013555
3 155.247 1000148
3 155.64 993697
3 155.64 993419
3 155.64 987258
3 155.64 981877
3 155.64 978297
3 155.64 976080
3 155.64 973514
3 155.64 973389
3 156.383 966232
3 156.383 961840
3 156.983 959765
3 156.983 958861
3 156.983 955023
3 157.653 953116
3 157.653 952938
3 158.317 949864
3 158.908 949277
3 159.82 945575
3 160.272 945547
3 163.76 944158
3 165.587 942856
3 168.416 1048419
3 168.416 1045509
3 168.416 1006111
3 168.842 1005218
3 168.842 1004154
3 168.842 1001264
3 168.842 998573
3 168.842 996606
3 169.273 995524
3 170.049 993287
3 170.049 991936
3 170.049 991320
3 170.46 990323
3 170.46 987768
3 170.844 984175
3 170.844 983950
3 171.258 983778
3 171.258 976533
3 171.65 973931
3 171.65 971062
3 171.65 965343
3 171.65 964915
3 172.05 964381
3 172.41 962424
3 172.41 960455
3 172.41 959076
3 173.29 958763
3 182.484 1104606
3 182.484 1075195
3 182.484 1068208
3 182.484 1063291
3 182.484 1052176
1 182.484 1051908
3 182.484 1050095
3 182.484 1036404
3 182.484 1020872
2 183.097 1004424
3 183.097 1004027
3 183.097 1002875
3 183.097 999187
3 183.097 998521
3 183.574 997282
3 183.574 995207
3 183.574 985184
3 183.978 984832
3 183.978 984435
3 184.355 983405
3 184.723 981330
3 185.448 971671
2 191.53 967466
1 191.934 963358
3 192.762 962380
3 193.12 961558
3 193.568 959336
3 193.568 956793
3 193.568 956457
3 194.183 956416
3 194.183 954241
3 194.183 953974
3 196.204 1111312
3 196.204 1108423
3 196.204 1080790
3 196.204 1058674
3 196.204 1057181
3 197.045 1049018
3 197.045 1047045
3 197.045 1046234
3 197.045 1041565
3 197.045 1039195
3 197.752 1034320
3 197.752 1017114
3 197.752 1001014
3 198.861 999421
3 198.861 999307
3 198.861 998498
3 199.416 997655
3 199.416 984409
3 199.83 972797
3 202.766 962957
3 202.766 962736
3 203.182 961522
3 203.549 961340
3 203.549 959447
3 203.923 957519
3 210.601 1058945
3 210.601 1049761
3 210.601 1040365
3 210.601 1036704
3 210.601 1036288
3 210.601 1027647
3 210.601 1022120
3 211.391 1020411
3 211.391 1018336
3 212.031 1017078
3 212.031 1005148
3 212.031 992460
3 212.718 986705
3 212.718 983809
3 212.718 983621
3 214.497 977573
3 214.497 974539
3 214.497 972408
3 216.34 971992
3 216.34 968082
3 216.34 967707
3 216.746 967521
3 216.746 967244
3 216.746 964306
3 216.746 963071
3 218.24 960655
3 218.24 960380
3 221.489 959467
3 224.107 1070313
3 224.107 1059431
3 224.107 1056474
3 224.107 1042318
3 224.107 1038737
3 224.107 1032965
3 224.107 1030658
3 224.107 1027917
3 224.107 1020667
3 224.107 1016626
3 224.107 1014886
3 224.107 1014761
3 225.347 1009073
3 225.347 1005944
3 225.347 1002910
3 225.938 996320
3 225.938 993139
3 225.938 989478
3 225.938 987905
3 226.607 986092
3 226.607 985690
3 226.607 985351
3 227.268 974350
3 227.268 973185
3 227.89 972788
3 228.926 972625
3 228.926 961586
3 230.156 961073
3 230.156 960749
3 230.805 958674
3 238.438 1073425
3 238.438 1056218
3 238.438 1056205
3 238.438 1051562
3 238.438 1047566
3 238.438 1045619
3 238.438 1044398
3 239.179 1042003
3 239.179 1039928
3 239.179 1035832
3 239.179 1031191
3 239.179 1028241
3 239.179 1025207
3 239.894 1022093
3 239.894 1010548
3 239.894 1006452
3 239.894 997638
3 240.579 995446
3 240.579 993483
3 240.579 993044
3 241.832 990979
3 241.832 990842
3 243.055 990442
3 243.585 988973
3 244.155 988806
3 244.155 987006
3 244.803 983678
3 244.803 982444
3 245.481 981561
3 245.481 979761
3 246.053 976409
3 252.455 1104448
3 252.455 1093092
3 252.455 1089302
3 252.455 1087118
3 252.455 1066912
3 252.455 1065281
3 252.455 1030724
3 252.455 1029876
3 252.455 1023857
3 253.197 1017084
3 253.197 1016789
3 253.197 1013608
3 253.197 1010923
3 253.197 1007262
3 253.197 1001250
3 253.639 1000853
3 253.639 993867
3 254.011 992454
3 260.702 990966
3 260.702 990569
3 261.457 989834
3 262.778 988696
3 263.266 988664
3 266.059 1149506
3 266.059 1125315
3 266.059 1095512
3 266.059 1062434
2 266.059 1059608
3 266.059 1056048
3 266.059 1042681
3 266.059 1040345
3 266.059 1039647
3 266.059 1036567
3 266.694 1019303
3 266.694 1001422
3 266.694 998349
3 266.694 980342
3 267.536 979816
3 268.27 971653
1 269.765 967947
2 277.402 960892
3 278.241 952222
3 278.861 944741
3 278.861 943571
3 278.861 937587
3 279.5 934912
3 279.5 934597
3 279.5 931215
3 280.151 1041874
3 280.151 1040838
3 280.151 1017054
2 280.151 1008110
3 280.151 1006848
3 280.151 1005877
3 280.151 998703
3 280.622 988295
3 280.622 985261
3 280.622 983900
3 281.003 983426
2 281.609 983027
3 281.609 979932
2 284.635 972929
3 284.635 967352
2 285.877 966596
3 286.426 965009
3 294.13 1109915
3 294.13 1104658
3 294.13 1086427
3 294.13 1078994
3 294.13 1075516
3 294.13 1036002
3 294.13 1031367
3 294.13 1028158
3 294.13 1021307
3 294.874 1014737
3 294.874 1010602
3 294.874 993030
3 294.874 992711
3 294.874 991629
3 294.874 976463
3 296.153 974388
2 299.039 974176
3 299.039 971180
3 302.762 965289
3 303.208 962523
1 303.208 960831
3 303.589 954742
3 303.589 945346
3 303.589 943272
3 303.971 941305
3 308.076 1092477
3 308.076 1085940
3 308.076 1064843
3 308.076 1051281
3 308.076 1050832
3 308.076 1050804
3 308.076 1044638
3 308.076 1026613
3 308.076 1026043
3 308.076 1011864
3 308.076 995616
3 308.076 992718
3 308.076 986269
3 308.777 985978
3 308.777 983329
3 309.264 982417
3 309.264 979997
3 309.264 979668
3 309.843 979243
3 310.321 977276
3 311.508 975038
3 312.115 972347
3 312.718 972069
3 313.323 970272
3 322.522 1061757
3 322.522 1045892
3 322.522 1035673
3 322.522 1030071
3 322.522 1025977
3 322.522 1020760
3 322.522 1019867
3 322.522 1017265
3 322.522 1015722
3 322.522 1010453
3 323.284 1008743
3 323.284 1006055
3 323.284 995082
3 323.284 987855
3 323.963 987283
3 324.577 986932
3 324.577 976615
3 324.577 973924
3 324.577 971075
3 324.577 969642
3 324.577 968472
3 325.252 965401
3 325.843 959003
3 326.776 956252
3 328.124 954897
3 328.604 952059
3 334.495 950125
3 336.309 1067672
3 336.309 1063901
3 336.309 1054505
3 336.309 1029124
3 336.309 1017343
3 336.309 1011897
3 336.309 1006838
3 336.309 1005646
3 336.309 1000098
3 337.07 995544
3 337.07 983816
3 337.07 983087
3 337.07 978533
3 337.739 975842
3 337.739 974028
3 337.739 972181
3 338.385 969121
3 338.385 966801
3 338.385 962580
3 346.412 959977
2 347.025 959122
3 347.025 958725
3 347.802 956804
3 347.802 954581
3 348.558 952093
3 348.558 949667
3 350.275 1060536
3 350.275 1041414
3 350.275 1039984
3 350.275 1026918
3 350.275 1024010
3 350.275 1023334
3 350.275 1021193
3 350.275 1020911
3 350.275 1006907
3 350.817 998785
3 350.817 998487
3 350.817 997008
3 350.817 996016
3 350.817 983320
3 351.222 981709
3 351.222 980848
3 351.784 978773
3 351.784 978353
3 351.784 976082
2 353.003 976027
3 353.003 975572
3 353.003 974402
3 353.003 974198
3 353.003 968211
3 353.003 958969
3 353.68 957885
3 354.281 955283
3 354.281 951945
3 354.899 951347
3 354.899 951082
3 357.2 950725
3 358.025 950328
3 364.09 1141598
3 364.09 1115258
3 364.09 1105862
3 364.09 1104049
3 364.09 1098637
3 364.09 1080102
3 364.09 1060885
3 364.09 1052559
3 364.09 1040947
3 365.055 1034860
3 365.055 1021380
3 365.055 1017755
3 365.055 1013674
3 365.055 1000924
3 365.715 1000269
3 365.715 996722
3 365.715 990326
3 366.376 988924
3 366.376 982730
3 366.895 980765
3 367.852 975815
3 369.099 972076
3 378.071 1134751
3 378.071 1101890
2 378.071 1099288
3 378.071 1094758
3 378.071 1092945
3 378.071 1058753
3 378.071 1057785
3 378.071 1056062
3 378.071 1055818
3 378.071 1053099
3 378.071 1042110
3 378.575 1040057
3 378.575 1037441
3 378.575 1002131
3 378.575 1000523
3 378.575 1000164
3 378.992 995280
3 378.992 986575
3 378.992 983973
3 378.992 979238
1 380.529 975080
2 380.903 974079
3 380.903 971612
3 382.127 952763
3 382.773 951861
2 382.773 945732
3 382.773 944562
3 383.601 938219
3 387.563 938175
3 388.037 937317
3 392.129 1085138
3 392.129 1052921
3 392.129 1047684
3 392.129 1044023
2 392.129 1038826
3 392.129 1025818
3 392.795 1020254
3 392.795 1015037
3 393.278 1007329
3 393.278 989931
3 393.278 987580
3 393.278 976464
3 393.923 975028
3 393.923 970421
3 393.923 969998
3 393.923 969639
3 394.614 967842
3 394.614 961476
3 394.614 959697
2 394.614 954170
3 395.102 953773
3 406.085 1090271
3 406.085 1081440
3 406.085 1065931
3 406.085 1025322
3 406.085 1018380
3 406.085 1015346
2 406.739 1014347
3 406.739 1011656
3 407.364 995667
3 407.364 995060
3 407.364 994527
3 407.792 991922
3 407.792 983883
3 407.792 980222
3 407.792 977786
3 408.946 977389
3 409.659 972843
3 409.659 972048
3 410.136 969471
3 410.136 968033
3 410.136 967267
3 410.136 964298
3 410.542 962860
3 410.542 959515
3 410.542 956824
3 411.883 950674
2 420.554 1089149
3 420.554 1084263
3 420.554 1078176
3 420.554 1073082
3 420.554 1070068
3 420.554 1054063
3 420.554 1047339
3 420.554 1027861
3 420.554 1024827
3 420.554 1021395
3 421.16 1020088
3 421.16 1014149
3 421.16 1011257
3 421.16 1009736
3 421.16 1006996
3 421.16 1003231
3 421.16 1002061
3 421.16 997955
3 421.765 995667
3 421.765 994873
1 421.765 986835
3 422.252 982366
3 423.9 980896
3 424.273 974829
3 424.85 967553
3 424.85 967474
3 424.85 965399
3 426.708 959030
3 428.472 957247
3 428.472 956230
3 430.81 953997
3 430.81 953649
3 430.81 953480
3 430.81 949763
2 431.447 945912
3 431.447 939904
3 432.058 939449
3 432.058 937636
3 432.654 932049
3 434.345 1079126
3 434.345 1069528
3 434.345 1065635
3 434.345 1058872
3 434.345 1058553
3 434.345 1054182
2 434.345 1047374
3 434.345 1043189
3 434.345 1042510
3 435.073 1040752
3 435.073 1023534
3 435.073 1017786
3 435.682 1014125
3 436.328 1013728
3 436.957 1010616
3 436.957 1006401
3 437.594 1001774
3 438.229 1001724
3 438.229 1000275
3 438.229 998308
3 438.229 996323
3 438.229 991644
3 439.912 990701
3 439.912 989432
3 439.912 989256
3 445.235 974316
3 445.874 972638
3 445.874 970937
3 448.012 1103165
3 448.012 1082331
3 448.012 1079524
3 448.012 1072314
3 448.012 1066371
3 448.012 1021381
3 448.012 1007829
3 448.012 1003969
3 448.012 999636
2 448.493 998778
3 448.851 993561
3 449.322 991300
3 449.322 991245
3 449.713 989839
3 450.182 988454
3 450.182 987411
3 450.182 986105
3 450.182 985073
3 450.182 984624
3 450.838 983038
3 450.838 980906
3 450.838 979849
3 450.838 976186
3 451.487 972496
3 451.487 970529
3 451.487 969460
3 451.487 963326
3 451.487 962929
3 453.506 960977
3 453.875 960960
3 454.962 960884
3 454.962 960487
3 458.835 960069
3 459.427 959069
3 462.202 1176018
3 462.202 1152637
3 462.202 1146354
3 462.202 1111269
3 462.202 1068967
3 462.202 1068296
2 462.202 1052534
3 462.202 1048119
3 462.202 1041975
3 462.202 1039198
3 462.202 1033255
3 462.202 1030678
3 463.149 1022515
3 463.149 1019430
3 463.149 1014132
3 463.149 1013914
3 463.823 1013044
3 463.823 999057
3 463.823 997090
3 463.823 984825
3 464.496 981392
3 464.496 979317
3 466.313 976676
3 466.313 974073
3 467.14 973797
2 467.498 969353
3 467.855 968539
3 467.855 959143
3 468.617 958945
3 468.617 958864
3 468.617 957694
3 469.007 957562
3 469.362 955003
3 476.23 1118296
3 476.23 1111847
3 476.23 1099917
3 476.23 1084233
3 476.23 1065534
3 476.23 1053295
2 476.23 1046485
3 476.23 1044476
3 476.23 1042576
3 476.23 1038342
3 476.23 1015863
3 477.03 1004645
3 477.03 992150
3 477.46 988489
3 477.83 983208
3 478.379 975798
3 478.379 972241
3 479.151 958434
3 479.151 957305
3 479.778 957293
3 479.778 955561
3 480.144 955230
3 480.144 952805
3 480.144 950725
3 480.144 950457
3 480.54 950060
3 490.195 1081227
3 490.195 1076247
3 490.195 1067638
3 490.195 1064011
3 490.195 1053969
3 490.195 1050756
3 490.195 1034888
3 490.195 1028978
3 490.195 1026903
3 490.195 1025345
3 490.195 1024973
3 490.195 1015374
3 490.195 1012772
2 490.814 1007232
3 490.814 1000190
3 490.814 994973
3 490.814 993160
2 491.228 993083
3 491.228 984439
3 492.051 983014
3 492.051 982871
3 492.051 978749
3 492.051 977788
3 492.523 973475
3 492.89 972453
3 492.89 970784
2 493.648 970618
3 494.011 967728
2 494.384 965025
3 494.743 956133
3 494.743 950190
3 495.157 949793
1 501.545 948978
3 501.545 942891
3 502.168 942576
3 502.77 938801
3 504.503 1079198
3 504.503 1068823
3 504.503 1048992
3 504.503 1031981
3 505.185 1018266
3 505.185 1016339
3 505.185 1013648
3 505.185 1008252
3 505.82 1005182
3 505.82 1002381
3 505.82 996106
3 506.539 991341
3 506.904 988015
3 506.904 987680
3 506.904 984989
3 507.277 984807
3 508.348 982621
3 508.718 977748
3 509.439 977173
3 509.439 976784
3 509.439 966774
3 509.439 963133
3 509.843 961810
3 510.2 960913
3 511.24 958772
3 512.66 957872
3 513.39 956145
3 514.727 954964
2 515.149 953688
3 515.149 952070
3 515.149 951875
3 515.626 948533
3 515.626 940587
3 516.104 940370
3 516.104 939973
3 516.104 938620
3 518.067 1063953
2 518.067 1024353
3 518.067 1018356
2 518.067 1016399
3 518.067 1014121
3 518.067 1005404
3 518.067 1004434
3 518.067 1002517
3 518.067 999002
3 518.795 996612
3 518.795 993707
3 518.795 991258
3 519.555 984767
3 519.555 975187
3 520.016 974286
2 520.016 972585
3 520.016 968964
3 520.016 966151
3 520.518 956587
3 520.518 952019
3 520.896 951812
3 521.821 950996
3 522.404 948217
2 531.97 947316
3 532.349 1062857
3 532.349 1058946
3 532.349 1045287
3 532.349 1023171
3 532.795 993220
3 532.795 992358
3 532.795 990283
3 532.795 980349
3 532.795 973451
3 533.96 973218
3 534.687 967208
3 534.687 965633
3 534.687 965244
3 534.687 964847
3 535.839 963886
3 535.839 962372
3 536.26 960161
3 536.26 959298
3 537.342 959084
3 538.511 958345
3 546.129 1085232
3 546.129 1065026
3 546.129 1054818
3 546.129 1053739
2 546.129 1047945
3 546.554 1034644
3 546.554 1032228
3 546.554 1031831
3 546.554 1028170
3 546.554 1026095
3 546.554 1021418
3 546.554 1017298
3 546.554 1011355
3 546.554 984208
3 547.016 983811
3 547.016 981998
3 547.814 979298
3 547.814 979221
3 547.814 978929
3 547.814 970329
3 548.236 969702
3 548.599 968924
3 548.599 963790
3 548.599 963084
3 551.553 961317
3 551.553 960105
3 551.553 958516
2 560.552 1094737
3 560.552 1065715
3 560.552 1056245
3 560.552 1039128
3 560.552 1025848
3 560.552 1020680
3 560.552 1007425
3 560.552 1005980
3 560.552 985677
3 561.318 976355
3 561.318 973737
3 561.318 973107
3 561.318 964958
3 561.318 963030
3 561.318 961625
3 562.737 960171
3 563.942 957046
3 565.727 956040
3 565.727 955449
3 566.148 951848
3 566.148 951123
3 566.148 950606
3 566.148 947703
3 569.661 946805
3 574.023 1085036
3 574.023 1084191
2 574.023 1065377
3 574.023 1055367
3 574.023 1051706
3 574.023 1048137
3 574.023 1039201
3 574.023 1032291
3 574.023 1023705
3 574.023 1011789
3 574.023 1009048
3 574.655 997368
3 574.655 990957
3 574.655 989880
3 574.655 979027
3 574.655 977857
3 574.655 975521
3 575.263 973698
3 575.263 973301
3 575.263 972969
3 575.739 965829
3 576.455 963573
3 579.027 959953
3 581.222 958836
3 581.222 957777
3 588.179 1174304
3 588.179 1156937
3 588.179 1142984
3 588.179 1134821
3 588.179 1129467
3 588.179 1095702
3 588.179 1095510
3 588.179 1071283
3 588.179 1058377
3 588.179 1057051
3 588.179 1042129
3 588.179 1031236
3 588.704 1026206
3 588.704 1024239
3 588.704 1010984
3 589.459 1007484
3 589.459 1004101
3 589.459 993973
3 589.459 993526
3 589.459 985450
3 589.878 982551
3 590.265 980090
3 590.265 971914
3 590.265 970694
3 590.992 970034
3 590.992 967266
3 592.104 966515
3 596.076 964956
3 596.788 964226
3 596.788 963238
3 602.457 1020096
3 602.457 1018582
3 602.457 1011819
3 602.457 1006088
3 602.457 1004586
3 602.457 1000925
3 602.918 998614
3 602.918 995923
3 602.918 992086
3 603.366 988379
3 603.366 982553
3 603.752 980925
3 603.752 978938
3 603.752 976863
3 603.752 974974
3 603.752 968594
3 604.182 967729
3 616.458 1076678
2 616.458 1075456
3 616.458 1074086
3 616.458 1071053
3 616.458 1058090
3 616.458 1049893
3 616.458 1041172
3 616.458 1029362
3 616.458 1024977
3 616.458 1022902
3 617.23 1017494
1 617.23 1011290
3 617.839 1009768
3 617.839 1008503
3 617.839 1004600
3 618.912 1003127
3 620.125 1001605
3 620.51 995163
2 620.51 992083
3 621.987 986081
3 622.764 985334
2 624.217 978202
3 630.323 1205236
3 630.323 1179360
3 630.323 1155169
3 630.323 1151508
3 630.323 1134489
3 630.323 1131477
3 630.323 1112778
3 631.285 1095858
3 631.285 1087077
3 631.285 1081709
3 631.285 1078349
3 631.285 1031543
3 632.135 1021249
3 632.135 1016474
3 632.135 999270
3 632.832 984419
3 632.832 983849
3 632.832 982748
3 632.832 981008
3 632.832 979845
3 636.383 979551
3 636.383 976788
3 636.383 975065
3 636.785 975017
3 636.785 973949
3 639.988 972942
3 639.988 968248
3 639.988 967670
3 640.402 965595
3 640.402 965198
3 640.402 965113
3 640.402 963403
3 640.402 961613
3 640.833 959158
3 640.833 957207
3 641.21 956646
3 641.582 956174
3 641.971 955132
3 644.101 1049975
3 644.101 1044673
3 644.101 1004130
3 644.101 996504
3 644.516 992531
3 644.516 981018
3 644.516 975035
3 644.516 973773
3 644.516 972221
3 644.935 970945
3 645.36 968295
3 645.36 966779
3 646.114 965202
3 647.016 961657
3 647.628 960033
3 648.591 959474
3 648.959 957507
3 658.278 1157518
3 658.278 1148974
3 658.278 1129667
3 658.278 1110728
3 658.278 1105642
3 658.278 1068403
3 658.278 1058389
3 658.278 1043722
3 658.278 1025332
3 658.278 1021105
3 658.994 1019483
3 658.994 1007940
3 658.994 1007585
3 658.994 1005214
3 658.994 1002248
3 660.892 1001849
3 661.615 997953
3 661.615 996865
3 661.615 993673
3 662.068 991247
3 662.068 987159
3 662.068 984679
3 662.459 980113
3 662.459 968183
3 662.858 968088
3 662.858 962232
3 662.858 962014
3 662.858 959939
3 663.684 956215
3 664.829 955924
3 664.829 955320
2 666.08 954414
3 666.08 952339
3 666.709 948632
3 666.709 946228
3 671.251 942329
3 672.441 1089187
3 672.441 1072122
3 672.441 1051916
3 672.441 1043161
3 672.441 1041086
3 672.873 1039198
3 672.873 1037399
3 672.873 1032663
3 672.873 1027118
3 672.873 1025043
3 673.305 1022009
3 673.305 1013062
3 673.305 1012613
3 673.305 1010800
3 673.709 1010552
3 674.362 1008585
3 674.938 1005574
3 674.938 986140
3 675.411 985883
3 675.411 985496
3 675.82 976225
3 676.531 975576
3 676.531 973466
3 677.015 973435
3 677.015 972606
3 677.015 972240
3 686.185 1116712
3 686.185 1101215
3 686.185 1094219
3 686.185 1089666
3 686.185 1076482
3 686.185 1074068
3 686.185 1064552
3 686.185 1058207
3 686.915 1055913
3 686.915 1055516
3 687.312 1032906
3 687.312 1030716
3 687.312 1020771
3 687.312 1003760
3 687.728 1000099
3 687.728 999420
3 687.728 997546
3 687.728 995541
3 688.132 993750
3 689.205 990856
3 689.205 984634
3 689.205 983611
3 689.594 981627
3 690.037 979805
3 690.037 979024
3 700.09 1129898
3 700.09 1107971
3 700.09 1095516
3 700.09 1094083
3 700.09 1076333
3 700.09 1070151
3 700.09 1058221
3 700.09 1053051
3 700.09 1041602
3 700.09 1037490
3 700.09 1024715
3 700.09 1014705
3 700.905 1004854
3 702.141 1002775
3 713.941 997558
3 714.364 1183795
3 714.364 1175632
3 714.364 1132625
3 714.364 1116620
3 714.364 1104862
3 714.364 1104690
3 714.364 1094340
3 714.364 1074016
3 714.843 1039088
2 714.843 1037712
3 714.843 1037045
3 714.843 1019023
3 714.843 1016228
3 715.324 1015515
3 715.324 1003452
3 715.324 996912
3 715.324 990115
3 715.818 988080
3 715.818 987367
3 715.818 986483
3 715.818 980719
3 716.27 980632
3 716.27 978880
3 716.27 976654
3 716.733 975980
3 716.733 972946
3 716.733 972706
3 716.733 972439
3 717.143 971425
3 717.509 971120
3 717.872 969153
3 717.872 966902
3 718.399 963143
3 719.598 961996
3 719.598 959921
3 719.598 955898
3 728.072 1119339
3 728.072 1088110
3 728.072 1068841
3 728.072 1057593
3 728.072 1046259
3 728.072 1044138
3 728.072 1036917
3 728.929 1033851
3 728.929 1022239
3 728.929 1021191
3 728.929 1020686
3 728.929 1002016
3 728.929 997901
3 728.929 992154
3 728.929 991757
3 729.674 989241
3 730.132 985371
3 730.132 983821
3 730.132 981746
3 730.132 981349
3 732.714 980743
3 732.714 980695
3 732.714 978186
3 733.209 976159
2 735.527 973356
3 735.527 969647
3 735.527 963404
3 735.527 959568
2 739.365 947581
3 739.978 946562
3 740.585 944161
3 742.379 1075466
3 742.379 1064843
3 742.379 1056801
3 742.379 1032610
3 742.379 1032538
3 742.379 1025283
3 743.103 1013353
3 743.743 1009345
3 743.743 1001916
3 743.743 1000119
3 743.743 995849
3 743.743 991777
3 744.444 983614
3 745.063 981381
3 745.063 979454
3 745.063 974237
3 745.724 970804
3 747.396 967047
3 747.396 966802
3 747.396 965409
3 747.396 964666
3 747.86 958390
3 747.86 956541
3 747.86 956516
3 748.394 955398
3 748.394 955001
3 748.394 954044
2 749.021 950227
3 756.423 1131688
3 756.423 1127231
3 756.423 1107707
3 756.423 1104046
3 756.423 1090791
3 756.423 1086361
3 756.423 1059624
3 756.423 1042854
3 756.423 1042613
3 756.423 1041443
3 757.193 1027583
3 757.193 1027186
3 757.193 1009032
3 757.193 1002855
3 757.193 1001546
1 757.864 998240
3 757.864 995710
3 758.494 993635
3 758.494 991668
3 758.494 987935
3 759.126 986045
3 759.126 983443
3 759.126 978318
3 759.765 976753
3 759.765 974062
3 759.765 973278
3 759.765 972012
3 760.41 971882
3 761.015 971081
3 761.611 969874
3 761.611 969006
2 769.672 968700
3 770.303 1032737
3 770.303 1032675
3 770.303 1028396
3 770.303 1027580
2 770.303 1024512
3 770.303 1012900
3 770.303 1005655
3 771.609 996259
3 778.548 995825
3 778.548 992164
3 779.184 988633
3 779.802 968481
3 780.411 965849
3 780.411 965646
3 780.411 964559
3 784.176 1106444
3 784.176 1097768
1 784.176 1095955
3 784.176 1094755
3 784.176 1093660
3 784.176 1083252
3 784.176 1074981
3 784.176 1070948
3 784.176 1056575
3 784.176 1049489
3 784.935 1047253
3 784.935 1046096
3 784.935 1030810
3 784.935 1026134
3 784.935 1020560
3 784.935 1017731
3 784.935 1017000
3 785.608 1012203
3 786.012 1009370
3 786.012 1008973
3 786.012 1004006
3 786.012 998922
3 786.012 998143
3 786.012 993055
3 786.462 992818
3 786.462 987997
3 787.831 987655
3 787.831 987202
3 787.831 983860
3 789.363 982690
2 791.769 980860
3 798.215 1160704
3 798.215 1100193
3 798.215 1074574
3 798.215 1068713
3 798.215 1067999
3 798.215 1027018
3 798.215 1009221
3 798.743 1005078
3 798.743 983674
3 799.39 982749
3 799.39 979236
3 799.39 977161
3 800.053 975361
3 800.053 971864
3 801.277 965506
3 801.277 965445
3 802.482 964841
3 803.078 963431
3 812.199 1094326
3 812.199 1089991
3 812.199 1085608
3 812.199 1082197
3 812.629 1080148
3 812.629 1063966
3 812.629 1032539
3 812.629 1031105
3 812.629 1015010
3 812.629 1001804
3 813.26 995370
3 815.015 993303
3 815.015 987207
3 816.868 986032
3 818.658 985635
2 823.175 980710
3 823.175 978946
3 824.547 978635
3 825.517 971331
3 825.517 970320
3 826.33 1176378
3 826.33 1167619
1 826.33 1149043
3 826.33 1096153
3 826.33 1090726
3 826.33 1077116
3 826.33 1076412
3 826.33 1060481
3 826.33 1044100
3 826.33 1041066
3 826.82 1038598
3 826.82 1038201
3 826.82 1008218
3 826.82 992471
3 826.82 981397
3 827.261 981031
3 827.261 977370
3 827.261 976896
3 828.38 968050
3 828.769 967501
3 829.498 965915
3 829.861 963878
3 829.861 960047
3 829.861 959716
3 830.253 958312
3 831.922 957419
3 833.118 956122
3 840.088 1139954
3 840.088 1097565
3 840.088 1094474
3 840.088 1068995
3 840.088 1059637
3 840.088 1028856
3 840.088 1026781
3 840.088 1016863
3 840.088 1014896
3 840.088 1010533
3 840.942 1005332
3 840.942 1005286
3 840.942 1005088
3 840.942 995605
3 841.341 995208
3 842.871 993522
2 842.871 990619
3 842.871 986376
3 843.269 972260
3 843.269 972227
3 845.818 966056
3 846.206 964868
2 852.215 963206
3 852.593 963120
3 852.965 960473
3 853.624 958506
3 854.411 1058647
3 854.411 1058567
3 854.411 1045383
3 854.411 1044813
3 854.411 1035326
3 854.411 1034978
3 854.411 1026815
3 854.411 1026163
3 855.255 1021321
3 855.255 1019929
2 855.926 1008208
3 855.926 1005602
3 855.926 999792
3 855.926 996770
3 856.587 993109
3 857.255 968342
3 857.255 967020
3 858.557 962399
3 859.392 961369
3 859.392 960667
3 859.392 959666
3 859.392 958799
3 859.895 957158
3 859.895 955765
3 859.895 955171
3 860.428 951779
3 860.428 950447
3 860.901 949812
3 860.901 947794
3 861.353 946624
3 861.353 946462
3 861.826 946024
3 861.826 945959
3 865.543 941181
3 865.936 940784
3 866.293 940747
3 868.112 1100202
3 868.112 1080787
3 868.112 1075512
3 868.112 1057178
3 868.112 1043938
3 868.112 1042306
2 868.112 1005757
3 868.112 1000974
3 868.595 996927
3 868.595 982918
3 868.595 982827
3 868.595 975100
3 868.595 972817
3 868.595 968770
3 868.595 968373
3 879.708 965572
3 879.708 960594
3 879.708 960210
3 882.442 1036553
3 882.442 1028390
3 882.442 1023001
2 882.442 1020607
3 882.442 1011158
3 882.442 1010111
3 882.442 1008571
3 882.442 1004433
3 882.442 1002358
3 883.18 989103
3 883.671 986770
3 883.671 986649
3 883.671 985486
3 884.18 982731
3 884.617 981825
3 885.33 978604
3 885.33 977049
3 885.33 974945
3 886.25 973757
3 886.25 971417
3 887.78 969119
3 890.877 967202
3 890.877 963719
3 890.877 961906
3 896.239 1072150
3 896.239 1066414
3 896.239 1063380
3 896.239 1051132
3 896.239 1047803
3 896.239 1033512
3 896.239 1023677
3 896.239 1022471
3 896.239 1013253
3 896.894 1007494
3 896.894 1001615
3 896.894 1001229
3 896.894 1000741
3 897.541 997996
3 897.541 983730
3 898.74 981798
2 899.384 980069
3 900.641 974862
3 900.641 974126
3 901.032 972786
3 901.032 966929
3 901.76 966387
3 902.248 964948
3 902.248 963696
3 902.854 962375
3 902.854 959684
3 905.092 959424
3 905.462 957705
3 906.903 956695
1 906.903 956256
3 910.579 1121976
3 910.579 1108721
3 910.579 1094592
3 910.579 1078721
3 910.579 1060605
3 910.579 1055272
3 910.579 1051773
3 910.579 1048795
3 910.579 1022928
3 910.579 1022252
3 910.579 1004239
3 911.366 1003199
3 911.366 1003129
3 911.366 991993
3 911.366 991600
3 913.212 982874
3 913.212 969868
3 913.212 968944
3 913.847 966869
3 913.847 962890
3 914.486 962623
3 914.486 960412
3 914.486 959444
3 915.104 956753
3 916.901 956208
3 916.901 949212
3 919.279 947401
3 924.014 1215861
3 924.014 1138474
2 924.014 1131320
3 924.014 1124075
3 924.014 1107064
3 924.014 1103403
3 924.014 1095919
3 924.014 1090641
3 924.014 1090148
3 924.014 1088181
3 924.803 1079314
3 924.803 1073276
3 924.803 1068833
3 924.803 1067643
3 924.803 1063338
2 924.803 1041100
3 924.803 1040703
3 924.803 1038666
3 924.803 1037982
3 924.803 1037952
3 924.803 1028895
3 924.803 1027565
3 925.59 1018994
3 925.59 1016566
3 925.59 1012905
3 925.59 1011884
3 925.59 1011314
3 925.59 1009239
3 925.59 1003498
3 926.321 999979
3 926.321 993234
3 926.321 991554
3 926.321 982324
3 926.321 979785
3 926.991 977259
3 926.991 976124
3 926.991 974523
3 927.629 969128
2 927.629 968504
3 927.629 958275
3 928.027 957707
3 928.385 957702
3 928.385 957453
3 928.385 955736
3 928.924 954859
3 928.924 954566
3 928.924 952718
3 928.924 951066
2 928.924 949057
3 930.083 948984
3 930.083 948740
3 934.045 948659
3 935.822 948049
3 935.822 947099
3 936.429 944828
3 936.429 942753
3 938.174 1052227
3 938.174 1043486
3 938.174 1042271
3 938.174 1040615
2 938.174 1039456
3 938.174 1029416
3 938.174 1026382
3 938.174 1010427
3 938.174 1001798
3 939.453 993629
3 939.453 989868
1 940.248 979814
3 940.248 979417
3 940.248 971903
3 940.248 969771
3 940.248 969212
3 940.248 967349
3 940.923 966701
3 940.923 963862
3 940.923 956819
3 940.923 952991
3 941.551 951501
3 941.989 950051
3 943.064 947632
3 952.257 1127944
3 952.257 1101401
3 952.257 1093238
3 952.257 1063504
3 952.257 1046689
3 952.257 1046493
3 952.257 1046165
3 952.257 1032601
3 952.257 1024510
3 952.257 1009960
3 952.257 1003932
3 952.257 993088
3 952.825 990906
3 953.545 990622
3 953.545 989580
3 953.966 989194
3 954.438 988243
3 954.438 984353
3 955.003 984037
3 955.003 981701
3 955.635 974471
3 956.242 971862
3 956.242 971499
3 956.242 971248
3 957.087 970396
3 966.012 1072454
3 966.012 1068712
3 966.012 1060185
3 966.012 1039760
3 966.012 1028872
3 966.012 1010759
3 966.479 1008843
2 966.479 1003655
2 967.094 999545
3 967.094 998612
3 967.094 984253
2 967.732 965761
3 967.732 958487
3 968.366 956088
3 968.366 953838
3 968.366 949606
3 968.983 949165
3 970.984 948703
3 972.198 948645
3 974.903 947359
3 974.903 944712
3 980.319 1094387
3 980.319 1058409
3 980.319 1058012
3 980.319 1045821
3 980.319 1038548
2 980.319 1024123
3 980.319 1021294
3 980.319 1021140
3 980.917 1019065
3 980.917 1018537
3 980.917 1018220
3 980.917 1016076
3 980.917 1011903
3 981.443 1009069
3 981.443 1001824
3 982.08 992195
3 982.08 989609
3 982.714 983666
3 982.714 983269
3 994.591 1088098
3 994.591 1075208
3 994.591 1074624
3 994.591 1071678
3 994.591 1043625
3 994.591 1041627
3 994.591 1030109
3 994.591 1020626
3 994.591 1013098
3 994.591 1012774
3 994.591 1012022
3 994.591 1009912
3 994.591 1003632
3 995.414 1000623
3 996.649 996387
3 997.267 995110
3 997.267 991438
3 997.267 989978
3 997.267 981841
3 997.95 974798
3 999.782 972200
3 1000.4 969509
3 1002.77 963354
3 1003.42 955597
3 1003.42 955191
3 1008.34 1076053
3 1008.34 1060556
3 1008.34 1052606
3 1008.34 1048945
3 1008.34 1039549
3 1008.34 1036858
3 1008.34 1028695
3 1009.08 1027266
3 1009.08 1023771
3 1009.08 1021966
3 1009.08 1010334
3 1009.08 1008951
2 1009.08 1002268
3 1009.77 995857
3 1009.77 995460
3 1010.95 988874
3 1010.95 985662
3 1010.95 983121
3 1010.95 982946
3 1011.79 975135
3 1011.79 974111
3 1012.53 973714
3 1012.53 970622
3 1012.53 969779
3 1012.53 968676
3 1012.53 966027
3 1013.77 964392
3 1014.84 962503
3 1015.22 962106
3 1015.58 961140
3 1017.42 960430
3 1017.42 959401
3 1017.79 959004
3 1022.38 1123355
3 1022.38 1094791
3 1022.38 1068378
3 1022.38 1060670
3 1022.38 1058703
3 1022.38 1051545
3 1022.38 1048746
3 1022.38 1024555
3 1023.02 1018802
2 1024.84 990945
3 1032.57 988325
3 1032.57 980402
2 1033.84 973816
3 1034.43 970782
3 1034.43 969931
3 1035.07 968239
2 1036.26 1199826
3 1036.26 1189433
3 1036.26 1188830
3 1036.26 1185772
3 1036.26 1161229
3 1036.26 1110411
3 1036.26 1097990
3 1036.26 1092047
3 1037.02 1072822
2 1037.02 1045922
3 1037.02 1033269
3 1037.02 1026229
3 1037.02 1020432
3 1038.36 1018418
3 1038.36 1018069
3 1038.36 1012589
3 1038.36 1005894
3 1039.05 1003927
3 1039.05 997959
3 1039.7 995268
3 1039.7 995052
3 1039.7 992193
3 1039.7 991680
3 1039.7 987883
3 1040.4 986349
3 1040.4 986176
3 1041.05 986015
3 1041.05 983792
3 1041.7 980630
2 1042.34 977857
3 1042.34 976687
3 1042.34 974722
3 1042.92 971061
3 1042.92 966589
3 1045.29 965491
3 1045.67 957521
3 1045.67 952659
3 1048.52 951688
3 1048.52 951377
3 1049.14 950980
3 1049.14 949013
3 1049.61 948100
3 1049.61 948050
3 1049.61 946589
3 1050.01 1123560
3 1050.01 1106228
3 1050.01 1102998
3 1050.01 1075336
3 1050.01 1047703
3 1050.01 1030198
3 1050.01 1025345
3 1050.01 1014611
3 1050.45 1013733
3 1050.82 1012003
3 1051.19 1010830
3 1051.19 1004887
3 1051.19 1003558
3 1051.19 1002421
3 1051.19 1001478
3 1051.78 980723
3 1051.78 977715
3 1052.54 976529
3 1053.1 974982
3 1053.7 968611
3 1053.7 968214
3 1055.45 967573
3 1055.45 967334
3 1056.66 965455
3 1064.03 1116143
3 1064.03 1092192
2 1064.03 1083670
3 1064.03 1081882
3 1064.03 1079180
3 1064.03 1050600
3 1064.03 1042098
3 1064.03 1038437
3 1064.03 1028055
3 1064.81 1027658
3 1064.81 1012650
3 1065.44 1004643
3 1066.11 992179
3 1066.76 989940
3 1067.36 987338
3 1067.36 982802
3 1067.36 980274
3 1067.36 979761
3 1067.36 973981
3 1067.36 971725
3 1068.84 971416
3 1068.84 967212
3 1069.57 966201
3 1069.57 958038
3 1070.06 956008
3 1070.06 952347
3 1070.46 948596
3 1070.82 948494
3 1070.82 942219
3 1070.82 940217
3 1071.26 939951
3 1072.82 939554
3 1075.68 934863
3 1078.45 1065497
3 1078.45 1053337
3 1078.45 1052547
3 1078.45 1051688
3 1078.45 1038971
3 1078.45 1036357
3 1078.45 1027581
3 1078.45 1025614
3 1079.2 1022524
3 1079.2 1020816
3 1079.2 1019833
3 1079.2 1012942
3 1079.2 1009880
3 1079.9 1008043
3 1079.9 1005935
3 1079.9 999855
1 1079.9 990074
3 1079.9 988762
3 1079.9 985802
3 1080.47 982141
3 1080.47 980515
3 1081.49 980164
3 1081.49 978197
3 1082.38 967764
3 1082.75 966909
3 1083.12 966590
3 1084.11 964942
2 1090.6 964746
3 1092.51 1091479
3 1092.51 1078357
3 1092.51 1077187
3 1092.51 1070047
3 1092.51 1051985
3 1092.96 1032075
3 1092.96 1024991
3 1092.96 1023690
3 1092.96 1022002
3 1092.96 1020451
3 1093.45 1019777
3 1093.45 1009731
3 1093.45 1000460
3 1093.45 996799
3 1093.45 996674
2 1093.9 991582
3 1093.9 982280
3 1094.3 969413
3 1094.3 969086
3 1094.3 968370
3 1094.7 965687
3 1094.7 965680
3 1096.8 965170
3 1097.28 963720
3 1097.28 962744
3 1098.46 962646
1 1106.08 1141890
3 1106.08 1132763
2 1106.08 1106303
3 1106.08 1096532
3 1106.08 1089287
3 1106.08 1085694
3 1106.08 1065488
3 1106.08 1059685
3 1106.08 1049675
3 1106.08 1039267
3 1106.08 1035592
3 1106.91 1034534
3 1106.91 1030482
3 1107.87 1018519
3 1107.87 1016465
3 1108.36 1008366
3 1108.91 1006291
3 1110.47 1001624
2 1110.84 995395
3 1110.84 992280
3 1110.84 988273
3 1111.24 986493
3 1111.24 983690
3 1111.24 977138
3 1111.63 976741
3 1111.99 975357
3 1111.99 975344
3 1112.36 974817
3 1115.82 971696
3 1120.16 1124661
3 1120.16 1083282
3 1120.16 1050421
3 1120.16 1038089
3 1120.84 1032146
3 1120.84 1031749
3 1120.84 1024504
3 1120.84 1023949
3 1120.84 1022160
3 1120.84 1020193
3 1120.84 1006182
3 1120.84 999778
3 1122.86 998693
3 1122.86 985839
3 1122.86 983148
3 1122.86 981628
2 1127.07 981547
3 1134.29 1064582
3 1134.29 1057899
3 1134.29 1047022
3 1134.29 1041658
3 1134.29 1033269
3 1134.29 1029608
3 1134.74 1014073
2 1134.74 1002437
3 1134.74 998718
3 1134.74 990993
3 1134.74 988816
3 1134.74 988467
3 1134.74 984378
3 1135.2 976645
3 1135.2 975467
3 1135.65 975070
3 1135.65 971197
3 1135.65 970952
3 1135.65 967448
3 1135.65 966171
3 1136.12 962454
3 1136.12 959327
3 1136.83 952348
3 1137.28 952082
3 1138.17 951438
3 1138.17 947991
3 1138.17 947594
3 1138.66 943530
3 1140.86 942597
3 1141.32 941500
3 1141.32 941103
3 1142.85 940744
3 1143.22 940293
3 1143.63 938777
3 1148.15 1113553
3 1148.15 1110509
3 1148.15 1091810
3 1148.15 1075906
3 1148.15 1067350
3 1148.15 1060998
3 1148.15 1056647
3 1148.15 1051084
3 1148.15 1039154
3 1148.15 1037263
3 1148.15 1035014
3 1148.15 1030780
3 1148.15 1017951
3 1148.69 1004626
3 1148.69 996413
3 1148.69 993892
3 1149.11 991053
3 1149.11 989803
3 1149.11 987661
3 1149.11 975503
3 1149.11 975106
3 1149.11 968685
3 1149.62 967150
3 1149.62 966937
3 1149.62 964948
3 1150.02 963998
3 1150.02 963448
3 1150.39 960530
3 1150.9 959433
3 1150.9 957466
3 1151.52 956609
3 1151.52 952888
3 1162.43 1052699
3 1162.43 1050732
3 1162.43 1050153
3 1162.43 1049363
2 1162.43 1048364
3 1162.43 1041651
3 1162.43 1041038
3 1162.43 1035753
1 1163.13 1021461
3 1163.13 1020481
3 1163.13 1015683
3 1163.13 1014588
3 1163.13 1010927
3 1163.13 1010755
3 1163.13 1008831
3 1163.13 1006937
3 1163.6 1000994
3 1164.71 1000678
3 1164.71 995637
3 1164.71 977653
3 1165.11 973727
3 1165.72 972557
3 1166.27 969523
3 1166.64 969490
3 1176.16 1069758
3 1176.16 1048607
3 1176.16 1046717
3 1176.16 1030879
3 1176.16 1025740
3 1176.88 1022549
3 1176.88 1018892
3 1176.88 1018865
2 1177.52 1013596
3 1177.52 1012284
3 1177.52 990653
3 1178.07 979676
3 1178.07 975172
2 1180.06 970218
3 1180.06 968785
3 1180.06 968521
3 1181.83 955472
3 1185.24 953505
3 1190.05 1051236
3 1190.05 1047276
3 1190.05 1040031
3 1190.05 1037476
3 1190.05 1025546
3 1190.49 1022855
3 1190.49 1021559
3 1190.49 1020799
3 1190.49 1017138
3 1190.49 1014388
3 1190.91 1012575
3 1190.91 1011296
3 1191.29 1011221
3 1191.65 1002162
3 1192.07 998123
3 1192.8 991292
3 1192.8 984864
3 1193.43 984467
3 1193.43 982242
3 1204.1 1135644
3 1204.1 1124490
1 1204.1 1099794
3 1204.1 1098692
3 1204.1 1066933
3 1204.1 1055882
3 1204.1 1046934
3 1204.1 1029432
3 1204.1 1028124
3 1204.1 1023815
3 1204.1 1023489
3 1204.86 1023092
3 1204.86 1012138
3 1204.86 1012087
3 1204.86 1006866
3 1205.51 987444
3 1205.51 983513
3 1205.51 979852
3 1206.06 968141
3 1206.06 967524
3 1206.06 964094
3 1206.44 951902
3 1206.44 949945
3 1218.14 1119426
3 1218.14 1093065
3 1218.14 1081752
3 1218.14 1079091
3 1218.14 1075071
3 1218.14 1064629
3 1218.14 1060968
3 1218.14 1046819
3 1218.14 1042211
3 1218.14 1038347
3 1218.14 1035656
3 1219.14 1022229
3 1219.14 1016120
3 1219.79 1000885
3 1219.79 989279
3 1219.79 987312
3 1220.41 986376
3 1220.41 985145
3 1221.02 985020
3 1221.02 979658
3 1221.02 977536
3 1221.02 974845
3 1221.02 973805
3 1221.57 970868
3 1222.38 969559
3 1226.8 967345
3 1227.97 964743
3 1232.01 1143581
3 1232.01 1129892
3 1232.01 1113122
3 1232.01 1109461
3 1232.01 1092557
3 1232.01 1083161
3 1232.01 1079950
3 1232.01 1079177
3 1232.01 1076319
3 1232.01 1061881
3 1232.01 1047297
2 1232.83 1026378
3 1232.83 1021671
3 1232.83 1015955
3 1233.34 1015385
3 1233.34 1002733
3 1233.34 996455
3 1233.34 989254
3 1233.86 981196
3 1233.86 975979
3 1234.26 968544
3 1234.26 966054
3 1235.22 964087
3 1236.42 963872
3 1237.05 957364
3 1237.64 951711
3 1237.64 951521
3 1237.64 949723
3 1241.83 949236
3 1242.72 948839
3 1246.44 1049643
3 1246.44 1047888
3 1246.44 1041125
3 1246.44 1037841
3 1246.44 1037707
3 1246.44 1035952
3 1246.44 1035555
3 1247.17 1033588
3 1247.17 1026724
3 1247.17 1018078
3 1247.17 1012524
3 1247.84 1010833
3 1247.84 1006062
3 1249.09 1003417
3 1249.09 1003371
3 1251.56 998199
3 1251.56 989724
3 1252.06 979669
3 1252.06 976635
3 1252.06 976556
3 1254.36 975998
3 1255.82 970422
3 1256.18 970025
3 1260.33 1067533
3 1260.33 1065621
3 1260.33 1060280
3 1260.33 1055213
3 1260.33 1047025
3 1260.33 1044950
3 1260.33 1031406
3 1260.33 1013940
3 1260.33 1006867
3 1260.33 1003773
3 1260.87 990593
3 1260.87 990518
3 1261.51 987867
3 1261.51 985408
3 1261.51 985012
3 1262.14 979548
3 1262.14 978588
2 1268.57 978047
3 1268.57 975356
2 1268.57 972439
3 1269.19 971498
3 1269.82 968504
3 1269.82 967936
3 1269.82 966337
3 1269.82 966238
3 1270.43 959695
3 1270.81 958634
3 1274.16 1064376
3 1274.16 1063857
3 1274.16 1055660
3 1274.16 1054799
3 1274.16 1045403
3 1274.16 1037272
3 1274.16 1036461
3 1274.16 1012270
3 1274.16 1009464
3 1275 1006430
3 1275 994818
3 1275 994395
3 1275 991704
3 1275.63 984322
3 1276.03 983298
3 1278.25 978562
3 1278.25 975249
3 1278.95 972181
3 1279.32 971011
3 1279.32 966275
3 1279.32 965682
3 1288.48 1126869
3 1288.48 1096631
2 1288.48 1068456
3 1288.48 1046340
3 1288.48 1027844
3 1288.48 1020700
3 1289.16 1018103
3 1289.16 1017693
3 1289.16 1005117
3 1289.16 1005023
3 1289.16 1004212
3 1289.83 1002948
3 1289.83 1001521
3 1290.45 996418
3 1290.45 991417
3 1290.45 990577
3 1291.06 989360
3 1291.06 988190
3 1291.06 982525
3 1291.06 973500
3 1291.06 973161
3 1291.5 971086
3 1302.23 1088538
3 1302.23 1023128
3 1302.23 1012485
3 1302.88 1005988
3 1302.88 1005812
3 1302.88 1003041
3 1303.53 1002421
3 1303.53 997125
1 1304.72 980951
3 1304.72 979568
3 1304.72 979171
3 1304.72 971008
3 1304.72 970897
3 1305.48 962886
3 1305.84 962520
3 1305.84 962023
3 1307.93 958161
3 1308.98 957744
3 1308.98 956086
2 1312.57 950047
3 1312.57 948877
3 1312.95 948480
3 1312.95 945628
3 1313.44 942937
3 1316.18 1151266
3 1316.18 1085856
3 1316.18 1083889
3 1316.18 1062111
3 1316.18 1040331
3 1316.18 1032758
2 1316.18 1013652
3 1316.66 1011577
3 1316.66 1011007
3 1316.66 997768
3 1316.66 994356
3 1316.66 992945
3 1317.08 978986
3 1317.08 969215
3 1317.08 969025
3 1317.53 968385
3 1317.53 966652
3 1317.91 959883
3 1317.91 958489
3 1318.66 953125
3 1319.02 951466
3 1319.54 948775
3 1319.54 947779
3 1320.16 945730
3 1320.16 943039
3 1330.16 1070047
3 1330.16 1065593
3 1330.16 1059879
3 1330.16 1048551
3 1330.16 1044987
3 1330.16 1041306
3 1330.16 1036166
3 1330.16 1026156
3 1330.68 1022878
3 1330.68 1007803
1 1330.68 1006511
3 1330.68 998160
3 1330.68 995204
3 1331.12 993938
3 1331.12 983880
3 1331.12 982008
3 1331.12 978966
3 1331.12 976891
3 1331.61 972206
3 1331.61 971701
3 1331.61 967495
3 1337.99 967280
3 1337.99 967059
3 1338.61 966263
3 1344.21 1172133
3 1344.21 1123995
3 1344.21 1104937
3 1344.21 1081574
3 1344.21 1080657
3 1344.21 1068990
3 1344.21 1038118
3 1344.21 1033510
3 1344.69 1028460
3 1344.69 1023243
3 1344.69 1022399
3 1344.69 1021482
3 1345.12 1020386
3 1345.12 1012807
3 1345.12 1011400
3 1345.12 1010230
3 1345.54 1005724
3 1345.54 1002028
3 1345.54 1001631
3 1345.54 997310
3 1345.54 994076
3 1345.54 991108
3 1345.98 985437
3 1345.98 983687
3 1346.72 978701
3 1347.08 971456
3 1348.53 963293
2 1351.08 958946
3 1352.17 954395
3 1352.17 950943
3 1352.56 950557
3 1355.42 949694
3 1358.41 1158779
3 1358.41 1149008
3 1358.41 1121947
3 1358.41 1106450
3 1358.41 1101477
3 1358.41 1087647
3 1358.41 1085572
3 1358.41 1070664
3 1358.41 1058578
3 1358.41 1058543
3 1358.91 1058146
3 1358.91 1056617
3 1358.91 1052454
3 1358.91 1045474
3 1358.91 1040869
3 1358.91 1020402
3 1358.91 1014310
3 1358.91 1010496
3 1359.56 994930
3 1359.56 994469
3 1359.56 990248
3 1360.38 989377
3 1360.38 989348
2 1361.05 987829
3 1361.05 987710
3 1361.44 987526
3 1361.44 987382
3 1361.44 987286
2 1361.87 984873
3 1361.87 980916
3 1361.87 978887
3 1362.28 975426
3 1362.28 973784
3 1362.28 963866
3 1362.28 961493
3 1362.28 959108
3 1362.71 953217
3 1363.16 951142
3 1363.16 949621
3 1363.16 949435
3 1363.62 946673
3 1363.62 946628
3 1364.12 946276
3 1372.51 1098199
3 1372.51 1080775
3 1372.51 1071959
3 1372.51 1071562
3 1372.51 1068959
3 1372.51 1059110
3 1372.51 1049173
3 1373.24 1049058
3 1373.24 1024064
3 1373.24 1020403
3 1373.24 1018328
3 1373.24 1014425
3 1373.92 1012050
3 1373.92 1004942
3 1373.92 1002120
3 1373.92 1000099
3 1374.58 997047
3 1375.19 989558
3 1375.19 987711
3 1375.84 985744
3 1375.84 985429
3 1376.4 983824
3 1376.4 981749
3 1377.88 978499
2 1378.28 976016
3 1378.28 975277
3 1379.52 973225
3 1379.52 972828
3 1379.52 970947
3 1381.95 970137
3 1386.3 1038544
3 1386.3 1030382
3 1386.3 1018493
3 1386.3 1014087
3 1386.3 1010046
3 1386.3 1004107
3 1386.3 1001879
3 1386.3 986104
3 1386.3 985874
3 1386.3 981539
3 1388.38 979632
3 1389.55 976254
3 1389.99 972191
3 1389.99 968372
3 1389.99 961214
3 1389.99 960908
3 1390.45 958489
3 1390.45 957747
3 1391.21 955020
3 1396.99 949945
3 1396.99 947593
3 1400.32 1177389
3 1400.32 1153348
3 1400.32 1113789
3 1400.32 1096778
3 1400.32 1091687
3 1400.32 1064593
3 1400.32 1033894
3 1400.32 1029958
3 1400.32 1025940
3 1400.79 1006008
3 1401.15 1002227
3 1401.15 1001662
3 1401.91 1000260
2 1401.91 998537
3 1402.37 982289
3 1403.08 980424
3 1403.08 973723
3 1403.81 973326
3 1404.16 967383
1 1404.51 964074
3 1414.03 1109930
3 1414.03 1071344
3 1414.03 1049460
3 1414.03 1046858
3 1414.03 1038210
3 1414.03 1037813
3 1414.03 1028731
2 1414.49 1021639
3 1414.49 1010080
3 1414.49 1008795
3 1415.78 1008411
3 1416.39 1006336
3 1416.39 1005730
3 1416.93 1002129
3 1416.93 997567
3 1416.93 994222
3 1417.42 992748
3 1417.42 992351
3 1417.42 989867
3 1417.82 986109
3 1418.63 985725
3 1418.63 983889
3 1418.63 983198
3 1422.68 982691
3 1423.61 981879
3 1428.12 1109954
3 1428.12 1104967
3 1428.12 1098887
2 1428.12 1094900
3 1428.12 1072616
3 1428.12 1029806
3 1428.12 1018194
3 1428.12 1015503
3 1428.88 1013307
3 1428.88 1011196
3 1428.88 1007535
3 1428.88 1005510
3 1429.55 1004100
3 1429.55 1003703
3 1429.55 995022
3 1429.55 993848
3 1430.21 992197
3 1430.21 990569
3 1430.21 983314
3 1430.21 981239
3 1430.85 980176
2 1430.85 977727
3 1430.85 976464
3 1431.52 974908
3 1432.77 974641
3 1432.77 971748
3 1433.15 971295
3 1434.44 970537
3 1434.44 965233
3 1434.44 960766
3 1434.44 960406
3 1434.44 958351
3 1434.97 957732
3 1434.97 957453
3 1434.97 945598
3 1434.97 944428
3 1436.03 941824
3 1436.86 933979
3 1437.23 933770
3 1437.82 933280
3 1437.82 931967
3 1437.82 931695
3 1442.03 1080861
3 1442.03 1078170
3 1442.03 1068774
3 1442.03 1060611
3 1442.03 1034971
3 1442.03 1031902
3 1442.03 1023347
3 1442.76 1023041
3 1442.76 1022471
3 1442.76 1006242
3 1442.76 1003965
3 1442.76 999853
3 1442.76 994099
3 1442.76 992979
3 1442.76 990467
3 1443.39 990070
3 1443.39 989165
3 1443.39 987510
3 1443.39 985903
3 1443.9 984734
3 1444.35 983530
3 1444.35 982767
3 1444.83 981701
3 1444.83 981131
3 1445.21 980781
3 1451.02 978476
3 1451.02 975018
3 1455.37 973289
3 1456.55 1067392
3 1456.55 1056534
3 1456.55 1051144
3 1456.55 1048572
3 1456.55 1047965
3 1456.55 1024783
3 1457.01 1013171
3 1457.01 1011914
3 1457.01 1011517
3 1457.41 1009164
3 1457.41 995847
3 1457.41 993726
3 1457.81 992849
3 1458.21 990315
3 1458.21 989145
3 1458.6 984974
3 1470.48 1151597
3 1470.48 1148095
3 1470.48 1133947
3 1470.48 1102262
3 1470.48 1098512
3 1470.48 1094554
3 1470.48 1092345
3 1470.48 1085100
3 1470.48 1029613
3 1471.24 1028780
3 1471.24 1022056
3 1471.24 1016309
3 1471.24 1011142
3 1471.24 1005878
3 1471.24 999909
3 1471.24 997310
3 1471.24 992093
3 1471.95 989347
3 1471.95 974898
3 1471.95 966403
3 1473.73 964082
3 1473.73 962450
3 1474.38 959774
3 1474.38 959696
3 1474.38 957259
3 1475.64 956355
3 1475.64 952042
3 1476.7 951144
3 1477.16 949974
3 1484.51 1106796
3 1484.51 1067009
3 1484.51 1051487
3 1484.51 1044242
3 1484.51 1041407
3 1484.51 1035463
3 1484.51 1029863
3 1485.27 1028505
3 1485.27 1020343
3 1485.27 1019651
3 1485.27 1018748
3 1485.27 1018588
3 1485.96 1017438
3 1485.96 1017299
3 1486.43 1010195
3 1486.43 1008035
3 1486.43 1005283
3 1486.82 998371
3 1486.82 996263
3 1487.2 994506
3 1487.95 992431
3 1488.69 992201
3 1488.69 985108
3 1488.69 983979
3 1489.77 983807
3 1490.2 980146
3 1490.2 979749
3 1490.84 974576
3 1491.42 973263
3 1491.42 972609
3 1496.69 970698
3 1496.69 970572
3 1498.09 1054979
3 1498.09 1049476
2 1498.09 1041590
3 1498.09 1024248
3 1498.09 1020651
3 1498.09 1004336
3 1498.79 989312
3 1498.79 988441
3 1498.79 986628
3 1499.21 986060
3 1499.6 983369
3 1499.6 980250
3 1500.04 978564
3 1500.04 970206
3 1500.43 963947
3 1500.43 963608
3 1500.43 961930
3 1501.57 954471
3 1501.57 954282
3 1505.62 952310
3 1512.31 1082742
3 1512.31 1036193
3 1512.31 1036074
3 1512.31 1036061
3 1512.31 1034883
3 1512.31 1034456
3 1512.31 1031767
3 1512.31 1029076
2 1512.31 1005689
3 1512.31 1004950
3 1512.31 1004482
3 1512.31 1002295
3 1512.31 1001125
3 1512.31 1001030
3 1512.31 996789
3 1512.31 995927
3 1512.87 982400
3 1512.87 980430
3 1512.87 979709
3 1513.27 976622
3 1513.27 970554
3 1513.27 959929
3 1513.71 959704
3 1514.07 959539
3 1514.88 959156
3 1515.25 953709
3 1515.62 951883
3 1515.62 947247
3 1519.22 946882
3 1526.46 1114429
3 1526.46 1106004
3 1526.46 1056026
3 1526.46 1040653
3 1526.46 1037109
3 1526.46 1027859
3 1526.46 1012362
3 1526.46 1011632
3 1526.46 1001096
3 1527.49 998809
3 1527.49 994874
3 1527.49 992099
3 1528.15 990597
3 1528.15 990199
3 1528.15 989824
3 1528.15 988045
3 1528.15 986875
3 1528.83 985022
3 1528.83 984647
3 1532.16 983881
3 1532.55 981171
3 1532.55 979204
3 1532.93 977304
3 1532.93 976471
3 1533.41 969348
3 1533.41 966314
1 1534.91 964942
3 1534.91 961565
3 1534.91 961561
3 1535.59 960632
3 1535.59 960278
3 1536.23 959533
3 1536.82 959490
3 1537.38 959136
3 1540.26 1066734
3 1540.26 1055672
3 1540.26 1046276
3 1540.68 1036910
3 1540.68 1026070
3 1540.68 1009822
3 1540.68 1001659
3 1541.11 1000833
3 1541.11 999663
3 1541.11 994924
3 1541.53 990468
3 1541.53 989015
3 1541.91 977118
3 1541.91 975967
3 1541.91 972306
3 1542.39 971871
3 1542.39 969796
3 1542.39 967105
3 1543.9 966539
3 1543.9 964572
3 1543.9 964288
3 1544.65 959163
3 1545.02 957196
3 1554.43 1073390
3 1554.43 1060135
3 1554.43 1059909
3 1554.43 1059794
3 1554.43 1059382
3 1554.43 1037266
3 1554.43 1028739
3 1554.43 1021811
3 1554.43 1014315
3 1554.43 999133
3 1555.13 998347
3 1555.13 988832
3 1555.13 988775
3 1555.59 986881
1 1555.99 982784
3 1557.06 974526
3 1557.68 973927
3 1557.68 972673
3 1557.68 971094
3 1568.27 1162972
3 1568.27 1156112
3 1568.27 1147607
3 1568.27 1140474
3 1568.27 1123107
3 1568.27 1097467
2 1568.27 1077486
3 1568.27 1064745
3 1568.75 1055963
3 1568.75 1046482
3 1568.75 1018432
3 1568.75 1016520
3 1568.75 1000100
3 1568.75 985802
3 1568.75 979837
3 1569.28 975961
3 1569.65 974680
3 1570.08 973516
3 1571.24 971310
3 1571.24 969235
3 1571.9 967387
3 1571.9 967146
3 1572.63 966544
3 1582.3 1115318
3 1582.3 1093202
3 1582.3 1090920
3 1582.3 1064905
3 1582.3 1043885
3 1582.3 1041918
3 1582.3 1034673
3 1582.3 1026028
2 1582.3 999888
3 1582.84 994671
3 1582.84 993872
3 1582.84 987496
3 1582.84 987099
3 1582.84 985665
3 1583.32 978701
3 1583.32 978255
3 1583.32 978022
3 1583.32 974194
3 1583.32 972286
3 1583.74 968599
3 1583.74 967728
3 1584.48 967183
3 1584.48 965216
3 1584.87 964819
3 1584.87 963702
2 1584.87 963303
3 1585.26 960759
3 1585.26 955269
3 1586.47 954156
3 1587.31 952578
3 1588.22 948939
3 1588.22 948551
3 1588.22 948183
3 1589.13 946108
3 1591.53 944939
3 1591.53 944255
3 1595.4 941288
3 1595.82 940891
3 1596.2 1081136
3 1596.2 1078445
3 1596.2 1075360
3 1596.2 1067764
3 1596.2 1063430
3 1596.2 1053615
3 1596.2 1047182
3 1596.2 1043521
3 1596.2 1043157
3 1596.2 1041945
3 1596.2 1012951
3 1596.2 994630
3 1596.7 989552
3 1596.7 986373
3 1596.7 979639
3 1597.1 977452
2 1597.81 976948
1 1598.88 975316
3 1599.32 967398
3 1599.78 966619
3 1600.4 961497
3 1600.4 954667
3 1601.01 954375
3 1601.01 953846
3 1601.79 953480
3 1602.81 951286
3 1604.25 951150
3 1610.47 1076733
3 1610.47 1049739
3 1610.47 1047441
3 1610.47 1045743
3 1610.47 1043783
3 1610.47 1017298
3 1610.47 1016901
3 1610.47 1010138
3 1610.47 1008171
3 1610.47 1006737
3 1610.47 1006480
2 1610.47 1005433
3 1611.23 997477
3 1611.86 996307
3 1611.86 995280
3 1612.91 993608
3 1612.91 992627
3 1613.29 985410
3 1613.29 984603
3 1613.68 982528
3 1616.2 981624
2 1616.2 978927
3 1616.2 976840
3 1616.59 976058
3 1616.59 974091
3 1616.59 972535
3 1616.99 970927
3 1616.99 970408
3 1620.69 969324
3 1621.08 958727
3 1621.8 957976
3 1621.8 956652
3 1624.32 1021804
3 1624.32 1005569
3 1624.32 1004823
3 1624.32 1003895
3 1624.73 1001866
3 1625.98 1001242
3 1625.98 985618
3 1625.98 983777
3 1625.98 980891
3 1625.98 978483
3 1626.55 977184
3 1626.55 970406
3 1626.55 967893
3 1626.55 960810
3 1627.56 959693
3 1628.01 956642
3 1628.57 955264
3 1628.57 954867
3 1633.67 953130
3 1634.05 944939
3 1638.21 1116495
3 1638.21 1100998
3 1638.21 1041852
3 1638.21 1030817
3 1638.21 1028215
3 1638.21 1022309
3 1638.21 1022214
3 1638.21 1022159
3 1638.95 1015183
3 1638.95 1006636
3 1638.95 974264
3 1639.59 970940
3 1639.59 970210
3 1640.22 968135
3 1640.22 965101
3 1640.22 964115
3 1640.22 955797
3 1640.22 952610
3 1640.89 949895
3 1642.08 948816
3 1642.55 945658
3 1642.55 945046
3 1642.55 944711
3 1643.71 942971
3 1646.32 942303
3 1646.32 940228
2 1652.09 1054208
3 1652.09 1038749
3 1652.09 1035088
3 1652.09 1034227
3 1652.09 1029092
3 1652.09 1017162
3 1652.09 1015508
3 1652.71 1013981
3 1652.71 1009293
3 1652.71 1008174
3 1653.11 1006188
3 1653.11 1004221
3 1653.5 1002714
3 1654.66 992544
3 1654.66 985891
3 1654.66 983297
3 1663.03 982136
3 1665.23 980726
3 1666.33 1113792
3 1666.33 1054750
3 1666.33 1045999
2 1666.33 1040364
3 1666.33 1038850
3 1666.33 1036411
3 1666.33 1026171
3 1666.33 1025235
3 1666.33 1025230
3 1667.01 1017145
3 1667.01 1012302
3 1667.01 1007317
3 1667.01 997567
3 1667.01 989369
3 1667.7 987160
3 1667.7 985028
3 1668.28 978318
3 1668.28 975632
3 1668.28 973490
3 1668.28 968387
3 1668.68 968027
3 1669.74 967236
3 1670.1 965521
3 1670.45 963488
3 1670.45 961906
3 1670.45 961509
3 1671.95 960371
3 1671.95 957716
3 1680.09 1098320
3 1680.09 1085543
3 1680.09 1079543
3 1680.09 1075728
3 1680.09 1059480
3 1680.09 1052664
3 1680.09 1050578
3 1680.09 1044635
3 1680.62 1039113
3 1680.62 1038737
3 1680.62 1012875
3 1680.62 1009214
3 1681.07 1009038
1 1681.46 1007412
3 1681.46 1001016
3 1681.46 999203
3 1681.85 998954
3 1682.24 991709
3 1682.24 987254
3 1682.24 983739
3 1682.24 979865
3 1682.24 977326
3 1682.64 976891
3 1682.64 973819
3 1682.64 972996
3 1682.64 970298
2 1687.42 969758
3 1687.79 968588
3 1689.25 965727
3 1694.27 1049084
3 1694.27 1039313
3 1694.27 1016560
2 1694.27 982733
3 1694.27 977855
3 1694.27 976848
3 1694.89 964095
3 1694.89 963698
3 1695.45 963516
3 1695.93 955621
2 1699.52 953574
3 1700.63 952073
3 1701.13 949219
3 1702.91 948225
3 1708.2 1077351
2 1708.2 1073745
3 1708.2 1071584
3 1708.2 1053371
3 1708.2 1050961
3 1708.2 1050769
3 1708.2 1027920
3 1708.2 1011419
3 1708.78 1006717
3 1708.78 1000774
3 1708.78 1000377
3 1708.78 999358
3 1708.78 988393
3 1709.21 987599
3 1709.21 986305
3 1709.6 985297
3 1709.6 982606
3 1709.6 982397
3 1710.04 975331
3 1710.04 971670
3 1710.5 967979
3 1710.5 967694
3 1710.88 967362
3 1710.88 965943
3 1710.88 965256
3 1711.29 965149
3 1711.9 963061
3 1712.55 962771
2 1722.11 1205338
3 1722.11 1157785
3 1722.11 1147117
3 1722.11 1134653
3 1722.11 1116422
3 1722.11 1066002
3 1722.11 1039459
3 1722.11 1037474
3 1722.11 1031340
3 1722.11 1029731
3 1722.61 1029390
3 1722.61 1026269
3 1722.61 1014921
3 1723 1011791
3 1723 1009348
3 1723 1004344
3 1723.41 1003981
3 1723.41 1002014
3 1723.8 997474
3 1723.8 996825
3 1723.8 991335
3 1723.8 990568
3 1724.31 985351
3 1724.31 982660
3 1724.78 979109
3 1725.25 966733
3 1725.25 963219
3 1725.25 957276
3 1725.75 957129
3 1736.32 1045974
3 1736.32 1043665
3 1736.32 1031457
3 1736.32 1028817
3 1736.32 1027660
3 1736.32 1026998
3 1736.32 1026458
3 1736.32 1020255
3 1736.32 1004599
3 1736.32 994431
3 1736.8 992010
3 1736.8 991452
3 1737.53 991090
3 1737.53 988333
3 1737.53 985642
3 1737.91 982468
3 1737.91 981109
3 1738.66 979138
3 1738.66 973278
3 1738.66 968109
3 1739.07 967236
3 1739.85 958734
3 1739.85 956828
3 1750.27 1027554
3 1750.27 1022039
3 1750.27 1020838
3 1750.27 986213
3 1750.27 983522
3 1750.95 981136
3 1750.95 978102
3 1751.53 977000
3 1751.53 976407
3 1751.53 967733
3 1751.94 966586
3 1751.94 963745
3 1754.61 963681
3 1756.81 959951
3 1761.24 958735
3 1761.24 958214
3 1761.86 957983
3 1764.22 1051932
3 1764.22 1024708
3 1764.22 1012319
3 1764.22 997969
3 1764.22 997711
2 1764.65 986487
3 1765.03 973262
3 1765.03 965200
3 1774.59 960771
3 1774.59 959677
3 1778.12 1082672
3 1778.12 1074509
3 1778.12 1064696
3 1778.12 1061035
3 1778.12 1060465
3 1778.12 1045484
3 1779.02 1038919
3 1779.02 1029744
3 1779.02 1020457
3 1779.02 1018644
3 1779.8 1008320
3 1780.43 1007894
3 1780.43 1007050
3 1781.05 1005083
3 1781.72 1003434
3 1781.72 1001309
3 1781.72 1000912
3 1781.72 992749
3 1781.72 987173
3 1781.72 986096
3 1781.72 984021
3 1782.42 983624
3 1783.95 981687
2 1790.23 980579
3 1790.74 978876
3 1790.74 973797
3 1790.74 973727
3 1790.74 970066
3 1791.4 964123
3 1792.03 1077401
3 1792.03 1065471
3 1792.03 1063478
3 1792.03 1060453
3 1792.03 1058526
3 1792.03 1041515
3 1792.03 1035335
3 1792.03 1033817
3 1792.76 1030156
3 1792.76 1026750
3 1792.76 1015647
3 1792.76 1005624
3 1792.76 1005436
3 1792.76 996158
3 1792.76 985662
3 1792.76 982302
3 1792.76 976777
3 1793.39 970858
3 1793.39 970619
3 1793.39 968544
3 1794.82 964047
3 1796.64 962614
3 1796.64 960381
3 1797.85 951935
3 1797.85 951126
3 1798.47 947689
3 1798.47 945909
3 1798.47 944958
3 1799.11 944240
3 1801.4 943589
3 1801.4 942369
3 1802.13 940898
3 1804.12 940309
2 1806.3 1177156
3 1806.3 1176508
3 1806.3 1164558
3 1806.3 1164452
3 1806.3 1163526
3 1806.3 1157108
3 1806.3 1146700
3 1806.3 1129689
3 1806.3 1105325
3 1806.94 1100737
3 1806.94 1099578
3 1806.94 1089568
3 1806.94 1086534
3 1807.5 1076408
3 1807.5 1076103
3 1807.5 1075706
3 1807.5 1072747
3 1807.5 1070828
3 1807.5 1070124
3 1807.5 1069658
1 1807.5 1066469
3 1808.22 1058306
3 1808.22 1058024
3 1808.22 1056697
3 1808.22 1052646
3 1808.22 1048336
3 1809.6 1028800
3 1809.6 1027254
3 1813.4 1024145
3 1816.19 1022321
3 1816.19 1019600
3 1816.83 1015315
3 1816.83 1009228
3 1817.48 1007645
3 1817.48 1003099
2 1817.48 988063
3 1818.72 986427
3 1820.12 1173123
3 1820.12 1164960
3 1820.12 1142844
3 1820.12 1093912
3 1820.12 1088695
3 1820.12 1080047
3 1820.12 1069639
3 1820.12 1067826
3 1820.12 1056006
3 1820.12 1033904
3 1820.66 1025072
3 1820.66 1018407
3 1820.66 1017531
3 1821.2 1016317
3 1821.57 1000508
3 1821.57 996288
3 1821.57 991104
3 1821.57 980696
3 1822.13 975479
3 1822.13 963427
3 1823.82 959791
3 1823.82 957250
3 1824.58 956688
3 1824.96 956291
3 1824.96 955353
3 1824.96 947857
3 1825.69 946670
3 1826.88 943741
2 1829.14 940535
3 1829.14 939293
3 1829.58 937844
3 1834.01 1098566
3 1834.01 1097638
3 1834.01 1095586
3 1834.01 1080794
3 1834.01 1073470
3 1834.01 1066987
3 1834.01 1058379
3 1834.48 1044405
3 1834.48 1033739
3 1834.48 1032744
3 1834.48 1023912
3 1834.48 1014516
3 1834.48 1012933
3 1834.48 1011825
3 1834.93 1008091
3 1834.93 996001
3 1834.93 990784
3 1834.93 990230
3 1835.34 987954
3 1835.7 985263
3 1837.08 985125
3 1837.08 981546
3 1837.61 981426
3 1837.61 981040
3 1837.61 979073
3 1838 969472
3 1838 966808
3 1838.41 964733
3 1838.78 963374
3 1838.78 959101
3 1838.78 957295
3 1843.19 957058
3 1843.19 955179
3 1843.58 955064
3 1843.94 952017
3 1848.3 1066123
3 1848.3 1027710
3 1848.3 1021767
3 1848.3 1017482
3 1848.3 1007228
3 1848.3 991669
3 1848.3 991105
3 1848.3 988998
3 1848.85 983078
3 1848.85 975220
3 1848.85 973466
3 1849.27 972492
3 1849.27 967637
3 1849.27 966538
3 1849.27 964463
3 1850.03 961191
3 1850.39 960507
3 1850.75 960118
3 1850.75 959803
3 1862.31 1048135
3 1862.31 1028595
3 1862.31 1028347
3 1862.31 1024966
3 1862.31 1020377
3 1862.31 1013520
3 1862.31 1011520
3 1862.31 1008890
3 1862.83 1007077
3 1862.83 1006841
3 1862.83 986821
3 1863.23 983997
3 1863.59 976226
3 1863.97 973833
3 1863.97 968564
3 1864.47 964903
3 1864.47 964506
3 1864.47 956343
3 1864.93 954499
3 1865.88 954124
2 1866.33 953577
3 1866.33 953337
3 1866.33 952759
3 1866.86 947721
3 1867.34 947335
3 1868.83 945222
3 1869.19 945010
3 1869.57 944432
3 1876.51 1076395
3 1876.51 1050755
3 1876.51 1042592
3 1876.51 1032327
3 1876.51 1016716
3 1876.51 1014641
3 1877.22 1014486
3 1877.22 1010980
3 1879.07 1004187
3 1879.07 992449
3 1879.07 991855
3 1879.07 989821
3 1879.07 978544
3 1890.45 1109344
2 1890.45 1107377
2 1890.45 1071217
3 1890.45 1070554
3 1890.45 1050188
3 1890.45 1045153
3 1891.15 1041030
3 1891.15 1038252
3 1891.15 1025197
3 1891.15 1019195
3 1891.15 1011928
3 1891.15 1003611
3 1891.15 1002815
3 1891.82 998152
3 1891.82 994652
3 1891.82 976539
3 1891.82 972493
3 1891.82 971323
3 1891.82 970868
3 1891.82 962390
3 1904.37 1051232
2 1904.37 1024332
2 1904.37 1019554
3 1904.37 1013061
3 1904.37 1007783
3 1905.07 988696
3 1905.07 984061
3 1905.07 983337
3 1905.07 977010
3 1905.07 976277
3 1905.07 975043
3 1905.07 971382
3 1905.76 967919
3 1906.33 963347
3 1906.33 960472
3 1906.33 958086
3 1906.72 957277
3 1906.72 956211
3 1906.72 954398
3 1906.72 948947
3 1909.29 946501
3 1909.29 944450
3 1909.68 944053
3 1918.18 1091330
3 1918.18 1083725
2 1918.18 1082082
3 1918.18 1071653
3 1918.18 1018763
3 1918.18 1013546
3 1918.18 1002202
3 1918.18 997208
3 1918.18 994263
3 1918.18 993218
3 1918.18 985777
3 1918.8 984607
3 1918.8 983885
3 1918.8 982522
3 1918.8 979115
3 1919.2 977212
3 1919.2 976660
3 1919.2 974081
3 1919.2 972114
3 1919.68 963467
3 1920.43 961051
3 1921.35 960444
3 1921.81 960430
3 1921.81 957946
3 1922.18 955764
3 1922.18 938710
3 1922.18 938119
3 1922.87 937990
3 1922.87 929666
3 1923.62 926975
3 1923.62 925223
3 1924.24 924900
3 1932.23 1118288
3 1932.23 1089266
3 1932.23 1084140
3 1932.23 1068428
3 1932.23 1063409
3 1932.23 1062449
3 1932.23 1059758
3 1932.23 1058751
3 1932.23 1056676
3 1932.23 1047550
3 1932.23 1044048
3 1932.23 1038830
3 1932.23 1030716
3 1932.23 1015744
3 1932.76 1015219
3 1932.76 1013144
3 1932.76 1007726
3 1932.76 1007256
3 1932.76 994690
3 1932.76 975998
3 1933.18 973501
2 1933.18 971007
3 1933.91 969581
3 1934.36 963230
3 1934.36 959569
3 1946.21 1046296
3 1946.21 1041358
3 1946.21 1037436
3 1946.21 1033968
3 1946.21 1027802
3 1946.21 1017890
3 1946.21 1004495
3 1946.21 995919
3 1946.21 993578
3 1946.21 990976
3 1946.21 988323
3 1947.05 986569
3 1947.05 984038
3 1947.42 978807
3 1947.42 978803
3 1947.42 976272
3 1947.42 965169
3 1947.82 960576
3 1948.51 960006
3 1949.75 958054
3 1956.2 954194
3 1956.81 953249
3 1957.4 952672
3 1959.16 951174
3 1960.32 1084549
1 1960.32 1066968
3 1960.32 1066080
3 1960.32 1056805
3 1960.32 1054661
3 1960.32 1053966
3 1960.32 1029775
3 1960.32 1016901
1 1960.32 1016486
3 1960.32 1008935
3 1960.84 1006860
3 1961.63 999659
3 1961.63 999475
3 1961.63 992182
3 1961.63 987380
3 1961.63 986997
3 1962.05 985280
2 1962.05 980376
3 1962.43 976715
1 1962.94 976316
3 1966.89 968504
3 1966.89 966893
3 1967.29 964818
3 1973.74 962167
3 1974.13 1101487
3 1974.13 1100131
3 1974.13 1094750
3 1974.13 1092640
3 1974.13 1070547
3 1974.13 1067513
3 1974.13 1061939
3 1974.13 1061785
3 1974.13 1026893
3 1974.61 1023387
3 1974.61 1013616
2 1974.61 1012708
2 1974.61 1010676
3 1975.15 1006344
3 1975.71 1005049
3 1975.71 1001388
3 1975.71 998495
3 1975.71 998325
3 1976.25 980612
3 1976.25 979776
3 1976.76 979379
3 1977.52 976476
3 1977.52 970586
3 1977.52 965369
3 1977.52 961613
3 1978.04 961053
3 1978.51 959556
3 1979.24 952285
3 1988.35 1129655
3 1988.35 1113805
3 1988.35 1104409
3 1988.35 1098143
3 1988.35 1074430
3 1988.35 1066722
3 1988.35 1054792
3 1988.35 1052717
3 1988.35 1050026
3 1988.86 1033778
2 1988.86 1031572
3 1989.4 1028198
3 1989.4 1024327
3 1989.4 1020654
3 1989.4 1009794
3 1989.4 1008228
3 1989.4 1001251
3 1990 999601
3 1990 987643
3 1990 984608
3 1990 984211
3 1990.46 979480
3 1990.46 976966
3 1990.46 974978
3 1990.85 974291
3 1990.85 973305
3 1991.22 971492
3 1992.26 969534
3 1992.26 967721
3 1992.26 967550
3 1994.04 958710
3 1994.68 955049
3 1995.85 952799
3 1995.85 952402
3 2002.55 1138623
3 2002.55 1122308
3 2002.55 1117730
3 2002.55 1116310
3 2002.55 1110367
3 2002.55 1105327
3 2002.55 1092851
3 2002.55 1090160
3 2002.55 1084727
3 2003.31 1073102
3 2003.31 1063700
3 2003.31 1020890
3 2003.31 1017229
3 2004.15 1014538
3 2004.54 1011592
3 2004.54 1010269
3 2004.54 1001641
3 2004.54 998895
3 2005.67 992952
3 2006.41 990942
2 2006.78 979928
3 2006.78 979713
3 2007.16 977961
3 2007.16 977896
3 2007.58 977562
3 2009.39 970317
3 2011.76 970252
3 2011.76 962089
3 2016.5 1094574
3 2016.5 1085573
3 2016.5 1073643
3 2016.5 1073248
3 2016.5 1067930
3 2016.5 1057545
3 2016.5 1050032
1 2016.5 1010323
3 2017.26 1005106
3 2017.26 995336
2 2017.91 993176
3 2019.94 984389
3 2020.49 976004
3 2021.11 971960
3 2021.11 968299
3 2021.73 966224
2 2025.28 960415
3 2025.66 959624
3 2025.66 955330
3 2030.41 1057631
3 2030.41 1049487
3 2030.41 1048773
3 2030.41 1044190
3 2030.41 1030237
3 2030.41 1010430
3 2030.41 1010091
3 2030.41 1008997
3 2030.41 995345
3 2031.1 993141
3 2031.1 991066
3 2031.73 986001
3 2032.52 985501
3 2032.52 985104
3 2032.92 982162
3 2032.92 980480
3 2032.92 979886
3 2033.39 979558
3 2034 979161
3 2034.61 970348
3 2043.24 967231
3 2044.32 1151796
3 2044.32 1108986
3 2044.32 1108886
3 2044.32 1101023
3 2044.32 1092860
3 2044.32 1070553
3 2044.32 1068478
3 2044.78 1065372
1 2044.78 1048674
3 2044.78 1046296
3 2044.78 1041079
3 2044.78 1037293
1 2044.78 1024068
3 2045.22 1008697
3 2046.66 1008300
3 2046.66 992366
3 2046.66 990367
3 2046.66 989992
3 2047.07 987068
3 2047.07 984799
2 2047.07 982595
3 2047.07 973860
3 2047.07 971959
3 2047.54 966019
3 2047.54 964875
3 2047.54 963750
3 2047.95 962800
2 2049.05 938221
3 2049.05 933619
3 2049.55 932542
3 2050.14 931393
3 2050.7 928359
3 2054.03 928092
3 2058.13 1141196
3 2058.13 1127343
2 2058.13 1115300
2 2058.13 1089502
3 2058.13 1088757
3 2058.85 1081887
3 2058.85 1067607
3 2058.85 1066092
3 2058.85 1060153
3 2058.85 1059633
3 2058.85 1058260
3 2058.85 1057871
3 2058.85 1051921
2 2059.57 1042439
3 2059.57 1026234
3 2059.57 1020644
3 2059.57 994724
3 2059.57 991023
3 2060.24 988742
3 2060.24 979458
3 2060.24 970931
3 2060.24 966804
3 2060.24 960501
3 2060.65 960407
3 2060.65 960332
3 2060.65 957502
3 2061.03 956964
3 2072.26 1077768
2 2072.26 1042325
3 2072.26 1039615
1 2072.26 1036749
3 2072.26 1017146
3 2072.26 1016749
3 2072.26 1007727
1 2072.26 997479
3 2072.26 995177
3 2072.26 995109
3 2072.75 989530
3 2072.75 986278
3 2072.75 985881
3 2072.75 979062
3 2075.59 972122
1 2076.24 966898
3 2076.83 963181
3 2082.8 963139
3 2083.63 959463
3 2083.63 957416
3 2085.54 956068
3 2086.17 1066475
3 2086.17 1045107
3 2086.17 1023716
3 2086.17 1019207
3 2086.17 1017233
3 2086.17 1013545
3 2086.87 1001495
3 2086.87 998693
2 2086.87 983037
3 2086.87 981914
3 2086.87 977009
3 2086.87 974379
3 2088.18 971987
3 2089.37 964985
3 2099.5 962294
3 2100.24 1195226
3 2100.24 1163453
3 2100.24 1110563
3 2100.24 1088072
2 2100.24 1044049
3 2100.24 1033996
3 2100.24 1033599
2 2100.24 1031603
3 2100.24 1029066
3 2100.24 1024035
3 2100.24 1009195
3 2100.74 1007228
3 2100.74 1004319
3 2101.17 995940
3 2101.17 994291
3 2101.81 989223
3 2101.81 988484
3 2101.81 985517
3 2102.45 981033
3 2102.45 980300
3 2102.45 976343
3 2102.9 969577
3 2103.59 968305
3 2104.61 967259
3 2114.13 1035805
3 2114.13 1030477
3 2114.13 1027881
3 2114.13 1022262
3 2114.13 1021865
3 2114.13 1021040
3 2114.76 998421
3 2114.76 996454
3 2115.13 994029
2 2118.78 990041
3 2118.78 989746
3 2119.16 989351
3 2119.16 987602
3 2119.16 984815
3 2119.93 980014
3 2121.01 978137
3 2121.01 974468
3 2121.01 973503
3 2121.39 972050
2 2128.16 1176756
2 2128.16 1132477
3 2128.16 1116472
3 2128.16 1112956
3 2128.16 1102323
3 2128.16 1089967
3 2128.16 1089243
3 2128.16 1075100
3 2128.16 1048551
3 2128.16 1040388
3 2128.78 1034703
3 2128.78 1024140
3 2128.78 1022091
3 2128.78 1012928
3 2129.28 1005085
3 2129.28 1001175
3 2129.28 999100
3 2130.02 998981
3 2130.02 997168
3 2130.02 996504
3 2130.68 987663
3 2130.68 984972
3 2131.3 976222
3 2131.3 967036
3 2131.92 965875
3 2131.92 961086
3 2132.48 960672
3 2133.95 959916
3 2134.58 958958
3 2134.58 958486
3 2135.89 958417
3 2137.07 956450
3 2142.17 1067207
3 2142.17 1065612
3 2142.17 1040543
2 2142.17 1026055
3 2142.17 1002054
3 2142.17 996111
3 2142.17 994070
3 2142.63 993803
3 2142.63 990142
3 2142.63 986621
3 2142.63 981055
3 2143.04 976489
3 2143.04 975993
3 2143.55 973918
2 2146.65 968330
3 2146.65 964402
3 2147.23 961838
3 2147.82 960497
3 2148.41 959189
3 2148.41 953635
3 2148.41 952701
3 2156.1 1111433
3 2156.1 1087720
3 2156.1 1077620
3 2156.1 1048364
3 2156.1 1046317
3 2156.1 1028406
3 2156.1 1005258
3 2156.55 997716
3 2156.55 989519
3 2156.55 979013
3 2156.55 976744
3 2157.65 975591
3 2157.65 972118
3 2157.65 969427
3 2170.25 1174405
3 2170.25 1158338
3 2170.25 1142626
3 2170.25 1120917
3 2170.25 1107662
3 2170.25 1105695
3 2170.25 1083917
3 2170.25 1033971
3 2170.25 1033574
3 2170.25 1029913
3 2171.04 1028101
3 2171.04 1020856
3 2171.04 1019656
3 2171.04 1009257
3 2171.04 994989
3 2171.53 992500
3 2171.53 987283
3 2171.53 986886
3 2171.53 981747
3 2171.53 979990
3 2171.53 969733
3 2171.53 962488
2 2171.53 961509
3 2172.78 960339
3 2173.39 957060
3 2173.98 956740
3 2174.56 955789
3 2174.56 955456
3 2184.04 1082607
3 2184.04 1077015
3 2184.04 1076445
3 2184.04 1071447
3 2184.04 1055199
3 2184.04 1031147
3 2184.04 1029072
3 2184.04 1027484
3 2184.67 1024793
3 2184.67 1018083
3 2184.67 1016630
3 2185.07 1011007
3 2185.07 1010682
3 2185.07 1007082
3 2185.47 993258
3 2185.47 989031
3 2185.47 988026
3 2185.89 984406
3 2185.89 984365
3 2185.89 983780
3 2185.89 980302
3 2185.89 980283
3 2185.89 970164
3 2186.32 967130
3 2186.32 966360
3 2186.32 965963
3 2186.32 965157
3 2186.32 964659
3 2186.91 961556
3 2186.91 961159
3 2187.53 959394
3 2187.53 958716
3 2189.6 958150
3 2189.97 956994
3 2190.32 954854
3 2190.32 954033
3 2190.69 953654
3 2190.69 951479
3 2190.69 950165
3 2191.42 949585
3 2191.83 938333
3 2192.19 937574
3 2196.39 934949
3 2196.75 934805
3 2197.11 934552
3 2198.17 1015950
3 2198.17 1013168
3 2198.17 1007915
3 2198.17 1000899
3 2198.17 1000809
3 2198.17 1000562
3 2198.61 999639
3 2198.61 998922
3 2198.61 997528
3 2198.61 990906
3 2198.61 986745
3 2199.04 986028
3 2200.61 985916
3 2205.71 985885
3 2206.19 985051
3 2206.19 984483
3 2206.95 983313
3 2207.47 982758
3 2208.08 981176
3 2208.08 977079
3 2208.66 976682
2 2208.66 974347
3 2208.66 974075
3 2209.32 972905
3 2212.05 1105564
3 2212.05 1100145
3 2212.05 1089510
3 2212.05 1069025
3 2212.05 1054095
3 2212.05 1031979
3 2212.05 1029904
3 2212.75 1029638
3 2212.75 1021475
3 2213.24 1019807
3 2213.24 1014430
3 2213.65 1011903
3 2213.65 1009171
3 2213.65 1002536
3 2214.04 1002263
3 2214.04 1002092
2 2214.04 1000863
3 2214.04 997707
3 2214.45 993096
3 2214.45 989129
3 2214.84 976699
3 2215.2 974442
3 2215.2 971832
3 2217 971262
3 2221.57 964471
3 2222.33 963084
3 2226.1 1048872
3 2226.1 1047702
3 2226.1 1045508
3 2226.1 1036112
3 2226.1 1035363
3 2226.1 1030386
3 2226.62 1020319
3 2226.62 1007586
3 2226.62 1000828
3 2226.62 996542
3 2226.62 993619
3 2227.06 989990
2 2227.06 986812
3 2227.06 985928
3 2227.06 983326
3 2227.5 983244
3 2227.5 981513
3 2227.5 968015
3 2227.91 963217
3 2228.57 962218
3 2231.27 960284
3 2231.27 960274
3 2231.67 959884
3 2232.38 958869
3 2232.38 956806
3 2232.76 956658
3 2232.76 956171
3 2232.76 956104
3 2233.89 955707
3 2234.26 954499
3 2234.26 951374
3 2234.26 950131
3 2234.68 949734
3 2235.41 945153
3 2235.85 943394
3 2235.85 942997
3 2235.85 938787
3 2236.26 936363
3 2240.3 1130328
3 2240.3 1127637
3 2240.3 1114810
3 2240.3 1111234
3 2240.3 1103924
3 2240.3 1094528
3 2240.3 1063829
3 2240.77 1021019
3 2241.2 1012113
3 2241.2 1008342
3 2241.65 1006699
3 2241.65 1004889
3 2242.07 1001037
3 2242.07 999070
3 2242.07 997644
3 2242.51 991073
3 2242.51 990676
3 2242.51 982513
3 2242.91 979938
3 2244.14 979822
3 2245.35 979416
3 2245.35 978156
3 2245.35 974815
3 2246.68 973458
3 2251.34 972710
2 2254.16 1071996
3 2254.16 1051566
3 2254.16 1048532
3 2254.16 1048380
3 2254.16 1035958
3 2254.16 1035944
3 2254.16 1026959
2 2254.64 1020576
1 2254.64 1015993
3 2254.64 1015923
3 2254.64 1008503
2 2254.64 1007409
3 2254.64 1004718
3 2255.09 1004148
3 2255.09 1003605
3 2255.09 993254
3 2255.09 991320
3 2255.5 988671
2 2256.04 985987
2 2258.03 979988
3 2258.62 975867
3 2258.62 975181
3 2258.62 953615
3 2260.39 951033
3 2260.39 947782
3 2260.39 947396
2 2261.01 943858
3 2261.01 943786
3 2268.09 1126604
3 2268.09 1122943
3 2268.09 1050368
3 2268.09 1030134
3 2268.09 1027887
3 2268.09 1020390
3 2268.09 1011113
3 2268.82 1011023
3 2268.82 1002398
3 2268.82 997829
3 2268.82 980042
3 2268.82 977967
3 2268.82 972750
3 2269.49 969893
3 2269.49 967816
3 2269.49 966186
3 2269.49 965789
3 2272.56 964632
3 2273.18 964620
3 2273.18 963674
3 2273.18 961683
3 2273.18 961521
3 2273.81 959446
3 2274.92 959211
3 2275.42 959198
3 2275.42 957236
3 2276.07 955934
3 2277.84 955362
3 2277.84 951690
3 2277.84 948335
3 2282.58 1077919
3 2282.58 1076724
3 2282.58 1075112
3 2282.58 1067404
3 2282.58 1049173
3 2282.58 1037032
3 2283.28 1036260
3 2283.28 1034185
3 2283.28 1030042
3 2283.28 1026381
3 2283.28 1009370
3 2283.28 1005802
3 2283.97 996406
3 2284.58 995299
3 2285.2 992184
3 2285.2 990398
3 2285.2 983051
3 2285.2 981630
3 2285.2 976948
3 2291.87 971353
3 2296.48 1091030
3 2296.48 1078412
3 2296.48 1055126
3 2296.48 1048729
3 2296.48 1048054
3 2296.48 1047657
3 2296.48 1038261
3 2296.48 1037163
3 2296.48 1034472
3 2296.48 1033044
3 2297.24 1031231
3 2297.24 1025712
3 2297.24 1022990
3 2297.24 1010849
3 2297.93 1008288
3 2297.93 1008158
3 2297.93 1007819
3 2297.93 1005999
3 2297.93 1004497
3 2297.93 1002719
3 2297.93 1000224
3 2297.93 996315
2 2298.68 979570
3 2298.68 978714
3 2298.68 971295
3 2298.68 965920
3 2299.98 965626
3 2300.65 965300
3 2300.65 964991
3 2301.27 957103
3 2304.39 955015
3 2304.99 953542
3 2304.99 953298
3 2304.99 953266
3 2305.63 952940
3 2305.63 949011
3 2305.63 948978
3 2307.43 945570
3 2309.54 945499
3 2310.14 1060545
3 2310.14 1052682
3 2310.14 1050063
3 2310.14 1049745
3 2310.14 1040996
3 2310.82 1040349
3 2310.82 1037025
2 2310.82 1034363
3 2310.82 1029941
3 2310.82 1022801
3 2311.5 1018886
3 2311.5 1008095
3 2311.5 1006889
3 2311.5 997493
3 2312.17 988097
3 2312.17 987112
3 2312.17 981895
3 2312.17 980125
3 2312.68 971632
3 2313.05 966684
3 2313.05 966287
3 2318.95 965892
3 2319.55 962855
3 2319.55 960338
3 2320.04 959463
3 2322.72 958855
3 2323.23 958122
3 2323.23 957429
3 2324.33 1101163
3 2324.33 1093918
3 2324.33 1086206
3 2324.33 1084449
3 2324.33 1081758
3 2324.33 1053008
3 2324.33 1036947
3 2324.33 1035120
3 2324.33 1016741
3 2324.33 1015110
3 2324.79 1011199
2 2324.79 1008763
3 2324.79 1004819
3 2325.38 1003452
3 2325.38 1002899
3 2325.38 1001774
3 2325.38 999633
3 2326.04 994093
3 2326.46 992118
3 2326.46 992108
3 2326.46 986165
3 2326.86 982432
2 2330.83 981419
3 2330.83 975476
3 2330.83 975079
3 2331.24 974163
3 2331.24 972780
3 2331.24 971371
3 2331.24 962226
3 2331.65 961431
2 2332.42 955476
3 2333.21 953630
3 2333.64 949932
3 2333.64 947857
3 2334.01 947620
2 2334.39 943452
3 2334.9 939694
3 2338.06 1092026
3 2338.06 1089741
3 2338.06 1086039
3 2338.06 1083964
3 2338.06 1076719
3 2338.06 1074752
2 2338.06 1068371
3 2338.06 1056441
3 2338.06 1053110
3 2338.06 1047167
3 2339.12 1046770
3 2339.12 1038607
3 2339.95 1031392
3 2339.95 1025363
3 2339.95 1011931
3 2339.95 1011343
3 2339.95 1010222
3 2339.95 996452
3 2339.95 994442
3 2340.87 994406
3 2341.7 991642
3 2342.47 991296
3 2342.47 991281
3 2342.95 989422
3 2343.34 989025
3 2344.47 983082
2 2345.25 975940
3 2345.25 971911
3 2346.63 971473
3 2352.3 1129142
3 2352.3 1117530
3 2352.3 1115455
2 2352.3 1105673
3 2352.3 1098942
3 2352.3 1083890
3 2352.3 1079087
3 2352.3 1056419
3 2352.3 1054396
3 2352.3 1051794
3 2353.06 1045894
3 2353.06 1041098
3 2353.06 1039861
3 2353.06 1031986
3 2353.06 1025524
3 2353.74 1011825
3 2353.74 1009331
2 2353.74 1005546
3 2354.13 1005373
3 2354.13 990762
3 2354.51 988834
3 2354.88 988468
3 2354.88 988071
3 2354.88 986616
3 2354.88 986501
1 2355.29 983365
3 2355.29 978230
3 2355.29 976727
3 2356.05 971778
3 2356.05 969482
3 2358.68 968117
3 2359.7 966042
3 2360.86 963262
3 2361.78 962837
3 2361.78 962689
3 2361.78 961876
3 2366.02 1060528
3 2366.02 1054079
3 2366.02 1050646
3 2366.02 1043618
3 2366.02 1039751
3 2366.02 1034520
2 2366.73 1031310
3 2366.73 1024905
3 2366.73 1021624
3 2366.73 1017209
3 2366.73 1016812
3 2366.73 1010335
2 2367.41 979294
3 2367.41 976083
3 2367.41 974775
3 2367.41 969558
3 2368.07 966597
2 2371.14 959708
3 2374.09 959439
3 2380.43 1061844
3 2380.43 1054629
3 2380.43 1038820
3 2380.43 1036218
3 2380.43 1033025
3 2380.43 1031594
3 2380.43 1028115
3 2380.43 1026208
3 2381.05 1019866
3 2381.05 1019752
3 2381.43 1017175
3 2381.83 1014632
3 2381.83 1011573
3 2382.2 1009417
3 2382.9 1007984
3 2382.9 1007696
3 2383.66 1005621
3 2383.66 1005431
3 2384.04 1002740
3 2384.04 1002567
3 2385.45 1001209
3 2386.05 997879
3 2386.05 995804
3 2386.72 995642
3 2386.72 995334
3 2387.38 994984
3 2387.84 993232
3 2387.84 990258
3 2388.31 988479
3 2388.31 988082
3 2388.8 984204
3 2390.76 981601
3 2394.04 1051981
3 2394.04 1041972
3 2394.04 1026475
3 2394.04 1007620
3 2394.04 999423
3 2394.04 998828
3 2394.69 997042
3 2394.69 989902
3 2394.69 979150
3 2394.69 977980
3 2394.69 977434
3 2395.35 975787
3 2395.35 974743
3 2395.35 971082
3 2395.99 970959
3 2398.36 968884
3 2408.1 1179836
3 2408.1 1162825
3 2408.1 1148666
3 2408.1 1115805
3 2408.1 1101656
3 2408.1 1099944
3 2408.1 1097869
3 2408.63 1046767
3 2408.63 1044692
3 2408.63 1042725
3 2408.63 1040201
2 2408.63 1028386
3 2408.63 1028023
3 2408.63 1026308
3 2408.63 1025911
3 2409.26 1016701
3 2409.26 1014169
3 2409.26 1011135
3 2409.26 1001694
3 2409.71 994970
3 2409.71 994400
3 2409.71 986432
3 2409.71 983028
3 2410.14 972275
3 2410.14 970935
3 2410.53 968762
3 2410.53 965394
3 2410.53 964049
3 2411.14 956720
3 2411.14 955505
3 2411.76 954335
3 2422.54 1098281
3 2422.54 1075290
3 2422.54 1058279
3 2422.54 1028141
3 2422.54 1022735
3 2422.54 1003703
3 2422.54 995766
3 2422.54 995254
3 2423.12 987881
3 2423.12 987455
3 2423.12 984634
3 2423.12 983667
3 2423.12 983468
3 2423.63 982476
3 2423.63 981630
3 2423.63 976948
3 2424.03 975371
3 2424.03 972468
3 2424.53 972291
3 2425.15 970628
3 2425.15 970360
3 2425.79 968547
3 2425.79 964693
3 2425.79 963260
3 2425.79 962990
3 2425.79 962412
3 2426.43 960337
3 2427.63 957601
3 2428.24 957044
3 2428.86 953383
3 2428.86 952384
3 2428.86 951308
3 2436.19 1164839
3 2436.19 1155701
3 2436.19 1133585
3 2436.19 1074807
3 2436.19 1071146
3 2436.19 1070749
3 2436.19 1032185
3 2436.19 1030110
3 2436.72 1022824
3 2437.08 1017587
3 2437.08 1000770
2 2437.08 1000064
2 2437.08 996048
3 2437.08 994477
3 2437.5 991786
3 2437.5 991144
3 2437.87 986823
3 2437.87 983890
3 2437.87 977156
3 2440.86 976542
3 2440.86 974714
3 2448.08 973796
3 2450.24 1068492
3 2450.24 1055850
3 2450.24 1049426
3 2450.24 1046835
3 2450.24 1043507
3 2450.24 1036555
3 2450.85 1035614
3 2450.85 1033635
3 2450.85 1026218
3 2450.85 1022557
3 2450.85 1006309
3 2450.85 1005192
3 2450.85 1004749
3 2450.85 1000498
3 2451.4 997394
3 2451.4 996665
3 2451.4 996527
3 2451.89 994387
3 2451.89 994312
3 2451.89 989282
3 2452.3 984569
3 2452.3 979138
3 2452.3 976817
3 2452.3 971920
3 2452.3 969845
3 2452.3 968428
3 2452.3 959901
3 2452.3 957934
3 2464.07 1064848
3 2464.07 1062614
3 2464.07 1054271
3 2464.07 1051580
3 2464.07 1040000
3 2464.07 1009947
3 2464.07 1004004
3 2464.07 998330
3 2464.07 994490
3 2464.66 993051
3 2464.66 991235
3 2465.04 988288
3 2465.41 986893
3 2465.41 985626
3 2465.41 977463
3 2465.41 974754
3 2465.89 971950
3 2465.89 967801
3 2465.89 965110
3 2466.52 964568
3 2466.52 963978
3 2466.52 963543
3 2467.56 963019
3 2467.56 961195
3 2467.56 960566
2 2468.47 960509
3 2478.37 1116061
3 2478.37 1106051
3 2478.37 1086964
3 2478.37 1080561
3 2478.37 1054923
3 2478.37 1053053
3 2478.37 1045527
3 2478.37 1038282
3 2479.09 1035183
3 2479.09 1029000
3 2479.74 1028891
3 2479.74 1010133
3 2479.74 1009638
3 2479.74 1006947
3 2479.74 1005295
3 2480.32 1001875
3 2480.32 1001478
3 2480.32 1000955
3 2480.32 998880
3 2480.97 989622
3 2482.21 988922
3 2482.21 986847
3 2483.02 975712
3 2492.22 1101636
3 2492.22 1094835
3 2492.22 1078755
3 2492.22 1073953
3 2492.22 1072812
3 2492.22 1064182
3 2492.22 1064140
3 2492.22 1045746
3 2492.22 1033263
3 2492.22 1018852
3 2492.94 1015640
3 2493.31 1006561
3 2493.68 1004671
3 2493.68 998971
3 2493.68 998574
3 2493.68 995001
3 2494.11 991449
3 2494.11 984619
3 2494.11 982338
3 2494.11 976018
3 2494.11 971243
3 2494.88 969117
3 2494.88 966026
3 2506.26 1045950
3 2506.26 1038614
3 2506.26 1006990
3 2506.26 1001727
3 2506.94 1001281
3 2506.94 996439
3 2506.94 995098
3 2506.94 993928
3 2506.94 990984
3 2507.63 979054
3 2507.63 971761
3 2508.27 967682
3 2509.49 962331
3 2509.49 962196
3 2509.49 961877
3 2511.31 960972
3 2512.8 960832
3 2512.8 959591
3 2513.8 959186
3 2519.89 958757
2 2520.41 1104399
3 2520.41 1101316
3 2520.41 1071888
3 2520.41 1033672
3 2520.41 1025475
3 2520.93 1022932
3 2520.93 1017066
3 2520.93 1016278
3 2521.36 1013405
3 2521.36 1011351
3 2521.75 1004942
3 2521.75 1002424
3 2521.75 998695
3 2521.75 992801
3 2521.75 990341
3 2522.18 982485
3 2522.18 980533
3 2522.62 979788
3 2522.62 975904
3 2523.35 975169
3 2523.7 966933
3 2524.06 959688
3 2529.63 957350
3 2530.71 957052
3 2531.08 956158
3 2534.28 1141746
3 2534.28 1132194
3 2534.28 1131797
3 2534.28 1131117
3 2534.28 1119574
2 2534.28 1093776
3 2534.28 1076765
3 2534.28 1032522
3 2535 1028958
3 2535 1016380
3 2535 1008739
3 2535 999813
3 2535 994191
3 2535.69 987942
3 2535.69 979309
3 2535.69 977888
2 2535.69 976150
3 2535.69 972332
3 2535.69 970055
3 2535.69 966315
2 2537.64 963713
3 2538.24 957984
3 2539.41 957438
3 2539.41 952745
3 2539.41 950967
3 2540.06 950225
3 2540.06 949044
3 2542.01 946887
3 2542.76 943472
3 2544.27 941154
3 2548.53 1128867
3 2548.53 1116937
3 2548.53 1071896
3 2548.53 1066129
3 2548.53 1061546
3 2548.53 1050514
3 2548.53 1047137
3 2549.28 1046103
3 2549.28 1028493
3 2549.28 1023405
3 2549.28 1016881
3 2549.28 1006895
3 2549.96 997124
3 2549.96 991110
3 2549.96 990713
3 2549.96 978545
3 2549.96 978406
3 2549.96 978148
3 2550.66 972193
3 2550.66 971494
3 2550.66 969985
3 2551.31 966324
3 2551.31 961490
3 2551.93 960057
3 2551.93 954117
3 2551.93 948535
3 2552.53 944874
3 2554.29 943731
3 2554.88 943032
3 2554.88 939783
3 2557.08 939712
3 2562.05 1101981
3 2562.05 1085976
3 2562.05 1066718
3 2562.05 1064417
3 2562.05 1063938
2 2562.05 1027358
3 2562.05 1021756
3 2562.05 1021403
3 2562.05 1004392
3 2562.05 992452
3 2562.8 992055
3 2562.8 988971
3 2562.8 980432
3 2562.8 974289
3 2562.8 969573
3 2563.46 965166
3 2564.63 964529
3 2564.63 964321
3 2565.24 961718
3 2566.43 961321
3 2567.63 951660
3 2567.63 950731
3 2568.24 949693
3 2570.52 947697
3 2570.52 947548
3 2575.9 946426
3 2575.9 946029
3 2576.28 1092526
3 2576.28 1076900
3 2576.28 1068138
3 2576.28 1066381
3 2576.28 1050314
3 2576.28 1040833
3 2576.74 1031437
3 2576.74 1031336
3 2576.74 1031167
3 2576.74 1013745
3 2576.74 1003400
3 2576.74 1003299
3 2577.16 1002902
3 2577.16 994553
3 2577.16 992523
2 2577.54 990417
3 2577.91 984593
3 2578.48 979635
3 2579.15 972474
3 2581.09 972355
3 2581.71 969959
2 2581.71 968176
3 2581.71 962347
3 2582.36 961961
3 2582.98 961082
3 2582.98 958391
3 2585.13 952932
3 2589.95 948973
3 2590.43 1103200
3 2590.43 1081370
3 2590.43 1037127
3 2590.43 1033445
3 2590.43 1007805
3 2590.43 996053
3 2590.43 988246
3 2590.43 983731
3 2590.43 976751
3 2591.08 975484
3 2591.08 968040
3 2591.55 967648
3 2591.55 959190
3 2591.55 958848
3 2591.55 957463
3 2591.95 955844
3 2591.95 955447
3 2591.95 954596
3 2592.33 952317
3 2592.33 951126
3 2594.01 949963
2 2596.71 942926
3 2597.09 941849
3 2597.83 939158
3 2598.9 937760
3 2601.02 937227
3 2602.47 935685
3 2604.3 1016806
3 2604.3 1013343
3 2604.3 998119
3 2604.3 991837
3 2604.3 990891
3 2604.3 978961
3 2604.75 976821
3 2604.75 974130
3 2604.75 972177
3 2605.21 970607
3 2605.65 966571
3 2605.65 960632
3 2605.65 959084
3 2606.31 953707
3 2606.31 952469
3 2606.31 946129
3 2618.05 1104280
3 2618.05 1092350
3 2618.05 1089182
3 2618.05 1037006
3 2618.05 1026072
3 2618.05 1025675
3 2618.05 1003387
3 2618.05 999132
3 2618.05 997475
3 2618.05 992134
3 2618.05 983436
3 2618.57 982935
3 2618.57 977801
3 2618.95 970481
3 2618.95 966654
3 2618.95 964678
3 2619.45 959998
3 2619.45 958405
3 2620.05 957306
3 2621.25 952479
3 2622 951760
3 2622 951654
3 2622.37 951401
3 2622.37 951363
3 2625.15 951038
3 2627.02 950512
3 2632.45 1074791
3 2632.45 1049151
3 2632.45 1046117
3 2632.45 1036346
3 2632.45 1017138
2 2632.45 1012155
3 2632.89 1011395
3 2632.89 1007098
3 2633.25 1006725
3 2633.25 1005324
3 2633.25 1004831
3 2633.25 1003232
2 2633.25 989669
3 2633.66 983226
3 2633.66 981920
3 2634.02 981118
3 2634.02 978427
3 2634.7 975572
3 2636.43 975376
3 2636.78 974206
3 2636.78 971722
3 2637.15 969629
1 2642.51 966643
3 2642.91 966392
3 2643.41 965794
3 2643.41 965705
3 2643.41 965308
3 2645.96 965279
3 2645.96 963718
3 2646.58 1094558
3 2646.58 1091060
3 2646.58 1065005
3 2646.58 1058210
3 2646.58 1043821
3 2646.58 1031525
2 2647.28 1030368
3 2647.28 1025697
3 2647.9 1022663
3 2647.9 1016201
3 2648.55 1007968
3 2649.03 1007571
3 2649.54 1001249
3 2650.03 991199
3 2650.03 987796
3 2650.51 979459
3 2650.51 976444
3 2650.96 973684
3 2650.96 972669
3 2653.35 970748
3 2653.35 968163
3 2653.35 965258
3 2653.8 964861
3 2653.8 964443
3 2654.37 963364
3 2658.82 962973
3 2659.2 962343
3 2659.2 961752
3 2660.35 1063646
3 2660.35 1051034
3 2660.35 1039104
3 2660.35 1033605
3 2660.35 1027029
3 2660.35 1016185
3 2660.35 1011821
3 2661.05 1010072
3 2661.05 1007732
3 2661.05 1005130
3 2661.05 1003185
3 2661.05 1002499
3 2661.05 1002250
3 2661.05 1000336
3 2661.67 995237
3 2661.67 994840
3 2661.67 993407
3 2662.06 993199
3 2662.06 992193
3 2662.06 991796
2 2663.9 986469
3 2666.07 981860
3 2666.07 973121
3 2666.69 970221
3 2667.12 969824
3 2674.25 1151997
3 2674.25 1096951
3 2674.25 1095687
3 2674.25 1075481
3 2674.25 1066646
3 2674.25 1053842
3 2674.25 1053445
3 2674.25 1044083
3 2674.84 1040500
3 2674.84 1028570
3 2674.84 1025879
3 2674.84 1017682
3 2675.68 1007396
3 2675.68 1004896
3 2675.68 1003297
2 2676.46 1000683
3 2686.44 994205
3 2686.86 993899
3 2686.86 992520
3 2688.3 1121963
3 2688.3 1104138
3 2688.3 1100502
3 2688.3 1094241
3 2688.3 1037414
3 2688.3 1034650
3 2688.3 1015563
3 2689.27 1003633
3 2689.27 994237
3 2689.27 993381
3 2689.27 991546
3 2689.84 980948
3 2692.29 975140
3 2692.82 973680
3 2692.82 963670
3 2692.82 963024
3 2693.2 960253
3 2693.2 959495
3 2698.72 958706
3 2698.72 957536
3 2698.72 956700
3 2702.28 1049830
3 2702.28 1049599
3 2702.28 1037352
3 2702.28 1030717
3 2702.28 1029985
2 2702.28 1027180
3 2702.28 1022083
1 2702.28 1014223
3 2703.24 1010562
3 2703.24 1008861
3 2703.24 1008487
2 2704.34 1007244
3 2704.97 1002152
3 2704.97 997615
3 2704.97 994924
3 2705.62 994554
3 2705.62 993062
3 2705.62 992721
3 2705.62 985476
3 2706.32 978879
3 2706.32 978482
3 2706.97 977403
3 2706.97 976407
3 2708.24 973344
3 2709.45 970861
3 2709.45 968041
3 2710.12 966023
3 2711.32 964985
3 2711.86 963948
3 2716.03 1081700
3 2716.03 1080531
3 2716.03 1074385
3 2716.03 1064747
3 2716.03 1063816
3 2716.03 1063419
3 2716.03 1057356
3 2716.03 1044573
3 2716.51 1034802
3 2716.51 1029283
3 2716.51 1028886
3 2716.51 1026195
3 2716.51 1023161
3 2717.1 1020188
3 2717.1 1014374
3 2717.86 995499
3 2717.86 994130
3 2717.86 989547
3 2718.24 988949
3 2718.24 981794
2 2718.24 979547
3 2718.71 977146
1 2719.6 974654
3 2719.99 969861
3 2719.99 967663
3 2720.61 959500
3 2724.27 952853
3 2730.33 1083736
3 2730.33 1079161
3 2730.33 1050875
3 2730.33 1047612
3 2730.33 1044578
3 2730.33 1034918
3 2730.99 1033175
3 2730.99 1025521
3 2730.99 1014324
3 2730.99 1013927
3 2731.41 1013091
3 2731.41 1012625
3 2731.41 1011604
3 2731.8 1002632
3 2731.8 1000701
3 2731.8 995524
3 2731.8 995348
3 2732.21 989206
3 2732.21 984277
3 2733 978447
3 2733.36 977473
3 2733.36 974008
3 2733.36 973933
3 2734.1 972151
3 2734.1 970812
3 2734.49 970272
3 2744.16 1118628
3 2744.16 1106698
3 2744.16 1103037
3 2744.16 1088578
3 2744.16 1086283
3 2744.16 1085886
3 2744.16 1059833
3 2744.16 1059522
3 2744.16 1052901
3 2744.91 1039508
3 2744.91 1031345
3 2744.91 1023384
3 2744.91 1020423
3 2745.63 1004725
3 2745.63 996033
3 2745.63 987892
3 2745.63 985925
3 2745.63 982264
3 2746.34 979230
3 2746.34 977810
3 2746.96 977181
2 2746.96 976874
3 2746.96 972280
3 2747.55 968619
3 2747.55 966544
3 2752.77 961920
3 2755.83 954987
3 2756.22 954969
3 2756.22 951308
3 2758.42 1127692
3 2758.42 1125228
3 2758.42 1109181
3 2758.42 1083305
3 2758.42 1065074
3 2758.42 1061647
3 2758.42 1055033
3 2758.42 1039293
3 2758.42 1033554
3 2758.93 1032401
3 2758.93 1032004
3 2758.93 1031002
3 2758.93 1030552
3 2758.93 1011912
2 2758.93 1003741
3 2758.93 987993
3 2760.46 984893
3 2760.46 972963
3 2761.82 970504
3 2761.82 970272
3 2772.56 1028618
3 2772.56 1014861
3 2772.56 1014119
3 2772.56 1009534
3 2773.81 1001826
3 2773.81 993754
3 2773.81 992860
3 2774.45 990703
3 2774.45 989167
3 2775.1 987692
3 2775.1 986565
3 2775.1 983852
3 2778.31 981027
3 2779.43 980326
3 2781.97 977998
3 2782.59 977487
3 2784.94 977036
3 2785.34 968803
3 2785.71 968193
3 2785.71 959882
3 2785.71 958719
3 2786.14 1091506
3 2786.14 1089503
3 2786.14 1058929
3 2786.14 1050732
3 2786.14 1030092
3 2786.14 1020696
3 2786.14 1020164
3 2786.14 1016132
3 2786.14 1011467
3 2786.14 1009419
3 2786.14 986056
3 2786.65 982640
3 2787.77 982481
3 2788.14 980673
3 2788.53 976155
3 2788.9 975345
3 2789.27 971267
3 2789.27 969618
2 2791.14 968973
3 2791.14 963030
3 2791.54 959948
query_times: 58
Score = 940224
