    Blocking waiting for file lock on package cache
    Blocking waiting for file lock on package cache
    Blocking waiting for file lock on package cache
    Blocking waiting for file lock on package cache
    Blocking waiting for file lock on build directory
    Finished `release` profile [optimized] target(s) in 0.08s
     Running `target/release/tester ../a.out 0021`
3 0.023 1368896
3 0.023 1358278
3 0.023 1349255
3 0.023 1347721
3 0.925 1346283
3 0.925 1341910
3 1.694 1337237
3 1.694 1336646
3 1.694 1335347
3 4.546 1332313
3 4.546 1325966
3 4.546 1317475
3 4.546 1315837
3 5.435 1315520
3 5.435 1315026
3 5.435 1307903
3 6.261 1305408
3 6.261 1305376
3 6.261 1302720
3 7.124 1302697
3 7.905 1302087
3 8.676 1300820
3 8.676 1297285
3 8.676 1295381
3 9.526 1295358
3 10.27 1294584
3 10.27 1293066
3 13.285 1293040
3 14.069 1432406
3 14.069 1428033
3 14.069 1426554
3 14.069 1406745
3 14.069 1403309
3 15.042 1400505
3 15.042 1400482
3 15.042 1391048
3 15.042 1390160
3 15.042 1375333
3 15.042 1375181
3 16.037 1373618
3 16.037 1373360
3 16.037 1373022
3 16.037 1365021
3 17.617 1354699
3 18.434 1339879
3 18.434 1338998
3 18.434 1334206
3 19.251 1333335
3 20.003 1331682
3 20.003 1331617
3 22.273 1330642
3 22.273 1326924
3 22.273 1326901
3 22.273 1326558
3 22.273 1325655
3 23.175 1325607
3 24.625 1325542
3 26.098 1324500
3 26.098 1323181
3 26.953 1323158
3 26.953 1321685
3 26.953 1321360
3 27.781 1321321
3 27.781 1321295
3 28.65 1452765
3 28.65 1447058
3 28.65 1435214
3 28.65 1420609
1 28.65 1396883
3 29.6 1393277
3 29.6 1380500
3 29.6 1379555
3 29.6 1370752
3 29.6 1370424
3 29.6 1370376
3 29.6 1369895
3 30.569 1359090
3 30.569 1354717
3 31.398 1354210
3 31.398 1348253
3 31.398 1344006
3 32.261 1343820
3 32.261 1343752
3 32.261 1342725
3 34.623 1338352
3 37.585 1334751
3 39.101 1327000
3 39.101 1326952
3 41.559 1326001
3 41.559 1320513
3 42.408 1521455
3 42.408 1507250
3 42.408 1462306
3 42.408 1436733
3 42.408 1434138
3 42.408 1402657
3 42.408 1399404
3 42.408 1396466
3 42.408 1392098
3 42.408 1390445
3 43.5 1388502
3 43.5 1368998
3 43.5 1363965
3 43.5 1360992
3 43.5 1360591
3 44.42 1350540
3 44.42 1348796
3 44.42 1341845
3 44.42 1338512
3 45.295 1338152
3 45.295 1338140
3 45.295 1336334
3 46.163 1336312
3 46.163 1335661
3 46.163 1334911
3 46.163 1334846
3 46.163 1333388
3 47.079 1332001
3 47.875 1327559
3 48.639 1325906
3 56.09 1387424
3 56.09 1376229
3 56.09 1376191
3 56.09 1372226
3 56.09 1361434
3 56.09 1359506
3 56.09 1351829
3 56.09 1344625
3 57.116 1344266
3 57.116 1335361
3 57.116 1335240
3 57.116 1335220
3 57.979 1334008
3 57.979 1332512
3 57.979 1332497
3 57.979 1331812
3 58.835 1330658
3 58.835 1329218
3 59.668 1329213
3 59.668 1327469
3 60.485 1327446
3 61.237 1326989
3 61.989 1324400
3 61.989 1324142
3 62.777 1321883
3 63.56 1317222
3 64.305 1313804
3 64.305 1313440
3 65.101 1313417
3 70.323 1469491
3 70.323 1469468
3 70.323 1459086
3 70.323 1421887
3 70.323 1412982
3 70.323 1401264
3 70.323 1392168
3 71.333 1383288
3 71.333 1377963
3 71.333 1358750
3 71.333 1353962
3 71.333 1353673
3 71.333 1343640
3 71.333 1341391
3 72.288 1339906
3 73.037 1335926
3 73.037 1333848
3 73.853 1333484
3 73.853 1333240
3 76.065 1331722
3 76.065 1330567
3 76.845 1329926
3 76.845 1327324
3 77.62 1325126
3 77.62 1322906
3 77.62 1321759
3 79.191 1320847
3 82.02 1318594
3 82.02 1317076
3 83.601 1316297
3 84.412 1452274
3 84.412 1450258
3 84.412 1438033
3 84.412 1437176
3 84.412 1415530
3 84.412 1405950
3 84.412 1404819
3 85.436 1397109
3 85.436 1387897
3 85.436 1382580
3 85.436 1380927
3 85.436 1376682
3 86.355 1371613
3 86.355 1368550
3 86.355 1359565
3 86.355 1356341
3 86.355 1355112
3 86.355 1354925
3 86.355 1354193
3 87.348 1346117
3 87.348 1343756
3 87.348 1334630
3 87.348 1334509
3 88.237 1326054
3 88.237 1322605
3 88.237 1321510
3 89.054 1321189
3 89.835 1319498
3 90.63 1317845
3 91.389 1317260
3 91.389 1315014
3 91.389 1313598
3 98.093 1415017
3 98.093 1406176
3 98.093 1374100
3 98.093 1371680
3 98.093 1370027
3 98.093 1357834
3 98.093 1353588
3 99.101 1353565
3 99.101 1351108
3 99.101 1341509
3 99.101 1341099
3 99.101 1338884
3 99.989 1335546
3 99.989 1335182
3 99.989 1334989
3 99.989 1327647
3 99.989 1326148
3 99.989 1324149
3 100.909 1322622
3 100.909 1322599
3 100.909 1321435
3 101.739 1320641
3 101.739 1317558
3 101.739 1315480
3 101.739 1314174
3 102.594 1313235
3 103.348 1306976
3 103.348 1306588
3 104.122 1305349
3 104.865 1304859
3 108.555 1302856
3 109.273 1302743
3 112.49 1437162
3 112.49 1426628
3 112.49 1413910
3 112.49 1404596
3 112.49 1401326
3 112.49 1381199
3 112.49 1378465
3 112.49 1368206
3 113.339 1360011
3 113.339 1348485
3 113.339 1343462
3 113.339 1341973
3 114.135 1340439
3 114.791 1340374
3 117.524 1333176
3 117.524 1329126
3 118.367 1328019
3 119.17 1323764
3 119.17 1322571
3 119.17 1321277
3 126.7 1451378
3 126.7 1444922
3 126.7 1428915
3 126.7 1409566
3 126.7 1406245
3 126.7 1397317
3 126.7 1389375
3 126.7 1386760
3 126.7 1379215
3 126.7 1373505
3 128.17 1373458
3 128.17 1365384
3 128.17 1363548
3 128.78 1363308
3 128.78 1362944
3 128.78 1360974
3 128.78 1348155
3 128.78 1346777
3 129.432 1340289
3 129.432 1335860
3 129.432 1334548
3 129.432 1329816
3 129.432 1325790
3 129.432 1324301
3 130.145 1321838
3 130.145 1321473
3 130.145 1319820
3 130.745 1317786
3 132.255 1316010
3 132.255 1312756
3 132.831 1312401
3 132.831 1312150
3 132.831 1310511
3 133.424 1308546
3 133.424 1308433
3 133.983 1307133
3 134.512 1305686
3 137.551 1305281
3 138.094 1301214
3 138.094 1299767
3 140.158 1412895
3 140.158 1410708
3 140.158 1400135
3 140.158 1398126
3 140.158 1396048
3 140.158 1391089
3 140.158 1378243
3 140.158 1371241
3 140.158 1355810
3 140.158 1355446
3 140.158 1351559
3 141.009 1351073
3 141.009 1350319
3 141.592 1349790
3 141.592 1349529
3 142.173 1342454
3 143.227 1340050
3 143.227 1335472
3 143.227 1333495
3 143.867 1331014
3 144.437 1330461
3 144.437 1327444
3 144.437 1319688
3 145.048 1316645
3 145.048 1315783
3 145.048 1315728
3 145.733 1315627
3 145.733 1315100
3 146.311 1313520
3 146.311 1312327
3 147.407 1308629
3 148.463 1305548
3 148.463 1305162
3 148.463 1305097
3 148.463 1304871
3 149.102 1303218
3 149.102 1303111
3 154.451 1448836
3 154.451 1432012
3 154.451 1424253
3 154.451 1410048
3 154.451 1401943
3 154.451 1400425
3 154.451 1391584
3 154.451 1383170
3 154.451 1374265
3 155.261 1371969
3 155.261 1370323
3 155.261 1351216
3 155.261 1347962
3 155.261 1344778
3 155.261 1340469
3 156.536 1340400
3 156.536 1336160
3 156.536 1336137
3 157.145 1335333
3 158.191 1332955
3 158.72 1325962
3 158.72 1322879
3 158.72 1320538
3 159.372 1319870
3 159.372 1316731
3 159.372 1316708
3 159.372 1313335
3 159.372 1312674
3 159.99 1312458
3 159.99 1312094
3 165.343 1311400
3 166.934 1310506
3 167.466 1310483
3 168.015 1439757
3 168.015 1428855
3 168.015 1426688
3 168.015 1420733
3 168.015 1407427
3 168.668 1398117
3 168.668 1390171
3 168.668 1389042
3 168.668 1387545
3 169.408 1385892
3 169.408 1379419
3 169.408 1371965
3 170.283 1365630
3 170.283 1356316
3 170.283 1355153
3 170.283 1353271
3 171.189 1353251
3 171.189 1350302
3 171.189 1347845
3 171.189 1347648
3 171.189 1343891
3 171.189 1342633
3 172.227 1335555
3 173.05 1335004
3 173.05 1334939
3 173.05 1330219
3 173.05 1325419
3 173.937 1323766
3 173.937 1323053
3 175.52 1322325
3 175.52 1321972
3 182.261 1477365
3 182.261 1462072
3 182.261 1427578
3 182.261 1426628
3 182.261 1420456
3 182.261 1413686
3 182.261 1410711
3 182.261 1391357
3 182.261 1383527
3 182.261 1368922
3 182.261 1368659
3 182.261 1365014
3 183.393 1363480
3 183.393 1360599
3 183.393 1359434
3 184.235 1356997
3 184.235 1353592
3 184.235 1353527
3 184.235 1349472
3 185.136 1347394
3 185.136 1347043
3 185.136 1339560
3 185.136 1338764
3 185.136 1338716
3 185.136 1338005
3 186.159 1337641
3 186.159 1337394
3 186.991 1337371
3 186.991 1336477
3 186.991 1331936
3 186.991 1330728
3 187.849 1330283
3 187.849 1327455
3 187.849 1326688
3 188.667 1326665
3 188.667 1326383
3 188.667 1326135
3 190.986 1323628
3 190.986 1321260
3 191.799 1320896
3 194.715 1317311
3 194.715 1314691
3 194.715 1313292
3 195.54 1312630
3 196.304 1438827
3 196.304 1429227
3 196.304 1426215
3 196.304 1416943
3 196.304 1402362
3 196.304 1399727
3 196.304 1393671
3 197.268 1378613
3 197.268 1371999
3 197.268 1370761
3 197.268 1360191
3 197.268 1356713
3 197.268 1349549
3 197.268 1349349
3 197.268 1349284
3 197.268 1344911
3 198.278 1341620
3 198.278 1340679
3 198.278 1334991
3 199.103 1332779
3 199.103 1327927
3 199.983 1323727
3 201.386 1323662
3 202.468 1323036
3 203.488 1322672
3 205.028 1321451
3 205.028 1315478
3 210.121 1408866
3 210.121 1399297
3 210.121 1385262
3 210.121 1382623
3 210.121 1381358
3 210.121 1369312
3 210.909 1369034
3 211.452 1367482
3 211.452 1360215
3 211.452 1358090
3 211.452 1350537
3 212.624 1348908
3 212.624 1340957
3 213.815 1340892
3 214.376 1336049
3 215.507 1329097
3 218.597 1325713
3 219.13 1324105
3 219.13 1323184
3 219.13 1316565
3 219.13 1315047
3 219.13 1312794
3 220.702 1312653
3 220.702 1312191
3 221.312 1312143
3 221.312 1310554
3 221.909 1310466
3 222.497 1308973
3 223.009 1307775
3 224.083 1548400
3 224.083 1498206
3 224.083 1481500
3 224.083 1471798
3 224.083 1470754
3 224.083 1470689
3 224.083 1443097
3 224.083 1442161
3 224.912 1433352
3 224.912 1421508
3 224.912 1412937
3 224.912 1411596
3 224.912 1411203
3 224.912 1407376
3 224.912 1405131
3 224.912 1404171
3 224.912 1393366
3 224.912 1377719
3 225.809 1361297
3 225.809 1347784
3 226.379 1347092
3 227.409 1346038
3 227.409 1345753
3 227.936 1339620
3 227.936 1336912
3 228.518 1336864
3 228.518 1334217
3 229.075 1334194
3 229.597 1334130
3 229.597 1328975
3 232.675 1327299
3 233.198 1326486
3 233.198 1321746
3 233.198 1321575
3 233.824 1320041
3 233.824 1317557
3 233.824 1312857
3 234.423 1311809
3 234.983 1308105
3 235.532 1308057
3 238.48 1436847
3 238.48 1426429
3 238.48 1426406
3 238.48 1419152
3 238.48 1407308
3 238.48 1402688
3 238.48 1391883
3 238.48 1389409
3 238.48 1374804
3 238.48 1366667
3 239.295 1355685
3 239.295 1346285
3 239.295 1337065
3 239.295 1335369
3 239.965 1333124
3 239.965 1332760
3 240.538 1330960
3 240.538 1322919
3 240.538 1318152
3 241.157 1318129
3 241.157 1314065
3 241.157 1313807
3 242.829 1313443
3 244.82 1307060
3 245.352 1300346
3 245.352 1299718
3 245.352 1299238
3 245.949 1298863
3 252.402 1461349
3 252.402 1433757
3 252.402 1429683
3 252.402 1425221
3 252.402 1417971
3 252.402 1407681
3 252.402 1398278
3 252.402 1389006
3 252.402 1388983
3 253.179 1385786
3 253.179 1380984
3 253.179 1380735
3 253.179 1375155
3 254.284 1369546
3 254.284 1358741
3 255.321 1354966
3 255.321 1351903
3 255.321 1347028
3 255.321 1346664
3 255.992 1346641
3 255.992 1345107
3 255.992 1337427
3 256.585 1336951
3 256.585 1328112
3 256.585 1325906
3 256.585 1321533
3 256.585 1320840
3 257.218 1320275
3 257.218 1317774
3 257.218 1317751
3 257.791 1317314
3 259.257 1314858
3 259.257 1313743
3 259.936 1313720
3 260.471 1313672
3 262.538 1313550
3 264.692 1312032
3 266.217 1437729
3 266.217 1431720
3 266.217 1431457
3 266.217 1425628
3 266.217 1425264
3 266.217 1403543
3 266.217 1401480
3 266.217 1401428
3 266.217 1399775
3 267.022 1397707
3 267.022 1377307
3 267.022 1373983
3 267.022 1372342
3 267.629 1370515
3 267.629 1369479
3 267.629 1358752
3 267.629 1358729
3 267.629 1357188
3 267.629 1354367
3 268.306 1350756
3 268.306 1350198
3 268.306 1346876
3 268.878 1342931
3 269.383 1341841
3 269.383 1341507
3 269.922 1341484
3 269.922 1332378
3 269.922 1329277
3 269.922 1327089
3 270.543 1324374
3 271.06 1322419
3 271.06 1322389
3 271.06 1320871
3 271.617 1318987
3 272.121 1316525
3 272.121 1316512
3 273.092 1308441
3 277.923 1308384
3 280.25 1410467
3 280.25 1361909
3 280.25 1346310
3 280.25 1336327
3 280.25 1336304
3 280.25 1336208
3 281.01 1335178
3 281.01 1334814
3 281.565 1333619
3 282.08 1333599
3 282.613 1332085
3 282.613 1331423
3 284.291 1329430
3 284.291 1328146
3 284.291 1328136
3 285.968 1325117
3 289.524 1325057
3 289.524 1322917
3 291.278 1321264
3 291.278 1321051
3 291.278 1319475
3 292.439 1319197
3 292.439 1317119
3 293.106 1315540
3 293.106 1315102
3 293.745 1315028
3 293.745 1314952
3 294.376 1463863
3 294.376 1458034
3 294.376 1452201
3 294.376 1444666
3 294.376 1442120
3 294.376 1414528
3 294.376 1408894
3 294.376 1408387
3 294.376 1401237
3 294.376 1385964
3 295.518 1384446
3 295.518 1384128
3 295.518 1380489
3 295.518 1372384
3 296.337 1354721
3 297.057 1349921
3 297.789 1345674
3 297.789 1340924
3 298.479 1334886
3 298.479 1334818
3 299.328 1334795
3 299.328 1325189
3 299.328 1320586
3 299.328 1319303
3 299.328 1310836
3 299.328 1306463
3 300.248 1304929
3 300.954 1303799
3 300.954 1302146
3 300.954 1301978
3 308.621 1354276
3 308.621 1352932
3 308.621 1352291
3 308.621 1352226
3 309.597 1349656
3 309.597 1349077
3 310.542 1348018
3 311.3 1338242
3 312.808 1335646
3 312.808 1334132
3 313.678 1327685
3 314.467 1326167
3 322.336 1469534
3 322.336 1465161
3 322.336 1462026
3 322.336 1457779
3 322.336 1456876
3 322.336 1449969
3 322.336 1436874
3 323.394 1410290
3 323.394 1409225
3 323.394 1395496
3 323.394 1395058
3 323.394 1384539
3 323.394 1380684
3 323.394 1380523
3 323.394 1379783
3 323.394 1364814
3 323.394 1364331
3 324.536 1363967
3 324.536 1358050
3 324.536 1354195
3 324.536 1353540
3 324.536 1353492
3 325.465 1353469
3 325.465 1351976
3 327.093 1348818
3 327.093 1348454
3 327.093 1346738
3 327.093 1346715
3 327.993 1346554
3 327.993 1345851
3 327.993 1345752
3 328.869 1343507
3 332.872 1334680
3 333.682 1332540
3 333.682 1331476
3 333.682 1328402
3 333.682 1328048
3 335.326 1326711
3 336.421 1432729
3 336.421 1421924
3 336.421 1414884
3 336.421 1411029
3 336.421 1409052
3 336.421 1403831
3 336.421 1402297
3 336.421 1383299
3 336.421 1373627
3 337.234 1368827
3 337.234 1366241
3 337.802 1364342
3 337.802 1360095
3 338.37 1356833
3 338.923 1345691
3 338.923 1339256
3 338.923 1333961
3 339.578 1333561
3 339.578 1329946
3 340.281 1328756
3 340.831 1328284
3 340.831 1328189
3 341.963 1326648
3 342.511 1324034
3 342.511 1323209
3 343.131 1319980
3 343.131 1313715
3 343.131 1313584
3 343.755 1312105
3 344.287 1312066
3 344.845 1310250
3 344.845 1307306
3 344.845 1306428
3 346.149 1306103
3 346.717 1305879
3 347.772 1303598
3 347.772 1303533
3 348.503 1302960
3 348.503 1302267
3 348.503 1301575
3 348.503 1301552
3 350.231 1396118
3 350.231 1395176
3 350.231 1395153
3 350.231 1391055
3 350.231 1383584
3 350.231 1374775
3 350.961 1372108
3 350.961 1371917
3 350.961 1366811
3 351.621 1353929
3 351.621 1350107
3 351.621 1350059
3 351.621 1347025
3 352.277 1346592
3 352.277 1341378
3 352.844 1339725
3 352.844 1339702
3 352.844 1339207
3 353.463 1339115
3 353.463 1336382
3 353.463 1335352
3 353.463 1328825
3 353.463 1328760
3 353.463 1326682
3 353.463 1325852
3 354.208 1325594
3 354.763 1324271
3 354.763 1317940
3 354.763 1317233
3 354.763 1317185
3 355.416 1314968
3 356.964 1313403
3 356.964 1312559
3 356.964 1312298
3 356.964 1311829
3 356.964 1310906
3 356.964 1303969
3 357.723 1303946
3 358.315 1300974
3 364.437 1392277
3 364.437 1387904
3 364.437 1384658
3 364.437 1378095
3 364.437 1373456
3 364.437 1373092
3 365.256 1372197
3 365.256 1370679
3 365.943 1364094
3 365.943 1360373
3 366.546 1358128
3 367.12 1356577
3 367.12 1355989
3 378.224 1519050
3 378.224 1516370
3 378.224 1498538
3 378.224 1495216
3 378.224 1490176
3 378.224 1475329
3 378.224 1447737
3 378.224 1440507
3 378.224 1425610
3 378.224 1419215
3 379.128 1414872
3 379.128 1410908
3 379.128 1406535
3 379.128 1401594
3 379.128 1386301
3 379.128 1381846
3 379.128 1381823
3 379.128 1372532
3 379.128 1363906
3 379.128 1355053
3 379.128 1355005
3 379.128 1352849
3 380.336 1345871
3 381.914 1341233
3 381.914 1341210
3 381.914 1333425
3 382.792 1331125
3 382.792 1326752
3 389.15 1322423
3 389.15 1320680
3 389.963 1320615
3 389.963 1319463
3 389.963 1319368
3 389.963 1315255
3 391.576 1314867
3 391.576 1314844
3 391.576 1314480
3 392.439 1430633
3 392.439 1426260
3 392.439 1424607
3 392.439 1424243
3 392.439 1410844
3 392.439 1410375
3 393.446 1406425
3 393.446 1398320
3 393.446 1395825
3 393.446 1382792
3 393.446 1380502
3 393.446 1376703
3 394.407 1364436
3 394.407 1362902
3 394.407 1350476
3 395.289 1346067
3 395.289 1338540
3 395.289 1338286
3 395.289 1336752
3 395.289 1328450
3 395.289 1324673
3 397.024 1322326
3 397.812 1321858
3 399.466 1320487
3 399.466 1315917
3 399.466 1314797
3 400.345 1314619
3 401.163 1314383
3 406.673 1392278
3 406.673 1391202
3 406.673 1371187
3 406.673 1368371
3 406.673 1365172
3 407.649 1357471
3 408.471 1356670
3 408.471 1341699
3 408.471 1341634
3 408.471 1340962
3 409.384 1336568
3 409.384 1330064
3 410.215 1329229
3 410.215 1326686
3 411.089 1324537
3 411.089 1317508
3 411.917 1317104
3 414.394 1316487
3 414.394 1316400
3 415.307 1316377
3 416.877 1315634
3 416.877 1314100
3 417.683 1313728
3 420.707 1450888
3 420.707 1441616
3 420.707 1438596
3 420.707 1425727
3 420.707 1406850
3 420.707 1391041
3 420.707 1379223
3 420.707 1375769
3 420.707 1371574
3 420.707 1365117
3 421.808 1364549
3 421.808 1363751
3 421.808 1358117
3 421.808 1352047
3 421.808 1345918
3 421.808 1345674
3 421.808 1344809
3 422.788 1342544
3 422.788 1340608
3 422.788 1338171
3 423.641 1332854
3 423.641 1330907
3 423.641 1330237
3 423.641 1330214
3 424.555 1323180
3 433.523 1322109
3 434.345 1415493
3 434.345 1413620
3 434.345 1409058
3 434.345 1394080
3 434.345 1391743
3 434.345 1390432
3 434.345 1385321
3 435.395 1383606
3 435.395 1379797
3 436.253 1371317
3 436.253 1348123
3 436.253 1347640
3 436.253 1346744
3 436.253 1346075
3 436.253 1339171
3 436.253 1338445
3 437.288 1327612
3 437.288 1319992
3 438.115 1319969
3 438.115 1316834
3 438.115 1316114
3 440.529 1312339
3 446.734 1310777
3 448.309 1413866
3 448.309 1404636
3 448.309 1396483
3 448.309 1383541
3 449.247 1372554
3 449.247 1372489
3 450.056 1370672
3 450.056 1367155
3 450.056 1362199
3 450.93 1346154
3 450.93 1338796
3 450.93 1335082
3 450.93 1330647
3 452.542 1327717
3 453.325 1326290
3 454.926 1324980
3 455.754 1324619
3 455.754 1323446
3 455.754 1317962
3 455.754 1313545
3 459.723 1311816
3 462.16 1426110
3 462.16 1424576
3 462.16 1422903
3 462.16 1408813
1 462.16 1388657
3 462.16 1387284
3 462.16 1370131
3 462.16 1369240
3 463.252 1365547
3 463.252 1362462
3 463.252 1360237
3 463.252 1360172
3 464.124 1353301
3 464.124 1345196
3 464.963 1345072
3 466.586 1344952
3 467.399 1342994
1 470.393 1338440
3 470.393 1338104
3 471.21 1337222
3 471.21 1337157
3 472.009 1335104
3 472.009 1334965
3 472.842 1334391
3 472.842 1334326
3 473.642 1332880
3 473.642 1330466
3 473.642 1325476
3 473.642 1325428
3 474.528 1323775
3 475.292 1323678
3 476.194 1458792
3 476.194 1451814
3 476.194 1430107
3 476.194 1425734
3 476.194 1411537
3 476.194 1401983
3 476.194 1399199
3 476.194 1393370
3 477.203 1388627
3 477.203 1388619
3 477.203 1383261
3 477.203 1366964
3 477.203 1366830
3 477.203 1366124
3 477.203 1351730
3 477.203 1349652
3 477.203 1342369
3 477.203 1342346
3 478.26 1340848
3 478.26 1339330
3 479.069 1333097
3 479.069 1331158
3 479.069 1327008
3 479.947 1326436
3 481.479 1326072
3 483.658 1318436
3 484.408 1318069
3 484.408 1312238
3 485.192 1308797
3 486.692 1307355
3 488.152 1305417
3 488.152 1304424
3 490.388 1457234
3 490.388 1456103
3 490.388 1448393
3 490.388 1437020
3 490.388 1429044
3 490.388 1416672
3 490.388 1410243
3 490.388 1406204
3 490.388 1394417
3 490.388 1381458
3 490.388 1376498
3 491.51 1370654
3 491.51 1354798
3 491.51 1346142
3 491.51 1340090
3 491.51 1334248
3 491.51 1334225
3 492.44 1332829
3 493.186 1331990
3 493.186 1327297
3 494.088 1327160
3 494.088 1323557
3 494.088 1322782
3 494.088 1322616
3 494.088 1322027
3 495.028 1321852
3 495.028 1316688
3 495.028 1314823
3 495.028 1309115
3 495.896 1309008
3 495.896 1308985
3 495.896 1308834
3 496.728 1307504
3 496.728 1307439
3 498.213 1305647
3 498.213 1303268
3 499.82 1302736
3 499.82 1302476
3 500.61 1301593
3 500.61 1300654
3 502.125 1298954
3 503.616 1297224
3 503.616 1296125
3 504.406 1456094
3 504.406 1419181
3 504.406 1418318
3 504.406 1410376
3 504.406 1406852
3 504.406 1402997
3 504.406 1391452
3 504.406 1388921
3 505.478 1383858
3 505.478 1381724
3 505.478 1379882
3 505.478 1379214
3 505.478 1370812
3 505.478 1368409
3 505.478 1366012
3 506.443 1363778
3 506.443 1362260
3 506.443 1362195
3 507.267 1360030
3 508.125 1356865
3 508.125 1356446
3 508.125 1347605
3 508.977 1347225
3 508.977 1345707
3 508.977 1340027
3 508.977 1340004
3 508.977 1338782
3 509.896 1333101
3 509.896 1332882
3 509.896 1331824
3 510.768 1328492
3 511.549 1326958
3 515.317 1323812
3 515.317 1319375
3 515.317 1317963
3 516.915 1315441
3 516.915 1309807
3 516.915 1308410
3 517.745 1298691
3 517.745 1298668
3 518.55 1437036
3 518.55 1435926
3 518.55 1426654
3 518.55 1409970
3 518.55 1392396
3 518.55 1383555
3 518.55 1365065
3 518.55 1365042
3 519.6 1348820
3 519.6 1348336
3 519.6 1347245
3 519.6 1345395
3 519.6 1340728
3 519.6 1339194
3 519.6 1333575
3 519.6 1333527
3 520.597 1331366
3 520.597 1329713
3 520.597 1329690
3 521.427 1329328
3 521.427 1325491
3 521.427 1325473
3 522.285 1325221
3 522.285 1323939
3 524.498 1321492
3 526.629 1308252
3 526.629 1307556
3 526.629 1306607
3 527.416 1306243
3 530.82 1304723
3 531.594 1303017
3 532.351 1379205
3 532.351 1378328
3 532.351 1378005
3 532.351 1377558
3 532.351 1375503
3 532.351 1365684
3 532.351 1361829
3 532.351 1359823
3 533.391 1350014
3 533.391 1347224
3 534.21 1339279
3 534.21 1339187
3 534.21 1336976
3 534.21 1336911
3 535.11 1336001
3 537.912 1335864
3 537.912 1335500
3 538.599 1333725
3 538.599 1323465
3 540.8 1323042
3 540.8 1322977
3 540.8 1322561
3 541.627 1322257
3 542.387 1321676
3 542.387 1321356
3 545.33 1319720
3 546.087 1448991
3 546.087 1439719
3 546.087 1427134
3 546.087 1406393
3 546.087 1405606
3 546.087 1395325
3 546.087 1383377
3 546.087 1382505
3 546.087 1372817
3 546.087 1371164
3 546.087 1359684
3 546.087 1341291
3 546.087 1340753
3 547.214 1333288
3 547.214 1332894
3 547.214 1332829
3 547.214 1329572
3 548.018 1329208
3 548.815 1328067
3 551.011 1324872
3 551.011 1323678
3 551.011 1323461
3 551.011 1323389
3 551.89 1322988
3 551.89 1322401
3 551.89 1322052
3 552.746 1318633
3 552.746 1318568
3 552.746 1317888
3 552.746 1316153
3 552.746 1315923
3 552.746 1314675
3 553.676 1312597
3 553.676 1308350
3 553.676 1303132
3 554.478 1301115
3 555.202 1300638
3 556.479 1299923
3 557.23 1298309
3 557.23 1296431
3 557.23 1295254
3 560.516 1420284
3 560.516 1417801
3 560.516 1412898
3 560.516 1410680
3 560.516 1406973
3 560.516 1405880
3 561.534 1399747
3 561.534 1397168
3 561.534 1384819
3 561.534 1356881
3 561.534 1354514
3 561.534 1351694
3 562.537 1340553
3 563.209 1335258
3 563.209 1335257
3 564.881 1333507
3 564.881 1331402
3 565.978 1330602
3 567.521 1327883
3 567.521 1325506
3 568.116 1324856
3 568.699 1322106
3 574.401 1437785
3 574.401 1419953
3 574.401 1408443
3 574.401 1400220
3 574.401 1397888
3 574.401 1387305
3 574.401 1381982
3 574.401 1363539
3 574.401 1357716
3 574.401 1353224
3 574.401 1342419
3 574.401 1342055
3 574.401 1340301
3 575.389 1338900
3 575.389 1336057
3 575.389 1330755
3 575.389 1329874
3 576.209 1329405
3 576.748 1326915
3 577.885 1326538
3 577.885 1326233
3 578.473 1326168
3 579.015 1317042
3 579.015 1312873
3 579.571 1312669
3 580.069 1312305
3 588.354 1450774
3 588.354 1444876
3 588.354 1441021
3 588.354 1435636
3 588.354 1428454
3 588.354 1424599
3 588.354 1411739
1 588.354 1403868
3 588.354 1386901
3 589.186 1365957
3 589.186 1360134
3 589.186 1352867
3 589.835 1337167
3 589.835 1333312
3 589.835 1331778
3 589.835 1331414
3 590.953 1326514
3 590.953 1322980
3 591.585 1322550
3 591.585 1320897
3 592.276 1318755
3 595.996 1316475
3 602.317 1419852
3 602.317 1418199
3 602.317 1405232
3 602.317 1387634
3 602.317 1387611
3 602.317 1384807
3 602.317 1379506
3 602.317 1375133
3 602.317 1364009
3 603.121 1363794
3 603.121 1363729
3 603.121 1358640
3 603.121 1358592
3 603.121 1358541
3 603.121 1357913
3 605.904 1357252
3 605.904 1355007
3 606.478 1352917
3 606.478 1348544
3 606.478 1348241
3 607.07 1347437
3 607.07 1344534
3 607.625 1344490
3 607.625 1341748
3 607.625 1333614
3 608.214 1328623
3 608.214 1324605
3 608.214 1324241
3 608.896 1322899
3 608.896 1322896
3 608.896 1317158
3 609.576 1316635
3 610.201 1316587
3 610.201 1315102
3 610.201 1314086
3 610.927 1309286
3 616.108 1437376
3 616.108 1436636
3 616.108 1428531
3 616.712 1428346
3 616.712 1406054
3 616.712 1401807
3 616.712 1395992
3 616.712 1384855
3 617.355 1367671
3 617.355 1363752
3 617.355 1357596
3 617.355 1357172
3 617.355 1346892
3 617.992 1335084
3 617.992 1333472
3 617.992 1332777
3 617.992 1330072
3 618.588 1328373
3 619.12 1326839
3 619.12 1319099
3 619.12 1317661
3 619.12 1317429
3 630.286 1440573
3 630.286 1420529
3 630.286 1418417
3 630.286 1410257
3 630.286 1408764
3 630.286 1405367
3 630.286 1390869
3 630.286 1390720
3 631.177 1385064
3 631.177 1382629
3 631.177 1366532
3 632.523 1365160
3 632.523 1357288
3 632.523 1356319
3 633.267 1351946
3 634.133 1351316
3 634.133 1351268
3 634.133 1347021
3 634.751 1344916
3 634.751 1338015
3 634.751 1336127
3 636.437 1334697
3 636.984 1334649
3 644.382 1447006
3 644.382 1445444
3 644.382 1443199
3 644.382 1427529
3 644.382 1423268
3 644.382 1418583
3 644.382 1417785
3 645.191 1413930
3 645.191 1410284
3 645.191 1400454
3 645.191 1370639
3 645.853 1356805
3 646.383 1352810
3 646.899 1349498
3 646.899 1348183
3 647.483 1345670
3 647.483 1336356
3 647.483 1335014
3 649.195 1334191
3 649.195 1320460
3 649.195 1316970
3 658.361 1481735
3 658.361 1477488
3 658.361 1460782
3 658.361 1455367
3 658.361 1447531
3 658.361 1437608
3 658.361 1430066
3 658.361 1389325
3 658.361 1389277
3 658.361 1385663
3 659.265 1381310
3 659.265 1373398
3 659.265 1365190
3 659.265 1357506
3 659.265 1346810
3 659.265 1346107
3 659.265 1344029
3 660.225 1339484
3 660.225 1337001
3 660.225 1328160
3 662.492 1325308
3 662.492 1324944
3 662.492 1321216
3 663.362 1320769
3 663.362 1318810
3 664.155 1309255
3 664.893 1307718
3 665.749 1307695
3 668.751 1305784
3 672.382 1497985
3 672.382 1493612
3 672.382 1444210
3 672.382 1431838
3 672.382 1426686
3 672.382 1422795
3 672.382 1418735
3 672.382 1394469
3 672.382 1393849
3 672.382 1393801
3 672.382 1383213
3 673.491 1382266
3 673.491 1382243
3 673.491 1380410
3 673.491 1380057
3 673.491 1376202
3 673.491 1370935
3 674.432 1365752
3 674.432 1350851
3 674.432 1347456
3 675.283 1340958
3 675.283 1340594
3 675.283 1337949
3 676.218 1332958
3 676.878 1331495
3 676.878 1329844
3 676.878 1326466
3 676.878 1326136
3 676.878 1326088
3 676.878 1324119
3 677.626 1323876
3 678.21 1323053
3 678.21 1318253
3 678.21 1316373
3 678.21 1314768
3 678.21 1314006
3 678.933 1313722
3 679.966 1313467
3 679.966 1313406
3 680.508 1311698
3 680.508 1310587
3 680.508 1308311
3 681.079 1306891
3 681.079 1306868
3 682.604 1305848
3 682.604 1305469
3 683.143 1302673
3 686.078 1418443
3 686.078 1411106
3 686.078 1407408
3 686.078 1403591
3 686.078 1399223
3 686.078 1388901
3 686.078 1388265
3 686.783 1386747
3 686.783 1382076
3 686.783 1381712
3 686.783 1375164
3 686.783 1369335
3 687.421 1367682
3 687.421 1367421
3 688.008 1361607
3 688.008 1352335
3 688.008 1351447
3 688.595 1350614
3 688.595 1346693
3 689.656 1332284
3 689.656 1329403
3 689.656 1329148
3 689.656 1326339
3 690.254 1325975
3 690.254 1323827
3 690.254 1320716
3 690.254 1319453
3 690.254 1317208
3 693.969 1316923
3 693.969 1316004
3 694.57 1313629
3 696.518 1311252
3 696.518 1311204
3 697.542 1309917
3 698.052 1307559
3 698.052 1306658
3 698.052 1306610
3 699.102 1306041
3 700.148 1474843
3 700.148 1474820
3 700.148 1447116
3 700.148 1445463
3 700.148 1436082
3 700.148 1433468
3 700.148 1426962
3 700.148 1421624
3 700.874 1419971
3 700.874 1416171
3 700.874 1408679
3 700.874 1393988
3 700.874 1380114
3 700.874 1379783
3 700.874 1378996
3 700.874 1377554
3 701.588 1371725
3 701.588 1369600
3 701.588 1367745
3 701.588 1362253
3 701.588 1360735
3 701.588 1344029
3 702.249 1341490
3 702.249 1341467
3 702.249 1338669
3 702.893 1331468
3 702.893 1330909
3 703.475 1330886
3 708.272 1330265
3 709.808 1330220
3 710.574 1330155
3 711.998 1329181
3 711.998 1326661
3 712.786 1325326
3 713.524 1325135
3 713.524 1324914
3 714.353 1414476
3 714.353 1405204
3 714.353 1389163
3 714.353 1386308
3 714.353 1372388
3 714.353 1371008
3 714.353 1368185
3 714.353 1364366
3 715.342 1363292
3 716.076 1363269
3 716.805 1357141
3 716.805 1357076
3 716.805 1346759
3 716.805 1343497
3 716.805 1342335
3 717.689 1340682
3 719.132 1335811
3 719.132 1335447
3 719.132 1331619
3 719.927 1330945
3 720.642 1328724
3 720.642 1325999
3 721.397 1325934
3 724.315 1325485
3 725.095 1325289
3 725.856 1317854
3 727.302 1317805
3 727.302 1315198
3 728.057 1438454
3 728.057 1438090
3 728.057 1433717
3 728.057 1422290
3 728.057 1421494
3 728.057 1409650
3 728.992 1379184
3 728.992 1376064
3 728.992 1368450
3 728.992 1366033
3 728.992 1354537
3 728.992 1352799
3 729.9 1335020
3 729.9 1329919
3 729.9 1323381
3 729.9 1322691
3 729.9 1321499
3 732.843 1320104
3 733.574 1319244
3 734.302 1318880
3 734.302 1317346
3 735.054 1306252
3 742.083 1442792
3 742.083 1408664
3 742.083 1384733
3 742.083 1379557
3 742.083 1378904
3 742.083 1373054
3 742.083 1371532
3 742.083 1370608
3 742.083 1365500
3 742.083 1353471
3 742.083 1346857
3 743.143 1343239
3 743.143 1341161
3 743.143 1340010
3 743.143 1334716
3 743.98 1333914
3 743.98 1332954
3 743.98 1332906
3 743.98 1330435
3 744.841 1330297
3 744.841 1326101
3 744.841 1324721
3 746.384 1320113
3 747.125 1319305
3 749.294 1319256
3 749.294 1319046
3 749.294 1314857
3 749.294 1313204
3 753.095 1312811
3 756.707 1426360
3 756.707 1399648
3 756.707 1387811
3 756.707 1386315
3 757.593 1386277
3 757.593 1385043
3 757.593 1370804
3 757.593 1366431
3 757.593 1366091
3 757.593 1365727
3 758.507 1364587
3 759.272 1360340
3 759.272 1357724
3 759.272 1356574
3 759.272 1355235
3 760.152 1350773
3 760.152 1345426
3 762.434 1342668
3 763.192 1339573
3 763.192 1338533
3 763.987 1336112
3 766.318 1336095
3 767.121 1335169
3 770.225 1435401
3 770.225 1435219
3 770.225 1435154
3 770.225 1405414
3 770.225 1405281
3 770.225 1387237
3 771.178 1360825
3 771.178 1360461
3 771.178 1358255
3 772.01 1353029
3 772.01 1352878
3 772.01 1350800
3 772.01 1342213
3 772.903 1341740
3 772.903 1324603
3 773.688 1322279
3 773.688 1319974
3 774.455 1319579
3 776.685 1319514
3 778.113 1316000
3 778.113 1315977
3 779.653 1315280
3 784.679 1459456
3 784.679 1434779
3 784.679 1422994
3 784.679 1422468
3 784.679 1420185
3 784.679 1418400
3 784.679 1401694
3 784.679 1400817
3 784.679 1394501
3 784.679 1388208
3 785.739 1386305
3 785.739 1378087
3 785.739 1373145
3 785.739 1369982
3 785.739 1367331
3 785.739 1360781
3 785.739 1359708
3 786.698 1350436
3 788.166 1347029
3 788.166 1346404
3 788.166 1344316
3 788.166 1342331
3 789.743 1339552
3 789.743 1336475
3 789.743 1336111
3 789.743 1334770
3 790.58 1333117
3 790.58 1325717
3 791.352 1324694
3 791.352 1320512
3 791.352 1317425
3 791.352 1313621
3 791.352 1312340
3 792.205 1311180
3 792.928 1308872
3 793.794 1308323
3 798.105 1502359
3 798.105 1459730
3 798.105 1445525
3 798.105 1438987
3 798.105 1431820
3 798.105 1401845
3 798.105 1380501
3 798.105 1380436
3 798.105 1376249
3 798.105 1367891
3 798.105 1366463
3 798.105 1364891
3 799.209 1363887
3 799.209 1363523
3 799.209 1360097
3 799.209 1356412
3 800.047 1355930
3 800.047 1343260
3 800.047 1342918
3 800.047 1328759
3 800.047 1328599
3 800.047 1328530
3 800.965 1327341
3 800.965 1326877
3 800.965 1326212
3 800.965 1326164
3 802.485 1323877
3 802.485 1319819
3 803.943 1318465
3 803.943 1318340
3 805.464 1317928
3 806.871 1317859
3 806.871 1317495
3 808.406 1315250
3 812.668 1409782
3 812.668 1406829
3 812.668 1399566
3 812.668 1393742
3 812.668 1392224
3 812.668 1388449
3 812.668 1385771
3 812.668 1366433
3 813.653 1364188
3 813.653 1361488
3 813.653 1360281
3 813.653 1335989
3 813.653 1335924
3 813.653 1334209
3 814.549 1328328
3 815.295 1325884
3 815.295 1323955
3 816.072 1322377
3 816.072 1322354
3 816.842 1320596
3 816.842 1318202
3 817.613 1315222
3 819.795 1313930
3 820.53 1313248
3 821.342 1311406
3 821.342 1311383
3 821.342 1308276
3 822.188 1300464
3 826.324 1436158
3 826.324 1434072
3 826.324 1426398
3 826.324 1425231
3 826.324 1412267
3 826.324 1385018
3 826.324 1377482
3 826.324 1371770
3 826.324 1370465
3 827.356 1370231
3 828.103 1369925
3 828.103 1365390
3 828.103 1362491
3 828.103 1357679
3 828.103 1355434
3 828.103 1354967
3 828.103 1346374
3 829.055 1346015
3 829.055 1345883
3 829.055 1344962
3 829.055 1338559
3 829.916 1334684
3 829.916 1334451
3 830.684 1330078
3 830.684 1329884
3 831.46 1328228
3 831.46 1327639
3 831.46 1325561
3 832.267 1321024
3 832.267 1319506
3 833.026 1318332
3 833.772 1318284
3 833.772 1316501
3 834.582 1313919
3 835.4 1312266
3 835.4 1311831
3 835.4 1305462
3 840.43 1450285
3 840.43 1445912
1 840.43 1418631
3 840.43 1416704
3 840.43 1407369
3 840.43 1397906
3 840.43 1388951
3 840.43 1387619
3 840.43 1381729
3 840.43 1380846
3 841.449 1377973
3 841.449 1377911
3 841.449 1374589
3 842.261 1367322
3 842.261 1361056
3 842.261 1358104
3 843.067 1357139
3 843.067 1356034
3 843.067 1349811
3 843.067 1348826
3 843.067 1346748
3 843.067 1345764
3 844.036 1338827
3 844.036 1332784
3 844.036 1331675
3 844.861 1330108
3 845.614 1328693
3 845.614 1328047
3 847.178 1325947
3 847.937 1321161
3 848.72 1320679
3 849.496 1320614
3 849.496 1320250
3 849.496 1319627
3 850.313 1318005
3 854.658 1443839
3 854.658 1424205
3 854.658 1416504
3 854.658 1406058
3 854.658 1406002
3 854.658 1405679
3 854.658 1404019
3 854.658 1381175
3 855.689 1364248
3 855.689 1362588
3 855.689 1354996
3 855.689 1351887
3 855.689 1349586
3 855.689 1348050
3 855.689 1343803
3 856.618 1342125
3 857.37 1339709
3 857.37 1335462
3 860.048 1333436
3 860.048 1324318
3 860.604 1319697
3 860.604 1319674
3 861.143 1317081
3 861.651 1315428
3 863.134 1312485
3 863.641 1311351
3 864.203 1311324
3 865.19 1310372
3 865.733 1310349
3 866.238 1310220
3 866.238 1304380
3 867.753 1303577
3 868.27 1389938
3 868.27 1383003
3 868.27 1382027
3 868.27 1360074
3 868.27 1354797
3 868.27 1345532
3 868.27 1340836
3 868.962 1340292
3 868.962 1337163
3 868.962 1337115
3 868.962 1335837
3 868.962 1335521
3 870.056 1331996
3 870.056 1330481
3 870.056 1330091
3 870.056 1320341
3 870.642 1320132
3 870.642 1315332
3 871.162 1311242
3 871.162 1310487
3 871.162 1310422
3 871.683 1306866
3 871.683 1306748
3 872.217 1306700
3 873.614 1306491
3 882.11 1448837
3 882.11 1437722
3 882.11 1433812
3 882.11 1429439
3 882.11 1427905
3 882.11 1418633
3 882.11 1406789
3 882.11 1405758
3 882.11 1388668
3 882.11 1369542
3 882.905 1364702
3 882.905 1352424
3 883.451 1352083
3 883.451 1350936
3 883.451 1349283
3 883.451 1349057
3 883.451 1347829
3 884.085 1347749
3 884.085 1347436
3 884.637 1347413
3 885.153 1343941
3 885.72 1341819
3 885.72 1340329
3 886.256 1337091
3 886.256 1331406
3 886.256 1331341
3 886.256 1328687
3 886.857 1325778
3 886.857 1322321
3 887.383 1321673
3 887.383 1317426
3 887.383 1316966
3 887.383 1315892
3 888.459 1315313
3 888.459 1312701
3 888.459 1311668
3 889.041 1311421
3 889.041 1308215
3 890.544 1306991
3 890.544 1305937
3 896.075 1397576
3 896.075 1390031
3 896.075 1385231
3 896.075 1385166
3 896.075 1383847
3 896.7 1373557
3 896.7 1365067
3 896.7 1359238
3 897.281 1345033
3 897.281 1343861
3 897.281 1340437
3 897.851 1340011
3 897.851 1339239
3 901.268 1333382
3 910.077 1497792
3 910.077 1483064
3 910.077 1471220
3 910.077 1449983
3 910.077 1439737
3 910.077 1435378
3 910.077 1426634
3 910.077 1422779
3 910.077 1418406
3 910.077 1415819
3 910.077 1414166
3 910.077 1404201
3 910.9 1398221
3 910.9 1390179
3 910.9 1371085
3 910.9 1369410
3 910.9 1349823
3 911.551 1332625
3 912.079 1332560
3 912.079 1327300
3 913.1 1324285
3 913.1 1324244
3 913.1 1319871
3 913.671 1319848
3 913.671 1319218
3 914.672 1319204
3 914.672 1318840
3 915.682 1315341
3 916.189 1314843
3 916.72 1313080
3 917.236 1312885
3 917.759 1312170
3 918.265 1308039
3 918.765 1306963
3 918.765 1306309
3 918.765 1305943
3 918.765 1305609
3 918.765 1304415
3 919.391 1304392
3 919.391 1301486
3 919.391 1296590
3 919.958 1296525
3 919.958 1295638
3 924.458 1425337
3 924.458 1405275
3 924.458 1401515
3 924.458 1384321
3 924.458 1368464
3 924.458 1360055
3 924.458 1355305
3 924.458 1351374
3 924.458 1350187
3 925.216 1347452
3 925.216 1345600
3 925.216 1340230
3 925.216 1337985
3 925.216 1334113
3 925.216 1326338
3 925.216 1325485
3 925.216 1321794
3 926.055 1317952
3 926.623 1317904
3 926.623 1315295
3 926.623 1313641
3 927.672 1313277
3 928.206 1312317
3 928.206 1303450
3 928.758 1302619
3 929.812 1302380
3 930.879 1296022
3 930.879 1295934
3 931.425 1294828
3 934.838 1294558
3 935.415 1293912
3 935.415 1292608
3 935.415 1292270
3 935.998 1291575
3 938.573 1479347
3 938.573 1463196
3 938.573 1448536
3 938.573 1444289
3 938.573 1421154
3 938.573 1421131
3 938.573 1415255
3 938.573 1400602
3 938.573 1397975
3 938.573 1393602
3 938.573 1390671
3 939.512 1386126
3 939.512 1368294
3 939.512 1367460
3 939.512 1362465
3 939.512 1357904
3 940.14 1357651
3 940.14 1353214
3 940.14 1348740
3 940.14 1347841
3 940.14 1344885
3 940.14 1339386
3 940.14 1328642
3 940.14 1322505
3 940.884 1321111
3 940.884 1316864
3 940.884 1316189
3 941.928 1315921
3 941.928 1314716
3 942.565 1314400
3 942.565 1314036
3 952.016 1483674
3 952.016 1455347
3 952.016 1431810
3 952.016 1427889
3 952.016 1404979
3 952.016 1400274
3 952.016 1400226
3 952.016 1385751
3 952.016 1381663
3 953.06 1380442
3 953.06 1371400
3 953.06 1371224
3 953.875 1365395
1 953.875 1358124
3 953.875 1356323
3 953.875 1344046
3 953.875 1337038
3 954.804 1331169
3 954.804 1327573
3 954.804 1323407
3 954.804 1319034
3 955.705 1316735
3 957.903 1312880
3 957.903 1312214
3 959.379 1311850
3 961.565 1311696
3 961.565 1307449
3 961.565 1307401
3 966.617 1431369
3 966.617 1429291
3 966.617 1428591
1 966.617 1410938
3 966.617 1403859
3 966.617 1379593
3 966.617 1371175
3 966.617 1369639
3 966.617 1369463
3 966.617 1362879
3 966.617 1357906
3 966.617 1348417
3 967.738 1344914
3 968.519 1342923
3 968.519 1337354
3 968.519 1336671
3 970.189 1333658
3 970.982 1331501
3 971.726 1331478
3 972.474 1328302
3 973.236 1327775
3 973.236 1325715
3 973.236 1322716
3 974.037 1322546
3 974.037 1320534
3 974.037 1319996
3 974.037 1319088
3 974.037 1313691
3 974.037 1312762
3 974.922 1312725
3 974.922 1312125
3 974.922 1310472
3 975.74 1309530
3 977.89 1306391
3 977.89 1305984
3 980.309 1397261
3 980.309 1386463
3 980.309 1385367
3 980.309 1382244
3 980.309 1374139
3 980.309 1367979
3 980.309 1353943
3 980.309 1348900
3 980.309 1341100
3 981.067 1340958
3 981.067 1338635
3 981.067 1338570
3 981.659 1337590
3 982.165 1336917
3 982.165 1335402
3 982.703 1335345
3 983.205 1332544
3 983.205 1331499
3 984.255 1331046
3 984.255 1329393
3 984.255 1327005
3 984.255 1326757
3 984.857 1325548
3 984.857 1323895
3 986.38 1323769
3 986.38 1322558
3 986.934 1321524
3 987.434 1320631
3 987.938 1318078
3 988.907 1317888
3 989.88 1317152
3 989.88 1316721
3 994.325 1490143
3 994.325 1472037
3 994.325 1468417
3 994.325 1423359
3 994.325 1418512
3 994.99 1417284
3 994.99 1415750
3 994.99 1403802
3 994.99 1385914
3 994.99 1381879
3 994.99 1375634
3 995.653 1373937
3 995.653 1365096
3 995.653 1362525
3 995.653 1355007
3 996.269 1354806
3 996.269 1354741
3 1006.94 1353368
3 1007.44 1349490
3 1007.44 1342528
3 1007.99 1341692
3 1007.99 1337386
3 1008.53 1427454
3 1008.53 1426089
3 1008.53 1411750
3 1008.53 1411146
3 1008.53 1411123
3 1008.53 1399394
3 1008.53 1385855
3 1008.53 1384896
3 1008.53 1384377
3 1009.29 1377633
3 1009.29 1374027
3 1009.29 1369966
3 1009.29 1362344
3 1009.29 1361074
3 1009.29 1351922
3 1009.29 1350404
3 1009.98 1342711
3 1010.95 1336886
3 1010.95 1336620
3 1010.95 1335099
3 1011.51 1333840
3 1011.51 1333266
3 1011.51 1331185
3 1011.51 1330312
3 1011.51 1326598
3 1011.51 1326135
3 1012.15 1322280
3 1012.15 1321642
3 1013.16 1318316
3 1013.66 1316875
3 1014.65 1315422
3 1016.59 1313137
3 1016.59 1311567
3 1022.26 1443556
3 1022.26 1434239
3 1022.26 1430303
3 1022.26 1427174
3 1022.26 1420712
3 1022.26 1420689
3 1022.26 1416316
3 1022.26 1414281
3 1022.26 1406176
3 1022.99 1376350
3 1022.99 1366809
3 1022.99 1366445
3 1022.99 1366162
3 1022.99 1356618
3 1023.63 1354601
3 1023.63 1353855
3 1024.17 1350852
3 1024.17 1336744
3 1024.71 1334881
3 1024.71 1334362
3 1024.71 1331654
3 1024.71 1328147
3 1025.29 1321346
3 1025.29 1319349
3 1025.29 1317696
3 1034.69 1315770
3 1034.69 1312778
3 1035.25 1309481
3 1035.25 1309117
3 1036.42 1389502
3 1036.42 1387424
3 1036.42 1381847
3 1036.42 1380336
3 1036.42 1373061
3 1036.42 1371527
3 1036.42 1361661
3 1037.12 1361622
3 1037.12 1361599
3 1037.12 1351368
3 1037.12 1351315
3 1037.12 1340189
3 1037.75 1339470
3 1037.75 1333200
3 1037.75 1332784
3 1037.75 1332137
3 1037.75 1328894
3 1038.36 1328537
3 1039.33 1328472
3 1041.26 1327669
3 1042.29 1325313
3 1042.29 1323815
3 1042.99 1323754
3 1043.55 1322586
3 1043.55 1322277
3 1044.12 1321560
3 1044.12 1318696
3 1045.83 1318090
3 1046.34 1316556
3 1046.34 1312309
3 1048.23 1309520
3 1050.21 1463898
3 1050.21 1462380
3 1050.21 1440104
3 1050.21 1432837
3 1050.21 1418864
3 1050.21 1410055
3 1050.95 1397168
3 1050.95 1395557
3 1050.95 1388100
3 1050.95 1387359
3 1050.95 1382316
3 1051.59 1379417
3 1051.59 1377725
3 1052.64 1369619
3 1053.19 1357701
3 1053.19 1353447
3 1054.26 1353424
3 1055.27 1350444
3 1055.27 1341603
3 1055.27 1339414
3 1055.27 1337486
3 1055.9 1336065
3 1064.33 1455382
3 1064.33 1450582
3 1064.33 1430111
3 1064.33 1421849
3 1064.33 1410075
3 1064.33 1401985
3 1064.33 1388195
3 1064.33 1378039
3 1064.33 1376812
3 1065.12 1371313
3 1065.12 1366778
3 1065.12 1365882
3 1065.12 1363806
3 1065.12 1360971
3 1065.12 1360475
3 1065.81 1358377
3 1065.81 1354450
3 1065.81 1353016
3 1065.81 1352415
3 1065.81 1347817
3 1065.81 1346549
3 1065.81 1344471
3 1066.46 1344227
3 1067.01 1339744
3 1067.01 1336079
3 1067.56 1333075
3 1068.08 1329806
3 1068.08 1326504
3 1068.08 1325645
3 1068.64 1324970
3 1068.64 1322647
3 1068.64 1321115
3 1068.64 1320664
3 1068.64 1315224
3 1068.64 1313571
3 1069.27 1313548
3 1069.79 1313533
3 1070.78 1313169
3 1078.28 1475190
3 1078.28 1456600
3 1078.28 1434118
3 1078.28 1418927
3 1078.28 1417206
3 1078.28 1416324
3 1078.28 1413683
3 1078.28 1412030
3 1078.28 1401740
3 1078.28 1397537
3 1079.03 1394473
3 1079.03 1386333
3 1079.03 1383002
3 1079.03 1377703
3 1079.03 1374385
3 1079.03 1355999
3 1079.67 1354802
3 1079.67 1348973
3 1079.67 1348129
3 1080.22 1339032
3 1080.22 1332483
3 1080.22 1330297
3 1080.22 1330274
3 1081.27 1329900
3 1081.27 1328366
3 1081.27 1320716
3 1081.27 1320613
3 1081.27 1317642
3 1081.84 1316829
3 1081.84 1314643
3 1082.36 1314434
3 1082.86 1314070
3 1082.86 1313398
3 1083.4 1311211
3 1085.76 1310678
3 1085.76 1309025
3 1092.31 1432805
3 1092.31 1430631
3 1092.31 1430594
3 1092.31 1418222
3 1092.31 1415977
3 1092.31 1413560
3 1092.31 1410881
3 1092.31 1391822
3 1092.31 1383013
3 1093.15 1382694
3 1093.15 1381360
3 1093.75 1379660
3 1093.75 1376674
3 1093.75 1374324
3 1094.33 1372300
3 1094.33 1368789
3 1094.33 1364195
3 1094.33 1362070
3 1094.93 1359274
3 1094.93 1352995
3 1094.93 1349658
3 1094.93 1340890
3 1095.57 1340344
3 1095.57 1338826
3 1096.13 1338344
3 1096.13 1334769
3 1096.13 1334721
3 1097.15 1334471
3 1097.15 1332226
3 1098.16 1330048
3 1098.16 1329623
3 1101.11 1327507
3 1101.11 1325250
3 1106.36 1446997
3 1106.36 1431118
3 1106.36 1418673
1 1106.36 1414898
3 1106.36 1403258
3 1106.36 1401454
3 1106.36 1398435
3 1106.36 1388374
3 1106.36 1386379
3 1106.36 1386150
3 1107.11 1378883
3 1107.11 1377835
3 1107.66 1377484
3 1107.66 1369704
3 1107.66 1369585
3 1107.66 1352918
3 1107.66 1346785
3 1108.28 1340970
3 1108.28 1340945
3 1108.28 1332986
3 1108.28 1330887
3 1109.17 1329131
3 1109.17 1327487
3 1109.17 1317414
3 1109.17 1310825
3 1109.17 1310716
3 1110.25 1310461
3 1110.98 1307960
3 1120.17 1410002
3 1120.17 1402833
3 1120.17 1402469
3 1120.17 1401134
3 1120.17 1395403
3 1120.17 1392383
3 1121.18 1391274
3 1121.18 1391251
3 1121.18 1384963
3 1121.18 1383146
3 1121.18 1378568
3 1121.18 1378520
3 1121.18 1373837
3 1121.18 1369590
3 1121.18 1365125
3 1122.2 1361829
3 1122.2 1361806
3 1122.2 1359231
3 1122.2 1357218
3 1122.2 1352162
3 1122.2 1346643
3 1123.15 1343465
3 1123.15 1342357
3 1123.15 1334863
3 1123.15 1333187
3 1124.09 1332006
3 1124.09 1330824
3 1124.09 1329246
3 1124.09 1326834
3 1124.09 1323115
3 1124.09 1320936
3 1125.07 1320474
3 1125.07 1319836
3 1125.94 1319813
3 1128.22 1316722
3 1128.22 1316501
3 1129.07 1316436
3 1129.07 1313954
3 1129.07 1313656
3 1129.9 1313224
3 1129.9 1313176
3 1130.71 1312591
3 1130.71 1312121
3 1130.71 1310068
3 1131.58 1307022
3 1134.66 1438522
3 1134.66 1428714
3 1134.66 1416700
3 1134.66 1411973
3 1134.66 1404743
3 1134.66 1397553
3 1134.66 1393180
3 1134.66 1390599
3 1135.74 1390235
3 1135.74 1387552
3 1135.74 1382968
3 1137.32 1366481
3 1137.32 1349456
3 1137.32 1344887
3 1137.32 1344031
3 1138.18 1336286
3 1139.68 1334208
3 1146.38 1325749
3 1148.66 1380892
3 1148.66 1378253
3 1148.66 1368365
3 1148.66 1366947
3 1148.66 1364959
3 1148.66 1362176
3 1148.66 1358247
3 1149.66 1358244
3 1149.66 1352404
3 1149.66 1351030
3 1149.66 1347904
3 1149.66 1347698
3 1151.27 1339890
3 1153.61 1339787
3 1154.37 1339154
3 1154.37 1336905
3 1154.37 1334566
3 1154.37 1326461
3 1156.67 1325787
3 1157.43 1325418
3 1158.93 1323762
3 1158.93 1323639
3 1162.21 1475034
3 1162.21 1458166
3 1162.21 1448688
3 1162.21 1414093
3 1162.21 1408621
3 1163.2 1406968
3 1163.2 1397369
3 1163.2 1393313
3 1163.2 1388097
3 1163.2 1383362
3 1163.2 1375874
3 1164.2 1372837
3 1164.2 1366671
3 1165.06 1362531
3 1165.06 1360081
3 1165.9 1358547
3 1165.9 1354520
3 1166.73 1347729
3 1166.73 1345935
3 1167.54 1344351
3 1167.54 1340558
3 1167.54 1340327
3 1168.39 1339897
3 1168.39 1339533
3 1168.39 1335714
3 1170.7 1335391
3 1170.7 1329687
3 1175.44 1328982
3 1176.25 1452213
3 1176.25 1451331
3 1176.25 1443052
3 1176.25 1425098
3 1176.25 1422399
3 1177.2 1422035
3 1177.2 1404021
3 1177.2 1397678
3 1177.2 1392493
3 1177.2 1387315
3 1177.2 1382703
3 1178.2 1377903
3 1178.2 1367623
3 1178.2 1360724
3 1178.2 1358752
3 1179.08 1353480
3 1179.08 1352502
3 1179.94 1350425
3 1179.94 1344431
3 1179.94 1343719
3 1179.94 1339806
3 1179.94 1339425
3 1181.61 1335657
3 1182.39 1330463
3 1182.39 1330415
3 1182.39 1328350
3 1183.24 1321685
3 1184.03 1320151
1 1187.88 1316177
3 1187.88 1316129
3 1188.69 1313825
3 1188.69 1311756
3 1190.21 1429824
3 1190.21 1416176
3 1190.21 1395293
3 1190.21 1390469
3 1190.21 1387096
3 1190.21 1383756
3 1190.21 1370098
3 1190.21 1364439
3 1191.24 1360192
3 1191.24 1358856
3 1191.24 1351425
3 1191.24 1350232
3 1192.11 1343651
3 1192.11 1340960
3 1192.11 1333570
3 1192.11 1332855
3 1192.11 1330706
3 1193.02 1329197
3 1194.54 1324306
3 1195.31 1324283
3 1196.13 1317023
3 1196.89 1315751
3 1198.37 1314079
3 1203.48 1313984
3 1204.21 1410926
3 1204.21 1401521
3 1204.21 1392680
3 1204.21 1386916
3 1204.21 1386813
1 1204.21 1384148
3 1205.14 1373556
3 1205.14 1371858
3 1205.14 1364600
3 1205.14 1349663
3 1205.14 1347672
3 1205.14 1331962
3 1206.85 1331818
3 1206.85 1331253
3 1206.85 1328985
3 1207.66 1328303
3 1207.66 1328280
3 1208.44 1324438
3 1210.66 1322193
3 1214.31 1320108
3 1215.13 1319671
3 1217.98 1318411
3 1217.98 1316166
3 1217.98 1314930
3 1217.98 1314907
3 1217.98 1314088
3 1218.87 1462044
3 1218.87 1434452
3 1218.87 1431159
3 1218.87 1415280
3 1218.87 1401075
3 1218.87 1397453
3 1218.87 1395800
3 1218.87 1394266
3 1218.87 1392846
3 1218.87 1375879
3 1219.93 1371261
3 1219.93 1368669
3 1219.93 1367548
3 1219.93 1367121
3 1219.93 1350999
3 1220.79 1347078
3 1220.79 1343601
3 1221.57 1343475
3 1222.3 1340110
3 1222.3 1332518
3 1222.3 1330360
3 1222.3 1329833
3 1223.13 1328711
3 1223.84 1325683
3 1224.58 1325397
3 1224.58 1325319
3 1225.35 1325277
3 1225.35 1320942
3 1226.91 1316569
3 1226.91 1316167
3 1226.91 1315270
3 1228.4 1314935
3 1229.14 1314900
3 1229.14 1314871
3 1230.72 1313754
3 1231.48 1309363
3 1231.48 1307924
3 1231.48 1307845
3 1232.3 1459722
3 1232.3 1446373
3 1232.3 1442899
3 1232.3 1432094
3 1232.3 1418601
3 1232.3 1394296
3 1233.24 1382833
3 1233.24 1381625
3 1233.24 1370394
3 1233.24 1369684
3 1234.07 1360439
3 1234.07 1354540
3 1235.55 1348274
3 1235.55 1344368
3 1236.31 1342850
3 1236.31 1328359
3 1236.31 1327189
3 1236.31 1327165
3 1237.19 1326801
3 1237.91 1325792
3 1237.91 1320168
3 1238.65 1319247
3 1238.65 1311041
3 1239.4 1310677
3 1239.4 1308957
3 1239.4 1306222
3 1239.4 1304447
3 1240.9 1304324
3 1241.61 1302790
3 1241.61 1301537
3 1241.61 1296995
3 1242.38 1296947
3 1242.38 1296117
3 1243.89 1296114
3 1246.11 1424168
3 1246.11 1411050
3 1246.11 1393682
3 1246.11 1391836
3 1246.11 1379992
3 1246.11 1370720
3 1247.02 1368179
3 1247.02 1338141
3 1247.8 1336649
3 1247.8 1333949
3 1247.8 1333671
3 1248.61 1330672
3 1248.61 1329812
3 1248.61 1328431
3 1248.61 1328408
3 1250.05 1326867
3 1250.05 1325703
3 1250.58 1324169
3 1251.08 1323636
3 1251.08 1322546
3 1251.6 1321836
3 1252.54 1321506
3 1252.54 1321107
3 1253.06 1313229
3 1253.55 1312091
3 1253.55 1311727
3 1254.08 1307667
3 1254.57 1307619
3 1254.57 1305883
3 1255.08 1305716
3 1257.09 1303632
3 1257.09 1302935
3 1257.7 1302727
3 1260.08 1496218
3 1260.08 1480195
3 1260.08 1456455
3 1260.08 1447054
3 1260.08 1423671
3 1260.08 1409689
3 1260.08 1405834
3 1260.08 1399647
3 1260.08 1399624
3 1260.08 1395256
3 1260.08 1390186
3 1260.98 1384904
3 1260.98 1378535
3 1260.98 1372248
3 1260.98 1371884
3 1260.98 1368973
3 1260.98 1368898
3 1260.98 1368875
3 1260.98 1368810
3 1260.98 1357614
3 1260.98 1357372
3 1260.98 1352457
3 1261.77 1344137
3 1261.77 1341629
3 1261.77 1340111
3 1262.36 1338735
3 1262.36 1336223
3 1262.36 1334596
3 1262.92 1315794
3 1262.92 1315729
3 1262.92 1314799
3 1262.92 1311834
3 1263.58 1311769
3 1266.81 1309102
3 1268.22 1308990
3 1268.22 1308597
3 1268.98 1308319
3 1268.98 1306801
3 1268.98 1306404
3 1268.98 1303797
3 1269.82 1303749
3 1271.38 1302922
3 1271.38 1302857
3 1274.26 1414956
3 1274.26 1406264
3 1274.26 1405493
3 1274.26 1403491
3 1274.26 1387212
3 1274.26 1387147
3 1274.26 1384537
3 1274.26 1372096
3 1274.26 1363036
3 1274.26 1357174
3 1275.32 1354699
3 1275.32 1353869
3 1275.32 1351491
3 1275.32 1349838
3 1276.14 1349790
3 1276.9 1326880
3 1276.9 1326516
3 1276.9 1324208
3 1288.37 1461385
3 1288.37 1459732
3 1288.37 1455322
3 1288.37 1451467
3 1288.37 1440662
3 1288.37 1425021
3 1288.37 1424662
3 1288.37 1414372
3 1288.37 1405017
3 1288.37 1403483
3 1288.37 1402276
3 1288.37 1392995
3 1288.37 1381213
3 1288.37 1381047
3 1289.53 1373108
3 1289.53 1363888
3 1289.53 1362794
3 1289.53 1361577
3 1289.53 1357204
3 1289.53 1355173
3 1290.41 1347890
3 1290.41 1346356
3 1291.18 1340508
3 1291.18 1336261
3 1291.18 1331858
3 1291.18 1331131
3 1292.04 1331083
3 1292.04 1330382
3 1292.04 1327920
3 1292.04 1326320
3 1293.55 1324451
3 1293.55 1323181
3 1294.32 1320081
3 1295.74 1317495
3 1295.74 1317472
3 1296.51 1316413
3 1296.51 1316078
3 1297.3 1315676
3 1297.3 1312377
3 1298.09 1312329
3 1298.09 1308409
3 1300.42 1308045
3 1302.54 1496178
3 1302.54 1466241
3 1302.54 1441126
3 1302.54 1406135
3 1302.54 1389807
3 1302.54 1383225
3 1302.54 1369020
3 1302.54 1366291
3 1303.5 1361125
3 1303.5 1349252
3 1303.5 1343839
3 1304.3 1341523
3 1304.3 1337847
3 1304.3 1337812
3 1304.3 1337448
3 1305.87 1337045
3 1305.87 1331600
3 1305.87 1329143
3 1306.66 1327972
3 1307.39 1326106
3 1307.39 1322939
3 1307.39 1321196
3 1308.19 1319443
3 1308.92 1317364
3 1308.92 1315112
3 1308.92 1314966
3 1308.92 1314505
3 1309.74 1314014
3 1309.74 1313760
3 1309.74 1313418
3 1309.74 1310559
3 1310.57 1309659
3 1311.29 1309194
3 1311.29 1309146
3 1311.29 1308274
3 1313.55 1306628
3 1314.97 1306621
3 1316.41 1393150
3 1316.41 1378315
3 1316.41 1364404
3 1316.41 1364001
3 1316.41 1358393
3 1316.41 1357511
3 1317.31 1351581
3 1317.31 1343973
3 1317.31 1341259
3 1318.08 1340877
3 1318.08 1338385
3 1318.08 1338362
3 1318.08 1333577
3 1318.08 1327748
3 1318.08 1327683
3 1318.08 1325987
3 1318.96 1324334
3 1320.38 1323650
3 1324.45 1323337
3 1330.05 1416258
3 1330.05 1415894
3 1330.05 1415093
3 1330.05 1409479
3 1330.05 1399195
3 1330.05 1394315
3 1330.05 1388905
3 1330.05 1387515
3 1330.05 1377836
3 1330.05 1366680
3 1331.07 1356358
3 1331.07 1342531
3 1331.87 1342473
3 1331.87 1340955
3 1332.62 1340635
3 1334.07 1336914
3 1335.51 1334836
3 1338.32 1331267
3 1338.32 1329614
3 1340.52 1324895
3 1341.27 1323805
3 1344.13 1395626
3 1344.13 1380129
3 1344.13 1375951
3 1344.13 1368160
3 1344.13 1366880
3 1344.13 1363025
3 1345.04 1358486
3 1345.04 1356645
3 1345.04 1356622
3 1345.04 1351412
3 1345.04 1349048
3 1345.04 1346906
3 1345.95 1343051
3 1346.67 1340265
3 1346.67 1339901
3 1346.67 1334561
3 1347.46 1334525
3 1350.27 1334457
3 1358.16 1440746
3 1358.16 1425420
3 1358.16 1414089
3 1358.16 1412821
3 1358.16 1403832
3 1358.16 1402298
3 1358.16 1394957
3 1359.14 1392210
3 1359.14 1385685
3 1359.14 1373841
3 1359.94 1367437
3 1359.94 1367073
3 1359.94 1365736
3 1359.94 1361489
3 1359.94 1359836
3 1359.94 1355463
3 1359.94 1355415
3 1359.94 1354345
3 1360.9 1350780
3 1360.9 1346407
3 1361.68 1343882
3 1361.68 1343647
3 1361.68 1341994
3 1362.49 1331150
3 1362.49 1328023
3 1362.49 1324396
3 1372.55 1489009
3 1372.55 1483180
3 1372.55 1441100
3 1372.55 1428262
3 1372.55 1427918
3 1372.55 1420251
3 1372.55 1410278
3 1373.5 1401437
3 1373.5 1395479
3 1373.5 1395204
3 1374.38 1390305
3 1374.38 1384476
3 1374.38 1383582
3 1375.23 1377757
3 1375.23 1373165
3 1375.23 1370825
3 1375.23 1367304
3 1376.07 1365789
3 1376.07 1364018
3 1381.11 1361022
3 1381.87 1360025
3 1386.39 1417061
3 1386.39 1380601
3 1386.39 1380578
3 1386.39 1380084
3 1387.32 1363278
3 1387.32 1353815
3 1388.19 1351799
3 1388.19 1346756
3 1388.19 1343107
3 1388.19 1329680
3 1389.15 1327421
3 1389.15 1327356
3 1389.98 1327040
3 1389.98 1325408
3 1393.03 1321870
3 1393.81 1321007
3 1396.12 1318958
3 1400.71 1385009
3 1400.71 1380670
3 1400.71 1380647
3 1400.71 1373080
3 1400.71 1368707
3 1401.7 1363322
3 1401.7 1358787
3 1401.7 1357984
3 1401.7 1341278
3 1401.7 1330988
3 1407.33 1330241
3 1407.33 1326344
3 1407.33 1325034
3 1407.33 1323289
3 1407.33 1321771
3 1408.11 1321179
3 1408.71 1321156
3 1409.37 1319706
3 1409.37 1318916
3 1409.37 1316783
3 1414.52 1406446
3 1414.52 1390813
3 1414.52 1389983
3 1414.52 1382828
3 1414.52 1373385
3 1414.52 1366648
3 1414.52 1365841
3 1414.52 1364188
3 1414.52 1361338
3 1415.51 1360974
3 1415.51 1356091
3 1415.51 1354688
3 1415.51 1353836
3 1416.23 1353742
3 1416.23 1351118
3 1416.23 1349802
3 1416.23 1349513
3 1416.23 1345528
3 1416.23 1342939
3 1416.23 1340148
3 1416.23 1339811
3 1417.21 1338281
3 1418.31 1338003
3 1418.31 1333187
3 1418.31 1327508
3 1418.31 1323949
3 1418.31 1317237
3 1418.31 1317189
3 1419.66 1317014
3 1419.66 1316901
3 1420.29 1314648
3 1428.09 1419478
3 1428.09 1418900
3 1428.09 1418536
3 1428.09 1415345
3 1428.09 1413110
3 1428.09 1407198
3 1428.09 1401150
3 1428.09 1391698
3 1428.09 1390258
3 1429.05 1383505
3 1429.05 1374191
3 1429.05 1369386
3 1429.05 1362830
3 1429.05 1357738
3 1429.85 1357277
3 1430.46 1357078
3 1430.46 1352627
3 1431.12 1352271
3 1431.12 1352206
3 1431.12 1349007
3 1431.12 1346598
3 1431.12 1344829
3 1431.95 1339063
3 1431.95 1338086
3 1431.95 1338046
3 1431.95 1337678
3 1431.95 1331783
3 1432.72 1330498
3 1434.46 1330411
3 1437 1329576
3 1438.6 1325160
3 1438.6 1325095
3 1439.29 1323045
3 1439.96 1322934
3 1439.96 1320217
3 1439.96 1319970
3 1441.56 1319757
3 1441.56 1316671
3 1442.26 1430210
3 1442.26 1424577
3 1442.26 1424407
1 1442.26 1420153
3 1442.26 1418670
3 1442.26 1408380
3 1443.18 1374810
3 1443.18 1360314
3 1443.18 1348438
3 1444.07 1346228
3 1444.07 1338804
3 1444.85 1335818
3 1445.51 1335044
3 1445.51 1334979
3 1445.51 1332689
3 1446.16 1328306
3 1446.16 1327113
3 1446.16 1326804
3 1448.56 1314937
3 1449.28 1314914
3 1449.95 1313074
3 1449.95 1313009
3 1450.62 1312440
3 1450.62 1311268
3 1451.33 1307413
3 1451.33 1306398
3 1456.13 1419741
3 1456.13 1418300
3 1456.13 1410195
3 1456.13 1408243
3 1456.13 1407398
3 1456.13 1401267
3 1456.13 1399699
3 1456.13 1392424
3 1456.13 1392401
3 1456.13 1390582
3 1456.13 1378634
3 1457.25 1373693
3 1457.25 1373329
3 1457.25 1371972
3 1457.25 1369249
3 1457.25 1362723
3 1458.08 1361076
3 1458.08 1356829
3 1458.08 1354579
3 1459.33 1351523
3 1459.33 1350510
3 1459.33 1347540
3 1460.09 1346079
3 1460.09 1346046
3 1460.09 1344512
3 1462.39 1331350
3 1462.39 1329930
3 1462.39 1329907
3 1463.27 1328239
3 1463.27 1322922
3 1463.27 1319797
3 1463.27 1310391
3 1464.67 1310230
3 1466.12 1308063
3 1466.12 1308040
3 1468.12 1307193
3 1468.77 1303188
3 1470.44 1429766
3 1470.44 1393437
3 1470.44 1391903
3 1470.44 1380098
3 1470.44 1380033
3 1470.44 1377148
3 1470.44 1375348
3 1471.26 1369343
3 1471.26 1364107
3 1471.26 1352965
3 1471.26 1347750
3 1471.26 1344860
3 1471.98 1344394
3 1471.98 1341372
3 1471.98 1339626
3 1471.98 1338959
3 1472.62 1338894
3 1474.29 1337975
3 1474.29 1334129
3 1474.87 1333963
3 1474.87 1332310
3 1475.54 1330485
3 1475.54 1328549
3 1477.1 1325114
3 1477.1 1324698
3 1477.67 1317622
3 1477.67 1308781
3 1477.67 1308690
3 1478.29 1304740
3 1478.86 1302591
3 1478.86 1301757
3 1478.86 1300763
3 1480.34 1297398
3 1480.34 1296779
3 1480.93 1296195
3 1484.02 1426804
3 1484.02 1399297
3 1484.02 1392743
3 1484.02 1391826
3 1484.02 1383737
3 1484.02 1380030
3 1484.86 1379453
3 1484.86 1373624
3 1484.86 1368650
3 1484.86 1352459
3 1485.58 1344517
3 1486.63 1336770
3 1487.16 1329004
3 1487.16 1328436
3 1487.16 1325871
3 1488.3 1324066
3 1488.88 1323793
3 1489.42 1320931
3 1489.42 1320079
3 1489.42 1318136
3 1489.42 1316014
3 1489.42 1315688
3 1489.42 1315559
3 1490.09 1313831
3 1490.09 1313744
3 1496.11 1310259
3 1496.11 1309895
3 1496.11 1308606
3 1496.79 1308361
3 1497.89 1305075
3 1498.44 1468332
3 1498.44 1465247
3 1498.44 1460228
3 1498.44 1454442
3 1498.44 1435652
3 1498.44 1434659
3 1498.44 1430804
3 1498.44 1428493
3 1498.44 1423054
3 1499.33 1422683
3 1499.33 1417253
3 1499.33 1415240
3 1499.33 1400044
3 1499.33 1390064
3 1499.33 1384787
3 1499.33 1371022
3 1499.33 1370182
3 1500.14 1369913
3 1500.14 1368361
3 1500.14 1363985
3 1500.14 1363500
3 1500.14 1362916
3 1500.14 1361263
3 1500.83 1353697
3 1500.83 1352454
3 1500.83 1346665
3 1500.83 1343982
3 1500.83 1342306
3 1500.83 1341776
3 1500.83 1341448
3 1501.55 1340567
3 1502.6 1336930
3 1503.13 1334346
3 1503.13 1321571
3 1503.68 1320040
3 1503.68 1318774
3 1504.23 1315709
3 1504.23 1313210
3 1504.23 1313044
3 1504.23 1311499
3 1504.83 1305266
3 1504.83 1303557
3 1505.9 1301537
3 1506.42 1301527
3 1506.94 1300803
3 1506.94 1298624
3 1507.5 1298260
3 1507.5 1296059
3 1512.48 1445294
3 1512.48 1422035
3 1512.48 1409208
3 1512.48 1406959
3 1512.48 1391562
3 1512.48 1388915
1 1512.48 1384092
3 1512.48 1382014
3 1512.48 1378002
3 1513.22 1368842
3 1513.22 1368658
3 1513.79 1367195
3 1513.79 1359852
3 1513.79 1352976
3 1513.79 1348141
3 1513.79 1337419
3 1514.44 1333172
3 1520.45 1329317
3 1520.45 1328558
3 1521.52 1328260
3 1526.43 1390495
3 1526.43 1375622
3 1526.43 1363723
3 1526.43 1351577
3 1526.43 1350590
3 1527.05 1346345
3 1527.05 1343646
3 1527.05 1341791
3 1527.05 1339601
3 1527.68 1336493
3 1527.68 1330655
3 1527.68 1330632
3 1527.68 1328953
3 1527.68 1328020
3 1528.31 1327174
3 1528.83 1326573
3 1529.35 1326085
3 1529.35 1326037
3 1530.33 1323410
3 1530.33 1323342
3 1536.14 1322916
3 1536.14 1320904
3 1536.14 1318405
3 1536.71 1318272
3 1537.22 1318231
3 1537.22 1317038
3 1537.22 1315773
3 1537.22 1315303
3 1537.82 1313975
3 1538.81 1313811
3 1539.33 1312683
3 1539.33 1311489
3 1539.9 1309564
3 1540.4 1497683
3 1540.4 1483478
3 1540.4 1449841
3 1540.4 1440569
3 1540.4 1418397
3 1540.4 1418374
3 1540.4 1407569
3 1540.4 1403796
3 1540.4 1393071
3 1541.13 1392276
3 1541.13 1374252
3 1541.13 1366501
1 1541.13 1363516
3 1541.13 1354920
3 1541.13 1353286
3 1541.13 1353267
3 1541.13 1352853
3 1541.13 1350029
3 1541.88 1341023
3 1542.41 1339958
3 1542.41 1336328
3 1542.41 1334675
3 1542.41 1333012
3 1543.01 1332840
3 1543.01 1332681
3 1543.55 1332195
3 1543.55 1332017
3 1543.55 1328326
3 1543.55 1327669
3 1545.11 1326397
3 1545.11 1324744
3 1545.11 1323613
3 1545.69 1322605
3 1546.19 1321328
3 1546.19 1318908
3 1546.73 1318907
3 1546.73 1318148
3 1547.32 1318053
3 1547.32 1317466
3 1547.85 1316029
3 1548.83 1315639
3 1548.83 1311883
3 1550.31 1307956
3 1550.31 1307753
3 1550.84 1307241
3 1550.84 1305462
3 1551.83 1304415
3 1552.8 1303630
3 1554.27 1440167
3 1554.27 1425588
3 1554.27 1424409
3 1554.27 1424361
3 1554.27 1414649
3 1554.27 1413874
3 1554.27 1408045
3 1554.27 1407442
3 1554.27 1399376
3 1554.27 1397668
3 1554.27 1390436
3 1554.27 1378064
3 1555.08 1374071
3 1555.08 1360945
3 1555.64 1360305
3 1557.62 1345236
3 1557.62 1343778
3 1557.62 1343611
3 1558.19 1340966
3 1558.73 1340430
3 1558.73 1333299
3 1559.28 1333276
3 1559.28 1332912
3 1559.83 1331563
3 1560.34 1326379
3 1562.77 1325779
3 1563.33 1323894
3 1563.33 1323530
3 1563.87 1321844
3 1568.14 1410171
3 1568.14 1391019
3 1568.14 1371089
3 1568.14 1361146
3 1568.14 1359134
3 1568.14 1359086
3 1568.14 1348796
3 1568.84 1345509
3 1569.38 1344597
3 1569.38 1336596
3 1569.38 1335078
3 1569.38 1332225
3 1569.96 1329030
3 1569.96 1328288
3 1569.96 1317966
3 1569.96 1317943
3 1570.55 1317580
3 1571.53 1316638
3 1571.53 1315066
3 1571.53 1311999
3 1572.11 1308854
3 1572.11 1307210
3 1572.11 1307162
3 1572.67 1307139
3 1573.65 1306288
3 1574.64 1303468
3 1574.64 1303090
3 1574.64 1303025
3 1575.2 1303002
3 1575.2 1302387
3 1576.24 1302339
3 1582.06 1414602
3 1582.06 1414554
3 1582.06 1385017
3 1582.06 1376176
3 1582.06 1372192
3 1582.71 1364395
3 1582.71 1362425
3 1582.71 1346279
3 1583.31 1343427
3 1592.58 1343039
3 1592.58 1332722
3 1592.58 1331347
3 1592.58 1329828
3 1592.58 1328349
3 1593.22 1328344
3 1596.19 1387851
3 1596.19 1384301
3 1596.19 1378464
3 1596.19 1377046
3 1596.19 1369694
3 1596.19 1361589
3 1596.19 1338231
3 1596.19 1335543
3 1596.19 1331170
3 1596.96 1327865
3 1597.47 1320384
3 1597.47 1319292
3 1597.47 1319190
3 1598.04 1316991
3 1598.04 1316463
3 1598.59 1313047
3 1599.09 1312941
3 1599.62 1311407
3 1600.13 1307266
3 1601.57 1305589
3 1603.01 1305097
3 1603.01 1303894
3 1603.01 1302452
3 1603.01 1302429
3 1604.53 1302360
3 1607.85 1299701
3 1610.61 1455929
1 1610.61 1418791
3 1610.61 1411767
3 1610.61 1409788
3 1610.61 1407591
3 1610.61 1407543
3 1611.55 1405786
3 1611.55 1393414
3 1611.55 1392615
3 1611.55 1388783
3 1611.55 1383474
3 1612.46 1377616
3 1612.46 1351352
3 1612.46 1350467
3 1612.46 1347672
3 1612.46 1347308
3 1612.46 1344684
3 1612.46 1338397
3 1614.12 1326155
3 1614.89 1323925
3 1614.89 1323561
3 1615.69 1314188
3 1615.69 1312432
3 1616.48 1312409
3 1617.2 1312125
3 1618.61 1311550
3 1624.4 1393147
3 1624.4 1390902
3 1624.4 1376216
3 1624.4 1373577
3 1624.4 1365823
3 1624.4 1341045
3 1625.42 1338442
3 1625.42 1338276
3 1626.18 1335961
3 1626.9 1335203
3 1626.9 1331504
3 1627.69 1331343
3 1628.41 1326804
3 1628.41 1320727
3 1629.15 1320693
3 1629.15 1319452
3 1629.91 1319429
3 1629.91 1317571
3 1635.67 1312231
3 1635.67 1310252
3 1636.41 1308843
3 1636.41 1308299
3 1638.56 1431035
3 1638.56 1425206
3 1638.56 1414916
3 1638.56 1414876
3 1638.56 1414811
3 1638.56 1386128
3 1638.56 1377912
3 1638.56 1376394
3 1638.56 1376371
3 1638.56 1363435
3 1639.59 1355393
3 1639.59 1350593
3 1639.59 1350234
3 1639.59 1342207
3 1639.59 1337960
3 1639.59 1337418
3 1640.5 1335994
3 1640.5 1334818
3 1641.26 1324496
3 1641.97 1322307
3 1641.97 1321433
3 1641.97 1321385
3 1642.75 1321059
3 1642.75 1319749
3 1642.75 1318021
3 1644.95 1317914
3 1652.05 1415951
3 1652.05 1406891
3 1652.05 1400965
3 1652.05 1399624
3 1652.05 1396365
3 1652.05 1389628
3 1652.05 1388703
3 1652.05 1381386
3 1652.05 1375363
3 1653.05 1360751
3 1653.05 1356649
3 1653.05 1355385
3 1653.05 1348065
3 1653.05 1345277
3 1653.91 1342569
3 1653.91 1334955
3 1653.91 1324596
3 1653.91 1323115
3 1654.76 1321462
3 1655.49 1320871
3 1656.28 1319353
3 1656.99 1319217
3 1657.5 1319004
3 1657.5 1318651
3 1658.5 1318501
3 1659.95 1318185
3 1660.93 1316772
3 1660.93 1316120
3 1661.94 1312778
3 1661.94 1312260
3 1661.94 1310630
3 1661.94 1310607
3 1666.26 1410857
3 1666.26 1386443
3 1666.26 1385087
3 1666.26 1359421
3 1666.26 1359008
3 1666.89 1357355
3 1666.89 1355447
3 1666.89 1346378
3 1666.89 1344959
3 1667.48 1343425
3 1667.48 1343061
3 1667.48 1342335
3 1667.48 1337535
3 1668.09 1336375
3 1669.55 1330252
3 1670.52 1326736
3 1670.52 1325535
3 1671.05 1323746
3 1671.53 1323681
3 1672.02 1321950
3 1672.53 1320992
3 1672.53 1320815
3 1672.53 1318036
3 1673.12 1316960
3 1673.12 1315924
3 1673.64 1308930
3 1680.16 1392750
3 1680.16 1378409
3 1680.16 1373986
3 1680.16 1372610
3 1680.16 1372587
3 1680.16 1366426
3 1680.16 1365852
3 1681.34 1365798
3 1681.34 1359444
3 1681.34 1359379
3 1681.34 1352631
3 1681.34 1351113
3 1681.34 1350867
3 1682.01 1348622
3 1682.01 1346221
3 1682.01 1342297
3 1683.08 1342264
3 1683.08 1339964
3 1683.08 1338764
3 1683.08 1338441
3 1684.16 1337933
3 1684.16 1336253
3 1684.16 1336072
3 1684.16 1336007
3 1684.16 1333727
3 1684.16 1327588
3 1684.83 1324880
3 1685.35 1324703
3 1685.35 1324256
3 1685.35 1321997
3 1685.35 1320717
3 1685.95 1319502
3 1685.95 1318056
3 1686.5 1317211
3 1686.5 1315727
3 1686.5 1309986
3 1687.08 1308858
3 1687.59 1308830
3 1693.24 1308597
3 1693.24 1306031
3 1693.8 1305411
3 1694.32 1470553
3 1694.32 1426704
3 1694.32 1406361
3 1694.32 1392957
3 1694.32 1388330
3 1694.32 1384517
3 1694.32 1375676
3 1695.02 1373354
3 1695.02 1363178
3 1695.02 1363130
3 1695.02 1358330
3 1695.02 1344943
3 1695.02 1343650
3 1695.68 1339489
3 1696.21 1335242
3 1698.24 1334855
3 1699.28 1333202
3 1699.28 1327500
3 1699.83 1323253
3 1699.83 1322718
3 1700.38 1321407
3 1700.89 1321043
3 1700.89 1320836
3 1702.41 1316061
3 1702.41 1315820
3 1702.41 1314520
3 1702.97 1314497
3 1702.97 1314205
3 1702.97 1312981
3 1703.55 1312777
3 1704.09 1312668
3 1704.09 1311243
3 1705.65 1310879
3 1708.1 1504575
3 1708.1 1485883
3 1708.1 1479136
3 1708.1 1467510
3 1708.1 1464141
3 1708.1 1430570
3 1708.1 1411739
3 1708.1 1407702
3 1708.1 1400867
3 1708.1 1379686
3 1708.1 1378841
3 1708.1 1377951
3 1708.95 1371581
3 1709.48 1370736
3 1709.48 1367537
3 1709.48 1367514
3 1709.48 1363369
3 1710.06 1357727
3 1710.58 1357622
3 1710.58 1357572
3 1710.58 1356626
3 1710.58 1353424
3 1710.58 1353376
3 1710.58 1350800
3 1710.58 1345371
3 1711.28 1344178
3 1711.28 1344155
3 1711.83 1337567
3 1711.83 1335990
3 1711.83 1332195
3 1712.4 1330081
3 1712.4 1328899
3 1712.95 1324335
3 1712.95 1322972
3 1713.52 1318342
3 1714.04 1307325
3 1716.45 1305632
3 1718.36 1304347
3 1718.36 1299346
3 1722.27 1434238
3 1722.27 1423983
3 1722.27 1406586
3 1722.27 1399319
3 1722.27 1380141
3 1722.27 1365033
3 1722.27 1363782
3 1722.27 1360764
3 1722.27 1351814
3 1723.04 1350919
3 1723.04 1350373
3 1723.04 1347642
3 1723.04 1345839
3 1723.04 1345774
3 1723.69 1344999
3 1723.69 1344284
3 1724.23 1342631
3 1724.23 1337837
3 1725.25 1337831
3 1727.7 1325226
3 1727.7 1317778
3 1727.7 1316755
3 1727.7 1316125
3 1728.29 1315035
3 1728.29 1313693
3 1728.84 1312040
3 1729.34 1310511
3 1732.14 1309550
3 1732.14 1309527
3 1736.46 1445704
3 1736.46 1426585
3 1736.46 1387107
3 1736.46 1381796
3 1736.46 1377921
3 1736.46 1377766
3 1736.46 1374816
3 1736.46 1373285
3 1737.17 1372967
3 1737.17 1372942
3 1737.72 1370816
3 1737.72 1369915
3 1737.72 1356422
3 1737.72 1350849
3 1738.32 1347328
3 1738.32 1347001
3 1738.32 1345638
3 1738.32 1338939
3 1738.32 1332652
3 1738.96 1328348
3 1739.5 1328119
3 1739.5 1327954
3 1739.5 1327678
3 1740.08 1327630
3 1740.08 1316690
3 1740.08 1316034
3 1740.08 1314365
3 1740.68 1314204
3 1740.68 1311007
3 1741.22 1309604
3 1742.2 1308530
3 1742.2 1302610
3 1746.62 1300717
3 1746.62 1299258
3 1748.1 1296432
3 1750.13 1441983
3 1750.13 1441222
3 1750.13 1421558
3 1750.13 1410830
3 1750.13 1404353
3 1750.76 1399308
3 1750.76 1367257
3 1750.76 1357794
3 1750.76 1351613
3 1751.38 1349029
3 1751.38 1348611
3 1751.95 1337929
3 1751.95 1337589
3 1751.95 1328947
3 1752.56 1328871
3 1752.56 1325503
3 1752.56 1323184
3 1752.56 1323136
3 1752.56 1322339
3 1753.21 1311287
3 1753.21 1309042
3 1753.77 1308977
3 1764.51 1420676
3 1764.51 1416453
3 1764.51 1413978
3 1764.51 1410123
3 1764.51 1409957
3 1764.51 1402370
3 1764.51 1386322
3 1765.22 1386075
3 1765.22 1377403
3 1765.22 1377286
3 1765.22 1377221
3 1765.22 1376149
3 1765.86 1373434
3 1765.86 1371651
3 1766.43 1370713
3 1766.95 1367641
3 1766.95 1363268
3 1766.95 1345745
3 1766.95 1335423
3 1767.56 1335059
3 1767.56 1325787
3 1771.03 1325686
3 1772.04 1324168
3 1772.56 1320666
3 1772.56 1320618
3 1772.56 1318067
3 1773.12 1317317
3 1773.12 1311619
3 1773.12 1311571
3 1778.01 1433801
3 1778.01 1431940
3 1778.01 1424487
3 1778.01 1421488
3 1778.64 1405965
3 1778.64 1403464
3 1778.64 1401219
3 1778.64 1382929
3 1779.27 1378620
3 1779.27 1376668
3 1779.27 1360576
3 1779.27 1358412
3 1779.27 1355767
3 1779.27 1355403
3 1779.96 1354841
3 1779.96 1354441
3 1779.96 1344978
3 1780.68 1341369
3 1780.68 1339257
3 1781.53 1338511
3 1781.53 1337191
3 1782.38 1330409
3 1783.14 1330045
3 1783.9 1329845
3 1784.68 1329625
3 1787.62 1327767
3 1789.07 1327663
3 1789.07 1326965
3 1789.07 1325249
3 1792.05 1453886
3 1792.05 1452075
3 1792.05 1448043
3 1792.05 1422668
3 1792.05 1408878
3 1792.05 1407225
3 1792.05 1406522
3 1792.05 1396232
3 1792.05 1393020
3 1792.05 1391656
3 1792.05 1391292
3 1793.15 1378681
3 1793.15 1377225
3 1793.15 1372173
3 1794.03 1361851
3 1794.03 1357829
3 1794.03 1357781
3 1794.85 1351023
3 1794.85 1349656
3 1795.72 1344921
3 1806.26 1442104
3 1806.26 1427065
3 1806.26 1383673
3 1807.1 1373383
3 1807.1 1369925
3 1807.9 1361983
3 1808.66 1353281
3 1808.66 1352726
3 1808.66 1351192
3 1809.49 1350561
3 1809.49 1345856
3 1809.49 1344009
3 1810.32 1340027
3 1811.79 1339636
3 1820.41 1484705
3 1820.41 1465068
3 1820.41 1441823
3 1820.41 1435925
3 1820.41 1404048
3 1820.41 1392230
3 1820.41 1385657
3 1820.41 1376879
3 1821.42 1373976
3 1821.42 1349781
3 1821.42 1345560
3 1821.42 1345489
3 1821.42 1335677
3 1823.7 1334600
3 1823.7 1327526
3 1823.7 1327085
3 1824.56 1325529
3 1826.02 1321969
3 1826.02 1321267
3 1834.57 1408343
3 1834.57 1405472
3 1834.57 1387666
3 1834.57 1371092
3 1834.57 1368907
3 1834.57 1347214
3 1834.57 1345696
3 1835.53 1340173
3 1835.53 1339161
3 1836.3 1338420
3 1837.03 1334124
3 1837.03 1333464
3 1837.03 1330786
3 1837.85 1330738
3 1837.85 1329677
3 1837.85 1327286
3 1837.85 1327221
3 1837.85 1326895
3 1837.85 1326745
3 1837.85 1325240
3 1839.48 1321880
3 1839.48 1320593
3 1840.24 1318424
3 1840.24 1315673
3 1841.02 1307676
3 1841.02 1307295
3 1841.02 1304157
3 1848.31 1444994
3 1848.31 1444971
3 1848.31 1430766
3 1848.31 1428519
3 1848.31 1420199
1 1848.31 1405045
3 1849.22 1393461
3 1849.22 1389606
3 1849.22 1386242
3 1849.22 1377401
3 1849.22 1369439
3 1849.22 1358771
3 1849.22 1356577
3 1849.22 1352722
3 1849.22 1343782
3 1850.21 1336262
3 1850.97 1333688
3 1850.97 1326102
3 1850.97 1322829
3 1850.97 1322286
3 1851.81 1321888
3 1851.81 1318033
3 1851.81 1317441
3 1851.81 1316252
3 1852.62 1314734
3 1852.62 1314220
3 1853.38 1313654
3 1853.38 1312001
3 1854.83 1311866
3 1854.83 1310332
3 1854.83 1307643
3 1854.83 1307620
3 1856.34 1305936
3 1856.34 1299044
3 1857.1 1298663
3 1857.1 1298438
3 1857.1 1297109
3 1857.94 1296904
3 1859.42 1292935
3 1860.19 1292912
3 1862.26 1491428
3 1862.26 1477451
3 1862.26 1468610
3 1862.26 1439927
3 1862.26 1417437
3 1862.26 1394392
3 1863.17 1391745
3 1863.17 1391518
3 1863.17 1388055
3 1863.17 1387473
3 1863.17 1380780
3 1863.17 1362380
3 1863.17 1360846
3 1864.78 1355647
3 1864.78 1353579
3 1865.53 1349325
3 1866.25 1349002
3 1866.25 1336280
3 1867.01 1336232
3 1867.01 1335670
3 1867.01 1334451
3 1867.78 1333357
3 1868.51 1328828
3 1868.51 1326429
3 1868.51 1323573
3 1868.51 1323331
3 1869.32 1321319
3 1869.32 1314566
3 1869.32 1313025
3 1870.1 1308282
3 1870.1 1305920
3 1870.88 1305019
3 1871.67 1304954
3 1871.67 1304040
3 1871.67 1304017
3 1872.51 1303254
3 1873.25 1302918
3 1873.25 1302331
3 1876.04 1444205
3 1876.04 1444157
3 1876.04 1441272
3 1876.04 1437417
3 1876.04 1428145
3 1876.04 1414501
3 1876.04 1401008
3 1876.04 1387774
3 1876.04 1387624
3 1876.04 1380638
3 1877.07 1380615
3 1877.07 1373126
3 1877.07 1370482
3 1877.86 1365137
3 1877.86 1354603
3 1877.86 1352688
3 1877.86 1352127
3 1878.69 1348000
3 1878.69 1344401
3 1878.69 1340175
3 1878.69 1340110
3 1878.69 1322512
3 1879.54 1321405
3 1879.54 1319847
3 1879.54 1317032
3 1879.54 1310733
3 1880.37 1309197
3 1880.37 1307883
3 1880.37 1307391
3 1880.37 1304028
3 1883.93 1299948
3 1883.93 1299944
3 1883.93 1299655
3 1890.27 1479800
3 1890.27 1465873
3 1890.27 1434655
3 1890.27 1430366
3 1890.27 1427229
3 1890.27 1421121
3 1890.27 1357172
3 1891.24 1356521
3 1892 1356476
3 1892.77 1354006
3 1892.77 1353983
3 1893.54 1353914
3 1893.54 1350190
3 1894.32 1350142
3 1894.32 1349972
3 1894.32 1349631
3 1895.14 1345554
3 1895.89 1340262
3 1896.64 1338184
3 1898.86 1335939
3 1904.08 1439571
3 1904.08 1435324
3 1904.08 1430943
3 1904.08 1411540
3 1904.08 1369294
3 1904.08 1367560
3 1904.08 1364205
3 1905.76 1359895
3 1905.76 1359830
3 1906.58 1353547
3 1906.58 1350995
3 1906.58 1350560
3 1906.58 1333845
3 1907.41 1329472
3 1907.41 1316967
3 1908.92 1316594
3 1908.92 1310446
3 1915.5 1309327
3 1917.68 1308629
3 1918.42 1463309
3 1918.42 1455475
3 1918.42 1450231
3 1918.42 1441016
3 1918.42 1426518
3 1918.42 1412823
3 1918.42 1409973
3 1918.42 1407282
3 1918.42 1400015
3 1918.42 1398065
3 1918.42 1390136
3 1919.53 1383092
3 1919.53 1380151
3 1919.53 1378697
3 1919.53 1378135
3 1919.53 1366559
3 1919.53 1365129
3 1919.53 1364765
3 1919.53 1357863
3 1919.53 1357010
3 1919.53 1351594
3 1920.58 1350173
3 1920.58 1345772
3 1920.58 1333344
3 1921.41 1331093
3 1922.18 1330639
3 1922.18 1327238
3 1922.18 1325724
3 1922.99 1325704
3 1922.99 1319847
3 1932.56 1404072
3 1932.56 1399825
3 1932.56 1381720
3 1932.56 1380067
3 1932.56 1374633
3 1932.56 1361326
3 1932.56 1348318
3 1932.56 1346898
3 1933.54 1342908
3 1933.54 1338661
3 1933.54 1338297
3 1933.54 1331260
3 1933.54 1323621
3 1933.54 1323155
3 1934.44 1314154
3 1935.95 1312831
3 1935.95 1312783
3 1944.75 1312262
3 1946.2 1382039
3 1946.2 1381886
3 1946.2 1378031
3 1947.05 1373403
3 1947.05 1371750
3 1947.05 1368591
3 1947.05 1365151
3 1947.05 1357192
3 1948.04 1346781
3 1948.04 1346733
3 1948.93 1344536
3 1948.93 1342360
3 1948.93 1338865
3 1949.76 1328575
3 1950.53 1328080
3 1951.29 1328032
3 1952.08 1324284
3 1952.86 1324039
3 1952.86 1322159
3 1953.65 1322121
3 1953.65 1321580
3 1953.65 1315726
3 1954.48 1314940
3 1954.48 1314675
3 1955.3 1314576
3 1956.24 1312716
3 1956.24 1312668
3 1956.24 1311233
3 1957.08 1308635
3 1957.83 1307977
3 1960.19 1422766
3 1960.19 1421475
3 1960.19 1411654
3 1960.19 1405535
3 1960.19 1392148
3 1960.19 1387868
3 1960.19 1362530
3 1960.19 1356179
3 1960.19 1345857
3 1961.24 1343971
3 1962.05 1339927
3 1962.05 1332855
3 1962.05 1329258
3 1962.05 1324930
3 1962.94 1324237
3 1963.73 1320554
3 1963.73 1320139
3 1963.73 1320091
3 1964.59 1314538
3 1966.91 1307262
3 1974.53 1426607
3 1974.53 1416384
3 1974.53 1414731
3 1974.53 1390935
3 1974.53 1387139
3 1974.53 1382761
3 1974.53 1378906
3 1974.53 1378624
3 1974.53 1364672
3 1975.56 1361462
3 1975.56 1361105
3 1975.56 1360495
3 1975.56 1343750
3 1976.44 1343727
3 1976.44 1336561
3 1976.44 1336483
3 1976.44 1335490
3 1978.08 1331854
3 1978.08 1331789
3 1981.05 1326271
3 1981.87 1319324
3 1981.87 1318982
3 1981.87 1315675
3 1982.7 1315610
3 1982.7 1315253
3 1982.7 1314783
3 1983.5 1314735
3 1988.01 1437531
3 1988.01 1422692
3 1988.01 1417882
3 1988.01 1416229
3 1988.01 1409814
3 1988.01 1386861
3 1988.01 1385502
3 1988.73 1373658
3 1988.73 1363495
3 1988.73 1359784
3 1988.73 1343464
3 1988.73 1339609
3 1988.73 1338700
3 1989.41 1338023
3 1989.41 1329918
3 1989.95 1329891
3 1989.95 1329726
3 1989.95 1328555
3 1989.95 1323993
3 1991.02 1323344
3 1991.53 1321691
3 1991.53 1321027
3 1992.08 1320663
3 1994.5 1320475
3 1995.01 1319708
3 1995.56 1315198
3 1995.56 1313680
3 1996.1 1310864
3 1997.1 1310849
3 1998.12 1308236
3 1998.12 1307887
3 1998.66 1307864
3 1999.64 1307780
3 1999.64 1307416
3 1999.64 1307087
3 2000.68 1306676
3 2001.2 1305553
3 2002.17 1442421
3 2002.17 1435767
3 2002.17 1433957
3 2002.17 1432493
3 2002.17 1432076
3 2002.17 1431712
3 2002.83 1429602
3 2002.83 1415692
3 2003.4 1414039
3 2003.4 1411794
3 2003.4 1407421
3 2003.4 1401421
3 2004.06 1401246
3 2004.06 1399316
3 2006.12 1385123
3 2006.12 1384984
3 2006.12 1374667
3 2006.12 1366725
3 2006.12 1360718
3 2006.12 1356452
3 2006.12 1354392
3 2006.12 1353977
3 2006.86 1352028
3 2006.86 1345948
3 2006.86 1343486
3 2006.86 1338429
3 2007.47 1336476
3 2007.98 1332634
3 2008.48 1331613
3 2008.48 1328374
3 2009.47 1325241
3 2009.47 1324527
3 2010.02 1320969
3 2010.02 1320921
3 2011.05 1320533
3 2011.56 1319759
3 2012.07 1318481
3 2012.07 1316041
3 2012.07 1314675
3 2016.44 1468112
3 2016.44 1448993
3 2016.44 1444746
3 2016.44 1444698
3 2016.44 1439898
3 2016.44 1412196
3 2016.44 1404254
3 2016.44 1388272
3 2016.44 1387825
3 2016.44 1383970
3 2016.44 1382553
3 2016.44 1381807
3 2016.44 1364124
3 2016.44 1361606
3 2016.44 1356770
3 2017.37 1355315
3 2017.37 1346375
3 2017.37 1345186
3 2017.94 1343063
3 2017.94 1341410
3 2017.94 1340813
3 2017.94 1340449
3 2019.02 1337871
3 2019.53 1336611
3 2019.53 1336563
3 2020.11 1335471
3 2020.11 1331836
3 2021.16 1329591
3 2022.17 1329038
3 2022.69 1328441
3 2022.69 1328077
3 2023.23 1327636
3 2025.61 1326852
3 2026.6 1326311
3 2027.11 1326205
3 2027.11 1318910
3 2030.38 1441940
3 2030.38 1421755
3 2030.38 1407083
3 2030.38 1402710
3 2030.38 1402249
3 2030.38 1383935
3 2030.38 1376468
3 2030.38 1372631
3 2030.38 1368400
3 2031.46 1365601
3 2031.46 1363948
3 2031.46 1362664
3 2032.29 1349368
3 2032.29 1345121
3 2033.08 1337016
3 2033.08 1329565
3 2033.88 1327368
3 2033.88 1327102
3 2035.42 1323423
3 2035.42 1323375
3 2040.53 1321270
3 2041.31 1320013
3 2042.09 1316737
3 2042.87 1312814
3 2042.87 1312749
3 2042.87 1312633
3 2043.66 1312622
3 2043.66 1310980
3 2044.42 1421163
3 2044.42 1402390
3 2044.42 1390829
3 2044.42 1387765
3 2044.42 1376535
3 2044.42 1372680
3 2045.32 1364982
3 2045.32 1356625
3 2045.32 1352378
3 2048.19 1343718
3 2048.19 1342888
3 2048.19 1342601
3 2048.19 1338518
3 2048.79 1337235
3 2048.79 1330124
3 2049.34 1328046
3 2049.34 1321370
3 2049.34 1312538
3 2049.91 1311807
3 2049.91 1310774
3 2049.91 1308304
3 2050.48 1307434
3 2052.89 1306634
3 2056.68 1303899
3 2056.68 1303727
3 2058.35 1459941
3 2058.35 1440592
3 2058.35 1396782
3 2058.35 1396777
3 2058.35 1395500
3 2058.35 1393615
3 2058.35 1388837
3 2059.08 1387303
3 2059.08 1386939
3 2059.08 1379812
3 2059.08 1378382
3 2059.71 1376199
3 2060.27 1365177
3 2060.27 1364365
3 2060.27 1357259
3 2060.88 1351829
3 2060.88 1348884
3 2060.88 1347796
3 2061.98 1343085
3 2061.98 1334134
3 2061.98 1328880
3 2062.56 1326352
3 2062.56 1325988
3 2062.56 1325080
3 2062.56 1320951
3 2063.15 1316578
3 2064.68 1316086
3 2066.26 1315362
3 2066.26 1314967
3 2067.4 1314129
3 2067.99 1313765
3 2068.6 1312784
3 2069.21 1312421
3 2072.45 1433496
3 2072.45 1409429
3 2072.45 1397481
3 2072.45 1395963
3 2072.45 1392976
3 2072.45 1376198
3 2072.45 1366059
3 2072.45 1363949
3 2072.45 1359220
3 2072.45 1355573
3 2073.32 1353571
3 2073.32 1341037
3 2073.32 1339503
3 2073.32 1335648
3 2073.97 1324843
3 2073.97 1317183
3 2073.97 1317010
3 2075.12 1311869
3 2078.09 1310597
3 2078.09 1308973
3 2078.65 1308540
3 2080.21 1307547
3 2086.13 1471365
3 2086.13 1464135
3 2086.13 1438304
3 2086.13 1436681
3 2086.13 1426226
3 2086.13 1406240
3 2086.13 1389505
3 2086.13 1389388
3 2086.13 1369952
3 2086.93 1364605
3 2086.93 1358506
3 2086.93 1354404
3 2087.52 1350157
3 2087.52 1350102
3 2089.09 1344645
3 2089.09 1342464
3 2089.65 1342072
3 2089.65 1341081
3 2089.65 1336834
3 2089.65 1336470
3 2089.65 1331617
3 2090.3 1316259
3 2090.3 1314014
3 2090.3 1313966
3 2090.3 1312824
3 2091.89 1311584
3 2092.41 1309744
3 2092.41 1309721
3 2092.98 1308577
1 2100.27 1473555
3 2100.27 1463265
3 2100.27 1445221
3 2100.27 1438299
3 2100.27 1433499
3 2100.27 1424658
3 2100.27 1421938
3 2100.27 1409566
3 2101.01 1405711
3 2101.01 1405688
3 2101.01 1392789
3 2101.59 1385277
3 2102.12 1381422
3 2102.12 1379515
3 2102.67 1379151
3 2103.68 1378737
1 2103.68 1371278
3 2103.68 1369162
3 2103.68 1367807
3 2105.77 1363657
3 2106.3 1363276
3 2107.76 1359750
3 2107.76 1356582
3 2107.76 1349115
3 2107.76 1338001
3 2108.36 1334833
3 2108.91 1334687
3 2109.44 1334639
3 2112.88 1334027
3 2113.48 1331776
3 2114.07 1447218
3 2114.07 1433013
3 2114.07 1405421
3 2114.07 1391754
3 2114.07 1383166
3 2114.84 1382913
3 2114.84 1377253
3 2114.84 1376017
3 2114.84 1368241
3 2114.84 1366719
3 2114.84 1361936
3 2114.84 1354661
3 2114.84 1351384
3 2115.8 1351340
3 2116.4 1333720
3 2116.4 1332447
3 2116.4 1316806
3 2117.53 1316783
3 2120.98 1310957
3 2120.98 1297664
3 2128.38 1498996
3 2128.38 1484832
3 2128.38 1473821
3 2128.38 1461587
3 2128.38 1409818
3 2128.38 1408538
3 2128.38 1404636
3 2128.38 1401876
3 2129.43 1390551
3 2129.43 1363487
3 2129.43 1350776
3 2129.43 1339950
3 2129.43 1335703
3 2130.34 1334822
3 2130.34 1329628
1 2130.34 1327999
3 2131.94 1326466
3 2131.94 1326071
3 2132.74 1324854
3 2132.74 1323201
3 2133.59 1321449
3 2134.37 1321384
3 2134.37 1313926
3 2139.19 1313632
3 2139.19 1311567
3 2139.19 1311502
3 2140.31 1309849
3 2140.31 1306552
3 2140.31 1304488
3 2141.4 1302909
3 2142.07 1370189
3 2142.07 1364357
3 2142.07 1358528
3 2142.07 1352053
3 2142.07 1349928
3 2142.07 1349880
3 2142.87 1346056
3 2142.87 1338356
3 2142.87 1338029
3 2142.87 1335259
3 2144.01 1333500
3 2144.01 1328075
3 2144.62 1326422
3 2144.62 1325318
3 2145.19 1324373
3 2145.19 1320697
3 2156.3 1433686
3 2156.3 1419813
3 2156.3 1405608
3 2156.3 1399505
3 2156.3 1384445
3 2156.3 1383028
3 2156.3 1372789
3 2156.3 1362224
3 2156.3 1348178
3 2157.24 1345951
3 2157.24 1338676
3 2157.24 1338617
3 2157.24 1337142
3 2157.92 1334269
3 2157.92 1332174
3 2158.53 1326126
3 2158.53 1325993
3 2158.53 1323915
3 2159.18 1320590
3 2159.18 1320066
3 2159.18 1320043
3 2159.85 1319690
3 2160.41 1319214
3 2160.41 1317939
3 2160.41 1316421
3 2162.51 1314376
3 2165.66 1313533
3 2165.66 1312412
3 2166.38 1312048
3 2170.42 1422001
3 2170.42 1418458
3 2170.42 1409277
3 2170.42 1405740
3 2170.42 1405675
3 2170.42 1400346
3 2170.42 1398101
3 2170.42 1393943
3 2171.2 1391203
3 2171.2 1389234
3 2171.2 1388459
3 2171.2 1379230
3 2171.2 1375174
3 2171.2 1374810
3 2171.89 1372805
3 2171.89 1359190
3 2172.45 1359126
3 2172.45 1359103
3 2172.45 1355212
3 2172.45 1350381
3 2172.45 1348728
3 2172.45 1338117
3 2172.45 1337675
3 2174.6 1335569
3 2174.6 1333129
3 2182.25 1326592
3 2182.25 1318650
3 2184.03 1398551
3 2184.03 1394394
3 2184.03 1394231
3 2184.03 1384768
3 2184.03 1381230
3 2184.03 1374915
3 2184.03 1374892
3 2184.79 1373766
3 2184.79 1370252
3 2185.49 1369728
3 2185.49 1368581
3 2185.49 1367764
3 2186.15 1367400
3 2186.15 1360425
3 2186.71 1357758
3 2186.71 1356755
3 2187.26 1354557
3 2187.26 1352229
3 2187.26 1351393
3 2187.88 1347185
3 2188.43 1345866
3 2188.43 1341620
3 2188.43 1338544
3 2189.04 1338521
3 2189.57 1336806
3 2190.1 1336054
3 2190.1 1335989
3 2198.3 1451492
3 2198.3 1448610
3 2198.3 1446154
3 2198.3 1445872
3 2198.3 1439767
3 2199.06 1420418
3 2199.06 1415522
3 2199.06 1400917
3 2199.06 1399443
3 2199.06 1398745
3 2199.71 1397909
3 2199.71 1393823
3 2199.71 1390084
3 2199.71 1389968
3 2199.71 1389604
3 2200.45 1387645
3 2201.03 1385207
3 2201.03 1383272
3 2201.03 1380065
3 2201.03 1361586
3 2201.67 1359651
3 2201.67 1359603
3 2205.99 1356872
3 2207.29 1355989
3 2207.29 1354529
3 2208 1354165
3 2212.08 1438056
3 2212.08 1436642
3 2212.08 1428537
3 2212.08 1417372
3 2212.08 1394231
3 2212.08 1383986
3 2212.08 1382452
3 2212.08 1381442
3 2212.08 1359009
3 2212.96 1357143
3 2212.96 1356584
3 2213.58 1350755
3 2213.58 1347162
3 2213.58 1345024
3 2213.58 1344910
3 2214.3 1344576
3 2214.3 1343307
3 2214.3 1341463
3 2215.47 1335517
3 2215.47 1333156
3 2215.47 1331181
3 2217.6 1330329
3 2226.29 1432962
3 2226.29 1422471
3 2226.29 1412777
3 2226.29 1408404
3 2226.29 1402551
3 2226.29 1397716
3 2226.29 1390385
3 2226.29 1384482
3 2226.29 1382713
3 2226.29 1382150
3 2227.43 1375887
3 2227.43 1373642
3 2227.43 1371989
3 2228.3 1352096
3 2228.3 1349215
3 2228.3 1347859
3 2228.3 1344280
3 2229.2 1342872
3 2229.2 1334930
3 2230.05 1332852
3 2230.87 1330520
3 2234.91 1330151
3 2234.91 1329228
3 2235.59 1327710
3 2239.38 1325501
3 2239.38 1324804
3 2240.47 1410502
3 2240.47 1401039
3 2240.47 1388955
3 2240.47 1388224
3 2240.47 1375644
3 2240.47 1371374
3 2240.47 1370792
3 2241.24 1369962
3 2241.24 1354761
3 2241.85 1345979
3 2241.85 1339738
3 2242.45 1339489
3 2242.99 1339248
3 2244.04 1333387
3 2244.04 1333087
3 2244.6 1329532
3 2244.6 1324808
3 2244.6 1324444
3 2245.74 1323469
3 2246.29 1320071
3 2246.83 1314220
3 2247.37 1312895
3 2247.95 1304790
3 2254.42 1416243
3 2254.42 1406971
3 2254.42 1401296
3 2254.42 1390491
3 2254.42 1388047
3 2255.13 1375062
3 2255.13 1359790
3 2255.13 1352033
3 2255.75 1350635
3 2255.75 1338620
3 2255.75 1337584
3 2255.75 1333820
3 2256.4 1329594
3 2256.4 1327497
3 2256.4 1327474
3 2257.07 1324269
3 2257.61 1323486
3 2257.61 1321841
3 2257.61 1321571
3 2257.61 1321279
3 2258.3 1318119
3 2258.3 1315147
3 2258.3 1310774
3 2258.3 1310709
3 2258.92 1310345
3 2259.66 1309510
3 2259.66 1309263
3 2261.7 1309185
3 2262.22 1307471
3 2262.76 1305241
3 2262.76 1305067
3 2262.76 1303723
3 2262.76 1302549
3 2263.61 1301256
3 2263.61 1299722
3 2268.28 1419629
3 2268.28 1412399
3 2268.28 1407445
3 2268.28 1404392
3 2268.28 1401151
3 2268.28 1377553
3 2268.28 1377530
3 2268.28 1375669
3 2269.19 1375088
3 2269.19 1373759
3 2269.19 1372567
3 2269.19 1370453
3 2269.19 1362164
3 2269.19 1358701
3 2269.19 1340878
3 2269.95 1340813
3 2269.95 1340537
3 2270.53 1340173
3 2270.53 1340169
3 2270.53 1338258
3 2271.13 1335503
3 2271.13 1335341
3 2271.13 1332981
3 2271.13 1332191
3 2271.13 1331447
3 2271.13 1331424
3 2272.38 1327201
3 2272.38 1325683
3 2272.38 1324426
3 2272.99 1323958
3 2272.99 1320128
3 2273.56 1320103
3 2276.1 1319506
3 2276.1 1318082
3 2276.66 1316564
3 2280.14 1316430
3 2282.43 1497806
3 2282.43 1490864
3 2282.43 1476124
3 2282.43 1433890
3 2282.43 1423502
3 2282.43 1407343
3 2282.43 1396460
3 2283.39 1394023
3 2283.39 1392370
3 2284.2 1391291
3 2284.2 1386705
3 2284.2 1372298
3 2284.2 1371206
3 2284.2 1371158
3 2285.11 1366873
3 2285.11 1363072
3 2285.11 1361687
3 2285.11 1352415
3 2285.11 1352341
3 2285.11 1347937
3 2286.02 1347758
3 2286.82 1344082
3 2286.82 1343678
3 2286.82 1343043
3 2287.66 1342584
3 2287.66 1340777
3 2287.66 1334201
3 2287.66 1332273
3 2288.53 1331034
3 2288.53 1330034
3 2288.53 1329119
3 2288.53 1328381
3 2289.46 1323650
3 2289.46 1323194
3 2290.28 1321537
3 2290.28 1321435
3 2291.82 1319059
3 2291.82 1314610
3 2292.59 1314246
3 2292.59 1313417
3 2294.09 1312901
3 2294.09 1311383
3 2294.92 1308744
3 2294.92 1306807
3 2295.72 1302560
3 2295.72 1302512
3 2296.51 1409369
3 2296.51 1387082
3 2296.51 1372905
3 2296.51 1372424
3 2296.51 1360125
3 2296.51 1349634
3 2297.45 1348437
3 2297.45 1346784
3 2297.45 1346109
3 2297.45 1343270
3 2299.82 1343080
3 2300.63 1343015
3 2300.63 1341983
3 2300.63 1340830
3 2302.22 1340395
3 2302.22 1340330
3 2302.22 1336030
3 2303.11 1335600
3 2303.93 1334706
3 2304.74 1334342
3 2306.26 1333306
3 2307.01 1333177
3 2307.79 1333053
3 2307.79 1332689
3 2310.05 1449285
3 2310.05 1414366
3 2310.05 1401173
3 2310.05 1379838
1 2310.05 1378416
3 2310.05 1377492
3 2310.05 1361726
3 2310.05 1361266
3 2310.05 1359907
3 2311.87 1354958
3 2311.87 1353440
3 2311.87 1353359
3 2312.74 1343778
3 2312.74 1343414
3 2312.74 1343228
3 2312.74 1334165
3 2313.62 1323568
3 2313.62 1322297
3 2314.43 1322205
3 2314.43 1320996
3 2315.22 1320534
3 2316.81 1319016
3 2321.28 1316800
3 2321.28 1316777
3 2321.28 1316506
3 2324.37 1468179
3 2324.37 1467095
3 2324.37 1414800
1 2324.37 1404123
3 2324.37 1404100
3 2324.37 1381981
3 2324.37 1377975
3 2324.37 1363770
3 2325.41 1363722
3 2326.9 1362681
3 2327.68 1360373
3 2327.68 1357847
3 2328.49 1357169
3 2328.49 1356216
3 2328.49 1349089
3 2328.49 1348883
3 2328.49 1347951
3 2329.39 1339904
3 2329.39 1331051
3 2329.39 1324044
3 2330.25 1323608
3 2330.25 1313665
3 2331.09 1312147
3 2338.55 1450517
3 2338.55 1436019
3 2338.55 1397324
3 2338.55 1390643
3 2338.55 1384122
3 2338.55 1382636
3 2338.55 1379956
3 2338.55 1368631
3 2338.55 1368430
3 2339.59 1368066
3 2339.59 1366749
3 2339.59 1366349
3 2339.59 1359290
3 2340.46 1348799
3 2340.46 1348734
3 2340.46 1347081
3 2342.06 1345052
3 2342.06 1344756
3 2342.89 1340635
3 2342.89 1334947
3 2342.89 1333153
3 2343.74 1327852
3 2344.49 1326785
3 2345.31 1325998
3 2345.31 1325634
3 2348.5 1325237
3 2349.26 1324100
3 2350.03 1320726
3 2351.57 1320648
3 2351.57 1320211
3 2351.57 1320146
3 2352.4 1400101
3 2352.4 1380906
3 2352.4 1374979
3 2352.4 1367037
3 2352.4 1364666
3 2352.4 1363182
3 2353.36 1360913
3 2353.36 1358150
3 2353.36 1351372
3 2354.18 1347565
3 2354.18 1344573
3 2354.18 1342427
3 2354.18 1340893
3 2354.18 1335037
3 2355.06 1334135
3 2355.06 1334070
3 2355.06 1331992
3 2355.06 1329882
3 2355.06 1328398
3 2356.72 1319980
3 2356.72 1318126
3 2357.49 1317954
3 2357.49 1317149
3 2358.26 1313776
3 2366.38 1462888
3 2366.38 1457059
3 2366.38 1445728
3 2366.38 1434927
3 2366.38 1412954
3 2366.38 1392589
3 2366.38 1384625
3 2366.38 1380378
3 2367.39 1371503
3 2367.39 1371133
3 2368.23 1364474
3 2368.23 1363746
3 2368.23 1362387
3 2368.23 1353741
3 2369.13 1347328
3 2369.13 1346200
3 2369.13 1346177
3 2369.13 1345813
3 2369.98 1345055
3 2370.76 1343402
3 2370.76 1335956
3 2373.09 1331364
3 2373.86 1331341
3 2376.16 1330859
3 2376.95 1326968
1 2379.25 1325337
3 2380.05 1438633
3 2380.05 1436177
3 2380.05 1429707
3 2380.05 1429065
3 2380.05 1427050
3 2380.05 1425578
3 2380.05 1424044
3 2380.05 1409546
3 2381.02 1408015
3 2381.02 1403106
3 2381.02 1385617
3 2381.02 1365934
3 2381.02 1362812
3 2381.95 1356259
3 2381.95 1354181
3 2381.95 1353595
3 2381.95 1352492
3 2382.82 1349768
3 2382.82 1344904
3 2382.82 1341976
3 2382.82 1340448
3 2383.7 1338548
3 2383.7 1337196
3 2383.7 1337033
3 2384.51 1332660
3 2385.99 1331781
3 2385.99 1331126
3 2387.56 1329638
3 2388.43 1327985
3 2394.44 1454960
3 2394.44 1451923
3 2394.44 1451157
3 2394.44 1426764
3 2394.44 1422413
3 2395.4 1407270
3 2395.4 1405617
3 2395.4 1402804
3 2395.4 1399788
3 2395.4 1390783
3 2395.4 1386311
3 2396.34 1378206
3 2396.34 1377737
3 2396.34 1369662
3 2396.34 1365289
3 2396.34 1363383
3 2396.34 1356852
3 2397.28 1353657
3 2397.28 1350017
3 2398.12 1345831
3 2398.12 1338851
3 2398.12 1328671
3 2406.75 1328404
3 2406.75 1326613
3 2406.75 1326352
3 2407.36 1322560
3 2407.36 1320523
3 2407.36 1319593
3 2407.36 1319229
3 2408.01 1448093
3 2408.01 1439033
3 2408.01 1436904
3 2408.01 1434576
3 2408.01 1434067
3 2408.01 1431308
3 2408.01 1429790
3 2408.01 1424465
3 2408.01 1414595
3 2408.01 1406581
3 2408.86 1404948
3 2408.86 1402208
3 2408.86 1401844
3 2408.86 1398059
3 2408.86 1379000
3 2409.5 1375585
3 2409.5 1372272
3 2409.5 1369897
3 2409.5 1368688
3 2410.18 1367216
3 2410.18 1366887
3 2410.74 1362514
3 2410.74 1362449
3 2411.3 1361264
3 2411.3 1357649
3 2411.9 1350232
3 2411.9 1340121
3 2412.98 1338587
3 2422.28 1473379
3 2422.28 1461535
3 2422.28 1437150
3 2422.28 1423998
3 2422.28 1416171
3 2422.28 1409967
3 2422.28 1401885
3 2422.28 1398902
3 2423.04 1396896
3 2423.04 1395047
3 2423.04 1390784
3 2423.04 1385984
3 2423.04 1384121
3 2423.74 1382953
3 2423.74 1378706
3 2423.74 1364108
3 2423.74 1362590
3 2424.41 1351142
3 2424.91 1342239
3 2424.91 1340336
3 2425.48 1340066
3 2425.48 1338802
3 2425.48 1330871
3 2426.52 1327751
3 2426.52 1327463
3 2426.52 1327387
3 2426.52 1326958
3 2426.52 1324650
3 2426.52 1324627
3 2428.15 1324358
3 2428.15 1315912
3 2428.7 1315889
3 2429.22 1313657
3 2429.22 1313634
3 2429.22 1312324
3 2429.8 1311064
3 2429.8 1310222
3 2430.34 1309414
3 2431.33 1307392
3 2431.89 1307327
3 2432.41 1306673
3 2432.41 1305244
3 2432.94 1305221
3 2436.35 1469155
3 2436.35 1457311
3 2436.35 1454005
3 2436.35 1450644
3 2436.35 1436439
3 2436.35 1430473
1 2436.35 1426562
3 2436.35 1417473
3 2436.35 1416964
3 2437.12 1413100
3 2437.12 1400630
3 2437.12 1391169
3 2437.12 1382302
3 2437.12 1380649
3 2437.12 1380040
3 2437.12 1371331
3 2437.12 1367600
3 2437.8 1357607
3 2437.8 1353664
3 2437.8 1350243
3 2438.38 1349673
3 2438.38 1348779
3 2438.38 1341708
3 2438.38 1340411
3 2438.97 1337864
3 2438.97 1333950
3 2438.97 1333208
3 2439.55 1326618
3 2439.55 1326254
3 2440.11 1324009
3 2441.1 1321350
3 2441.61 1321327
3 2450.3 1466607
3 2450.3 1422421
3 2450.3 1420768
3 2450.3 1404912
3 2450.3 1404340
3 2450.3 1393617
3 2450.3 1374268
3 2451.03 1374245
3 2451.03 1373813
3 2451.03 1359817
3 2451.03 1359082
3 2451.66 1358142
3 2451.66 1356489
3 2451.66 1350815
3 2451.66 1350750
3 2453.27 1349080
3 2453.27 1347615
3 2453.27 1345632
3 2453.27 1344549
3 2453.9 1344421
3 2453.9 1344185
3 2454.46 1335576
3 2454.46 1333245
3 2454.46 1331329
3 2454.46 1330869
3 2455.07 1327943
3 2455.6 1323512
3 2455.6 1321978
3 2456.15 1320771
3 2456.15 1320371
3 2456.15 1315571
3 2456.71 1315523
3 2457.76 1313243
3 2457.76 1311329
3 2457.76 1309748
3 2458.87 1309425
3 2461.53 1307972
3 2462.1 1307608
3 2462.1 1307553
3 2463.69 1307530
3 2463.69 1307482
3 2464.24 1457047
3 2464.24 1442442
3 2464.24 1430598
3 2464.24 1430575
3 2464.24 1426256
3 2464.24 1412270
3 2464.24 1411024
3 2464.24 1389926
3 2464.24 1382190
3 2464.24 1380272
3 2464.24 1374443
3 2465.04 1365926
3 2465.04 1360799
3 2465.04 1358587
3 2465.85 1358445
3 2465.85 1354590
3 2465.85 1354352
3 2465.85 1351540
3 2466.75 1350133
3 2466.75 1347167
3 2466.75 1341555
3 2466.75 1331265
3 2466.75 1329705
3 2467.66 1328609
3 2467.66 1326035
3 2467.66 1325966
3 2468.51 1322492
3 2468.51 1319433
3 2469.36 1317915
3 2469.36 1314441
3 2469.36 1307861
3 2470.18 1307497
3 2478.39 1461447
3 2478.39 1439014
3 2478.39 1438655
3 2478.39 1435714
3 2478.39 1431908
3 2478.39 1428871
3 2478.39 1409852
3 2479.42 1407026
3 2479.42 1405969
3 2479.42 1401435
3 2479.42 1396138
3 2480.33 1394336
3 2480.33 1391989
3 2480.33 1390802
3 2480.33 1384423
3 2480.33 1377297
3 2480.33 1375196
3 2481.28 1374947
3 2481.28 1372924
3 2482.12 1372901
3 2483.64 1360705
3 2483.64 1359745
3 2484.47 1359671
3 2484.47 1353562
3 2484.47 1353223
3 2485.31 1348976
3 2486.09 1344790
3 2486.09 1344299
3 2486.09 1342765
3 2486.09 1342023
3 2486.09 1342000
3 2486.09 1341612
3 2487.79 1337365
3 2487.79 1333510
3 2492.59 1442733
3 2492.59 1438360
3 2492.59 1421393
3 2492.59 1421170
3 2492.59 1413196
3 2492.59 1403735
3 2492.59 1382558
3 2492.59 1382517
3 2492.59 1379684
3 2493.64 1357608
3 2493.64 1352314
3 2493.64 1345449
3 2493.64 1339521
3 2493.64 1336330
3 2493.64 1336046
3 2494.58 1335382
3 2494.58 1323538
3 2495.4 1322677
3 2495.4 1320683
3 2495.4 1320660
3 2495.4 1317977
3 2496.3 1313205
3 2496.3 1313140
3 2506.2 1437913
3 2506.2 1424123
3 2506.2 1424041
3 2506.2 1420186
3 2506.2 1418925
3 2506.2 1417272
3 2506.2 1416722
3 2506.2 1411813
3 2506.2 1405240
3 2507.28 1400867
3 2507.28 1387976
3 2507.28 1386529
3 2507.28 1384876
3 2508.17 1376035
3 2508.17 1373536
3 2508.17 1371235
3 2508.17 1368495
3 2509.1 1360153
3 2509.1 1357274
3 2509.92 1355886
3 2509.92 1355165
3 2509.92 1349620
3 2509.92 1348305
3 2510.81 1341195
3 2510.81 1332976
3 2511.62 1329769
3 2511.62 1329405
3 2513.21 1326697
3 2514 1325639
3 2514.78 1325032
3 2514.78 1320535
3 2515.62 1319470
3 2516.45 1318821
3 2516.45 1318798
3 2517.27 1318214
3 2520.36 1434241
3 2520.36 1432266
3 2520.36 1425036
3 2520.36 1415006
3 2520.36 1412894
3 2520.36 1393503
3 2521.34 1384662
3 2521.34 1382584
3 2521.34 1380164
3 2521.34 1367139
3 2521.34 1364643
3 2522.28 1338840
3 2522.28 1336283
3 2522.28 1334859
3 2522.28 1332428
3 2522.28 1328592
3 2522.28 1328055
3 2526.17 1323902
3 2526.96 1321152
3 2526.96 1321104
3 2528.48 1320391
3 2528.48 1320191
3 2529.33 1317493
3 2530.22 1315818
3 2531.76 1313450
3 2534.75 1479598
3 2534.75 1474431
3 2534.75 1474067
3 2534.75 1468238
3 2534.75 1453153
3 2534.75 1449651
3 2534.75 1441556
3 2535.75 1437302
3 2535.75 1428461
3 2535.75 1414146
3 2535.75 1409197
3 2535.75 1407206
3 2536.68 1402959
3 2536.68 1402531
3 2536.68 1400570
3 2536.68 1400547
3 2536.68 1400205
3 2537.61 1396249
3 2537.61 1394004
3 2537.61 1393302
3 2537.61 1392702
3 2537.61 1382422
3 2537.61 1377269
3 2537.61 1376245
3 2538.62 1375081
3 2538.62 1375058
3 2539.45 1370416
3 2539.45 1365968
3 2539.45 1358140
3 2540.28 1349568
3 2540.28 1348663
3 2541.89 1347498
3 2541.89 1346928
3 2542.7 1343073
3 2543.55 1339263
3 2544.34 1338926
3 2544.34 1337273
3 2545.95 1337208
3 2545.95 1336099
3 2545.95 1334184
3 2547.52 1333710
3 2547.52 1329855
3 2547.52 1329672
3 2548.38 1437135
3 2548.38 1431955
3 2548.38 1431515
3 2548.38 1420948
3 2548.38 1414303
3 2548.38 1403874
3 2548.38 1392718
3 2548.38 1392340
3 2548.38 1387273
3 2549.41 1378567
3 2549.41 1369249
3 2549.41 1357394
3 2549.41 1357030
3 2549.41 1356811
3 2550.34 1356388
3 2550.34 1355815
3 2550.34 1354788
3 2550.34 1353404
3 2550.34 1350386
3 2550.34 1348959
3 2550.34 1348110
3 2551.29 1347575
3 2551.29 1341026
3 2551.29 1338244
3 2552.11 1336558
3 2552.11 1336154
3 2552.11 1335682
3 2552.11 1330717
3 2552.11 1329915
3 2552.11 1328820
3 2553.02 1327743
3 2555.29 1326090
3 2555.29 1324733
3 2556.08 1322637
3 2556.08 1320966
3 2556.88 1318815
3 2557.69 1317556
3 2557.69 1317281
3 2560.72 1312002
3 2561.49 1311500
3 2562.23 1436924
3 2562.23 1427370
3 2562.23 1406434
3 2562.23 1400817
3 2562.23 1400713
3 2562.23 1400690
3 2563.12 1396672
3 2563.12 1378689
3 2563.91 1376730
3 2563.91 1372483
3 2563.91 1369660
3 2563.91 1364848
3 2564.77 1364800
3 2564.77 1353842
3 2564.77 1353278
3 2564.77 1351854
3 2565.62 1350488
3 2565.62 1350440
3 2567.09 1348787
3 2567.09 1348502
3 2567.85 1343432
3 2567.85 1341898
3 2572.25 1341675
3 2572.25 1332833
3 2573.03 1332785
3 2576.43 1459486
3 2576.43 1449590
3 2576.43 1447107
3 2576.43 1431904
3 2576.43 1429325
3 2576.43 1426142
3 2576.43 1409081
3 2576.43 1398078
3 2577.4 1395833
3 2577.4 1393448
3 2577.4 1390278
3 2577.4 1385506
3 2577.4 1381050
3 2578.28 1377789
3 2578.28 1364407
3 2579.07 1363507
3 2579.07 1358690
3 2579.07 1356324
3 2579.07 1353075
3 2579.07 1352702
3 2579.07 1347745
3 2579.07 1347482
3 2579.07 1343418
3 2580.02 1342945
3 2580.02 1342757
3 2580.02 1342393
3 2580.02 1338638
3 2580.84 1334454
3 2580.84 1330026
3 2580.84 1329196
3 2580.84 1325668
3 2583.03 1323212
3 2584.45 1314047
3 2590.17 1454204
3 2590.17 1446099
3 2590.17 1421590
3 2590.17 1384994
3 2590.17 1380194
3 2590.17 1375947
3 2590.17 1354644
3 2590.17 1348243
3 2591.86 1347739
3 2591.86 1330859
3 2591.86 1330490
3 2591.86 1330467
3 2592.72 1327507
3 2593.46 1325690
3 2593.46 1325512
3 2593.46 1325148
3 2593.46 1324382
3 2593.46 1322826
3 2593.46 1322575
3 2593.46 1321347
3 2594.36 1321299
3 2595.1 1319553
3 2595.82 1318333
3 2595.82 1316926
3 2604.36 1392495
3 2604.36 1383106
3 2604.36 1377847
3 2604.36 1372482
3 2604.36 1371502
3 2604.36 1367664
3 2604.36 1362495
3 2604.36 1353459
3 2604.36 1352906
3 2605.37 1340099
3 2605.37 1336248
3 2606.13 1330553
3 2606.13 1324877
3 2606.13 1322862
3 2606.92 1320095
3 2608.33 1319590
3 2609.09 1317797
3 2609.87 1317370
3 2618.39 1425347
3 2618.39 1423464
3 2618.39 1419184
3 2618.39 1397808
3 2618.39 1383007
3 2618.39 1382663
3 2618.39 1382297
3 2618.39 1380704
3 2618.39 1376331
3 2618.39 1376308
3 2618.39 1372656
3 2618.39 1370200
3 2618.39 1368547
3 2619.54 1368183
3 2619.54 1338902
3 2619.54 1334444
3 2619.54 1333617
3 2619.54 1331014
3 2620.4 1330294
3 2620.4 1326641
3 2620.4 1326335
3 2620.4 1325746
3 2620.4 1322155
3 2621.25 1319386
3 2621.99 1317925
3 2623.44 1317917
3 2624.91 1315197
3 2626.4 1313131
3 2632.27 1418905
3 2632.27 1414658
3 2632.27 1406052
3 2632.27 1395630
3 2632.27 1390630
3 2632.27 1389107
3 2632.27 1384452
3 2632.27 1384307
3 2632.27 1378018
3 2632.27 1374631
3 2632.27 1372665
3 2632.27 1371635
3 2632.27 1368556
3 2632.27 1365762
3 2633.43 1360788
3 2633.43 1356359
3 2633.43 1355369
3 2634.24 1354841
3 2634.24 1351990
3 2634.24 1351250
3 2635.1 1348393
3 2635.1 1347955
3 2635.9 1346740
3 2635.9 1343173
3 2636.67 1340466
3 2636.67 1338948
3 2639.54 1337663
3 2640.29 1337571
3 2641.03 1335152
3 2641.89 1332771
3 2641.89 1331118
3 2642.74 1330222
3 2642.74 1327998
3 2643.54 1326858
3 2644.31 1321381
3 2645.07 1319635
3 2645.81 1319440
3 2645.81 1319062
3 2645.81 1318101
3 2645.81 1316952
3 2645.81 1313427
3 2646.71 1420021
3 2646.71 1408741
3 2646.71 1385496
3 2646.71 1375731
3 2646.71 1372599
3 2646.71 1369902
3 2647.65 1363299
3 2649.15 1359368
3 2649.15 1357715
3 2649.15 1357316
3 2650.02 1353708
3 2650.02 1352174
3 2650.82 1347048
3 2653.05 1344319
3 2653.05 1343832
3 2653.05 1334518
3 2654.58 1332865
3 2656.15 1331451
3 2656.15 1327954
3 2656.15 1323154
3 2657.01 1323106
3 2660.64 1449279
3 2660.64 1425515
3 2660.64 1422251
3 2660.64 1419222
3 2660.64 1401880
3 2660.64 1397554
3 2660.64 1388692
3 2660.64 1379378
3 2661.64 1375844
3 2661.64 1371905
3 2661.64 1364387
3 2661.64 1359372
3 2661.64 1357838
3 2662.51 1357229
3 2662.51 1355341
3 2662.51 1354513
3 2662.51 1353832
3 2662.51 1351521
3 2662.51 1347274
3 2663.41 1347251
3 2663.41 1344392
3 2663.41 1340151
3 2663.41 1337681
3 2664.26 1337616
3 2664.26 1337549
3 2665.05 1336251
3 2665.05 1336228
3 2665.05 1335343
3 2666.7 1334773
3 2666.7 1334348
3 2666.7 1333952
3 2666.7 1328888
3 2667.56 1328584
3 2667.56 1326310
3 2667.56 1324657
3 2668.35 1321111
3 2669.08 1320251
3 2669.08 1318595
3 2669.86 1318129
3 2669.86 1317147
3 2671.3 1315552
3 2671.3 1314409
3 2674.13 1467278
3 2674.13 1444434
3 2674.13 1436465
3 2674.13 1430641
3 2674.13 1422536
3 2674.13 1412246
3 2674.13 1411882
3 2674.13 1410679
3 2674.13 1399701
3 2675.1 1397555
3 2675.1 1395225
3 2675.1 1391759
3 2675.1 1384903
3 2675.1 1375223
3 2675.1 1371368
3 2675.1 1369110
3 2675.1 1366984
3 2675.1 1361069
3 2676.12 1359045
3 2676.12 1357852
3 2676.12 1353537
3 2676.12 1350702
3 2676.96 1349500
3 2676.96 1347092
3 2676.96 1344653
3 2678.59 1342734
3 2679.35 1341541
3 2679.35 1340406
3 2679.35 1330890
3 2679.35 1324834
3 2679.35 1319005
3 2680.2 1318641
3 2680.2 1318374
3 2688.5 1448602
3 2688.5 1444379
3 2688.5 1433721
3 2688.5 1429866
3 2688.5 1410747
3 2688.5 1406374
3 2688.5 1401471
3 2688.5 1391559
3 2688.5 1376954
3 2689.53 1375994
3 2689.53 1368279
3 2689.53 1368260
3 2689.53 1366703
3 2690.39 1355888
3 2690.39 1345165
3 2690.39 1343221
3 2690.39 1342391
3 2690.39 1341035
3 2691.3 1335411
3 2691.3 1334968
3 2691.3 1334010
3 2691.3 1333419
3 2692.21 1332077
3 2692.21 1330327
3 2693.06 1328082
3 2693.82 1326435
3 2693.82 1326071
3 2694.63 1321933
3 2694.63 1320774
3 2694.63 1320547
3 2694.63 1320436
3 2701.2 1316545
3 2701.97 1316497
3 2702.74 1438352
3 2702.74 1417300
3 2702.74 1413549
3 2702.74 1412887
3 2702.74 1409164
3 2702.74 1407415
3 2702.74 1403381
3 2702.74 1372592
3 2703.77 1363756
3 2704.58 1360554
3 2704.58 1358814
3 2704.58 1357828
3 2704.58 1351999
3 2704.58 1347745
3 2704.58 1346092
3 2704.58 1345623
3 2705.63 1345565
3 2709.15 1332106
3 2709.15 1331508
3 2709.15 1326282
3 2712.89 1324025
3 2713.42 1320177
3 2716.31 1452876
3 2716.31 1452306
3 2716.31 1444727
3 2716.31 1437974
3 2716.31 1436321
3 2716.31 1424989
3 2716.31 1424823
3 2716.31 1397059
3 2716.31 1389792
3 2716.31 1383963
3 2716.31 1376024
3 2716.31 1369244
3 2717.19 1368999
3 2717.19 1367346
3 2717.19 1365101
3 2717.19 1364689
3 2717.19 1359652
3 2717.19 1358831
3 2717.19 1358667
3 2717.19 1357363
3 2717.94 1349903
3 2717.94 1347345
3 2718.52 1344363
3 2718.52 1342829
3 2719.07 1342781
1 2721.62 1334175
3 2722.13 1333451
3 2722.13 1330167
3 2722.13 1330000
3 2722.13 1329614
3 2722.13 1326191
3 2722.13 1324357
3 2723.76 1323708
3 2723.76 1321992
3 2724.33 1321944
3 2725.98 1320893
3 2730.22 1461245
3 2730.22 1435219
3 2730.22 1433685
3 2730.22 1429284
3 2730.22 1427338
3 2730.22 1421841
3 2730.22 1421477
3 2730.22 1395202
3 2731.06 1385112
3 2731.06 1380739
3 2731.06 1376776
3 2731.06 1376003
3 2731.06 1364847
3 2731.76 1356333
3 2731.76 1350544
3 2731.76 1349935
3 2732.32 1348971
3 2732.32 1348542
3 2732.32 1348494
3 2732.93 1348044
3 2732.93 1347857
3 2735.15 1347786
3 2735.73 1345983
3 2736.26 1342128
3 2743.23 1337933
3 2744.49 1445733
3 2744.49 1443435
3 2744.49 1439062
3 2744.49 1419654
3 2744.49 1410813
3 2744.49 1402681
3 2744.49 1391869
3 2744.49 1391577
3 2744.49 1386777
3 2744.49 1385284
3 2744.49 1383797
3 2744.49 1371494
3 2744.49 1366290
3 2745.55 1349347
3 2745.55 1344403
3 2746.12 1343558
3 2746.12 1341199
3 2746.12 1338262
3 2746.12 1335232
3 2746.12 1335209
3 2746.76 1333462
3 2746.76 1331645
3 2746.76 1331281
3 2747.9 1330188
3 2747.9 1329628
3 2748.57 1329300
3 2748.57 1327389
3 2748.57 1327366
3 2749.99 1327318
3 2749.99 1326954
3 2758.39 1450755
3 2758.39 1445806
3 2758.39 1431330
3 2758.39 1425242
3 2758.39 1405893
3 2758.39 1404375
3 2758.39 1403835
3 2758.39 1397108
3 2758.39 1390142
3 2758.39 1375802
3 2759.88 1374944
3 2759.88 1370144
3 2759.88 1349913
3 2759.88 1335559
3 2760.75 1331066
3 2760.75 1329740
3 2760.75 1328497
3 2761.6 1326662
3 2762.43 1321862
3 2763.18 1319441
3 2763.18 1318500
3 2772.43 1404099
3 2772.43 1380887
3 2772.43 1374381
3 2772.43 1373974
3 2772.43 1371827
3 2773.37 1371260
3 2774.2 1364190
3 2774.96 1364124
3 2774.96 1363558
3 2774.96 1362537
3 2775.87 1362489
3 2779.59 1344680
3 2781.11 1341134
3 2781.11 1341111
3 2782.61 1336284
3 2782.61 1334025
3 2782.61 1333661
3 2783.42 1332553
3 2784.16 1330475
3 2786.46 1417849
3 2786.46 1405218
3 2786.46 1394142
3 2786.46 1391831
3 2786.46 1387699
3 2787.35 1382559
3 2787.35 1381137
3 2787.35 1380948
3 2787.35 1380703
3 2788.18 1376764
3 2788.18 1361489
3 2788.18 1357936
3 2788.18 1357375
3 2789.01 1347189
3 2789.01 1345948
3 2789.01 1345084
3 2789.01 1343063
3 2789.94 1342818
3 2790.72 1342770
3 2791.45 1342699
3 2791.45 1340454
3 2791.45 1338766
3 2792.24 1335831
3 2792.24 1331401
3 2792.99 1328953
3 2792.99 1327546
3 2794.43 1326842
3 2795.16 1325643
3 2795.16 1324421
3 2796.63 1324398
3 2798.74 1318272
3 2798.74 1310521
3 2799.55 1309889
3 2799.55 1309824
Score = 1320280
