    Blocking waiting for file lock on package cache
    Blocking waiting for file lock on package cache
    Blocking waiting for file lock on package cache
    Blocking waiting for file lock on package cache
    Finished release [optimized] target(s) in 0.06s
     Running `target/release/tester ../a.out 0021`
3 4.942 1348451
3 4.942 1344962
3 4.942 1342161
3 4.942 1340851
3 4.942 1328390
3 4.942 1326749
3 5.852 1326309
3 5.852 1324695
3 5.852 1321769
3 5.852 1320155
3 6.788 1317554
3 6.788 1316346
3 6.788 1316089
3 6.788 1314494
3 6.788 1313224
3 6.788 1312992
3 7.412 1312289
3 7.412 1308759
3 7.96 1307648
3 7.96 1306874
3 8.462 1304623
3 8.951 1299856
3 9.885 1299572
3 9.885 1299441
3 10.375 1298878
3 11.163 1297859
3 12.706 1295106
3 14.238 1438302
3 14.238 1414743
3 14.238 1413148
3 14.238 1397462
3 14.238 1395412
3 14.238 1393973
3 15.124 1392764
3 15.124 1392320
3 15.124 1383065
3 15.124 1381022
3 15.124 1363411
3 15.124 1359599
3 16.004 1352055
3 16.004 1351601
3 16.004 1350327
3 16.004 1338745
3 16.004 1335228
3 16.004 1333573
3 16.004 1332398
3 16.004 1326646
3 17.666 1313752
3 17.666 1311447
3 17.666 1309509
3 18.485 1308279
3 18.485 1306686
3 18.485 1305136
3 19.353 1304533
3 19.353 1304402
3 19.353 1300884
3 19.353 1296385
3 19.353 1295117
3 20.203 1294764
3 20.203 1293864
3 21.798 1290663
3 21.798 1289925
3 22.509 1283060
3 28.378 1384723
3 28.378 1384168
3 28.378 1378117
3 28.378 1374349
3 28.378 1371963
3 28.378 1370368
3 28.378 1368507
3 29.255 1363299
3 29.255 1358900
3 29.255 1358668
3 29.255 1355878
3 29.255 1350556
3 29.255 1346057
3 29.255 1334313
3 30.146 1331743
3 30.146 1331001
3 30.939 1321244
3 34.764 1318606
3 35.545 1317472
3 42.479 1452316
3 42.479 1436790
3 42.479 1420338
3 42.479 1405501
3 42.479 1388689
3 43.401 1384666
3 43.401 1384273
3 43.401 1381111
3 43.401 1379837
3 44.261 1378128
3 44.261 1374971
3 44.261 1374578
3 44.261 1371276
3 45.114 1371045
3 45.114 1365423
3 45.114 1362047
3 45.114 1346723
3 45.114 1340941
3 45.114 1340238
3 45.114 1338964
3 45.114 1333840
3 46.015 1330750
3 46.876 1320229
3 47.651 1319529
3 47.651 1319351
3 48.475 1315326
3 48.475 1312829
3 49.275 1312769
3 50.075 1308461
3 51.588 1307187
3 53.69 1305781
3 56.083 1464915
3 56.083 1455374
3 56.083 1454058
3 56.083 1440245
3 56.083 1431543
3 56.083 1424349
3 56.083 1418315
3 56.083 1415950
3 56.083 1412417
3 56.083 1406862
3 56.083 1402556
3 56.083 1397239
3 56.083 1395661
3 56.083 1385828
3 56.083 1382294
3 56.083 1382187
3 56.083 1382157
3 56.916 1375963
3 56.916 1362482
3 56.916 1330190
3 56.916 1327834
3 56.916 1327703
3 56.916 1327025
3 56.916 1324958
3 57.447 1321582
3 57.447 1318622
3 57.447 1318146
3 58.048 1317881
3 58.875 1317083
3 59.69 1315989
3 59.69 1315513
3 59.69 1312520
3 59.69 1311329
3 61.29 1310324
3 61.29 1308558
3 61.29 1306632
3 62.104 1305439
3 62.104 1302891
3 62.919 1302777
3 62.919 1301125
3 65.261 1296817
3 66.052 1296004
3 69.91 1294991
3 70.413 1388333
3 70.413 1386375
3 70.413 1385757
3 70.413 1385626
3 70.413 1385054
3 70.973 1380036
3 70.973 1368123
3 70.973 1364618
3 70.973 1363915
3 70.973 1359158
3 70.973 1358916
3 70.973 1352037
3 70.973 1333829
3 71.535 1331330
3 71.535 1330720
3 71.535 1324945
3 72.068 1324422
3 72.068 1323128
3 72.068 1319631
3 72.068 1317920
3 72.068 1317583
3 72.585 1317452
3 73.207 1315473
3 73.207 1314218
3 73.207 1308905
3 73.207 1308202
3 73.207 1307209
3 74.048 1307180
3 74.5 1306925
3 74.957 1306794
3 74.957 1306479
3 74.957 1304143
3 75.926 1302731
3 84.185 1440689
3 84.185 1401562
3 84.185 1378184
3 84.185 1376637
3 84.185 1368238
3 84.185 1363930
3 84.185 1350117
3 84.774 1343934
3 84.774 1331733
3 84.774 1330318
3 84.774 1329778
3 84.774 1328559
3 84.774 1325733
3 84.774 1325530
3 85.33 1325357
3 85.33 1324654
3 85.33 1320362
3 85.833 1315154
3 85.833 1308014
3 86.791 1304166
3 86.791 1303912
3 87.272 1303717
3 88.202 1303014
3 97.066 1302724
3 98.69 1443080
3 98.69 1441314
3 98.69 1430608
3 98.69 1427569
3 98.69 1427438
3 98.69 1407586
3 98.69 1406264
3 98.69 1390936
3 98.69 1380244
3 98.69 1380238
3 99.623 1378867
3 99.623 1373256
3 99.623 1363553
3 99.623 1359154
3 100.405 1347197
3 100.405 1347106
3 101.233 1346004
3 101.233 1343480
3 101.233 1339933
3 101.233 1338548
3 101.233 1337974
3 102.204 1336245
3 102.204 1335446
3 102.204 1331882
3 102.204 1330608
3 103.072 1326521
3 103.072 1323281
3 103.841 1322372
3 104.558 1320361
3 104.558 1315722
3 104.558 1313991
3 106.469 1313807
3 109.226 1309116
3 109.226 1308908
3 109.226 1308652
3 109.827 1307205
3 109.827 1306641
3 111.317 1306554
3 112.358 1420067
3 112.358 1409584
3 112.358 1408967
3 112.358 1401388
3 112.358 1395155
3 112.358 1386337
3 112.358 1385350
3 112.358 1382750
3 112.358 1373575
3 112.358 1366419
3 113.398 1361814
3 113.398 1360183
3 113.398 1347753
3 114.135 1347032
3 114.135 1336034
3 114.135 1332516
3 114.135 1329022
3 114.645 1325388
3 114.645 1325257
3 114.645 1322202
3 114.645 1317518
3 115.301 1313210
3 116.112 1311444
3 116.951 1307032
3 118.916 1300748
3 118.916 1296440
3 118.916 1294906
3 120.895 1290982
3 120.895 1290814
3 126.026 1410738
3 126.026 1409321
3 126.026 1405549
3 126.026 1380195
3 126.026 1371914
3 126.026 1362545
3 126.026 1357942
3 126.026 1352697
3 126.621 1347809
3 126.621 1347489
3 126.621 1343501
3 126.621 1339917
3 126.621 1339777
3 127.454 1336005
3 127.454 1332285
3 127.454 1327501
3 127.454 1324976
3 128.284 1321082
3 128.284 1317723
3 128.284 1316774
3 129.098 1316669
3 129.098 1313448
3 129.892 1311853
3 129.892 1311587
3 129.892 1310313
3 129.892 1310004
3 130.618 1309010
3 131.092 1307736
3 132.632 1305696
3 132.632 1305417
3 133.302 1304640
3 133.302 1303937
3 134.153 1302713
3 139.477 1301561
3 139.477 1289307
3 139.477 1289168
3 140.34 1382415
3 140.34 1381141
3 140.34 1362271
3 140.34 1360488
3 140.34 1346545
3 140.34 1345106
3 141.211 1340088
3 141.211 1329025
3 141.211 1328401
3 141.211 1324789
3 142.041 1322564
3 142.041 1321726
3 142.041 1321018
3 142.849 1317183
3 142.849 1315017
3 143.641 1309477
3 146.136 1306770
3 146.136 1302357
3 146.136 1302226
3 147.574 1300941
3 148.332 1298773
3 149.466 1298642
3 154.211 1394228
3 154.211 1382974
3 154.211 1378575
3 154.211 1374312
3 154.211 1364357
3 154.211 1345959
3 154.211 1345572
3 154.211 1341877
3 154.211 1340624
3 154.846 1337716
3 154.846 1337448
3 155.471 1337281
3 155.471 1336007
3 156.271 1332809
3 156.271 1328964
3 157.101 1328261
3 161.113 1327841
3 161.113 1322345
3 161.92 1321268
3 162.72 1318638
3 163.484 1317199
3 168.055 1402332
3 168.055 1397578
3 168.055 1396689
3 168.055 1390458
3 168.055 1389628
3 168.055 1364082
3 168.055 1355093
3 168.055 1343969
3 169.082 1340582
3 169.082 1340031
3 169.082 1336768
3 169.082 1334733
3 169.082 1332644
3 169.082 1328784
3 169.082 1322726
3 169.809 1319939
3 169.809 1319360
3 169.809 1318657
3 169.809 1318272
3 169.809 1314993
3 170.871 1314450
3 171.337 1308832
3 171.337 1307558
3 171.969 1305457
3 172.696 1302500
3 172.696 1301913
3 172.696 1298329
3 172.696 1297321
3 173.733 1293497
3 175.826 1293013
3 178.381 1292962
3 179.373 1292852
3 182.328 1453278
3 182.328 1433466
3 182.328 1426953
3 182.328 1408580
3 182.328 1399334
3 182.328 1392813
3 182.328 1392682
3 182.328 1388374
3 182.924 1384679
3 183.407 1373724
3 183.935 1370689
3 183.935 1353441
3 184.452 1348233
3 184.944 1347631
3 184.944 1347222
3 184.944 1344814
3 184.944 1343048
3 184.944 1342917
3 194.249 1337151
3 194.729 1334415
3 194.729 1333712
3 196.097 1442162
3 196.097 1425252
3 196.097 1412803
3 196.097 1412672
3 196.097 1406351
3 196.097 1403534
3 196.097 1396314
3 196.097 1395122
3 196.097 1392086
3 196.097 1384430
3 196.097 1383635
3 197.14 1376488
3 197.14 1375902
3 197.14 1370709
3 197.14 1369339
3 197.14 1367771
3 198.13 1365529
3 198.13 1365405
3 198.13 1360175
3 198.993 1353583
3 198.993 1353476
3 199.81 1345881
3 200.614 1343546
3 200.614 1339056
3 201.444 1335387
3 201.444 1332368
3 202.262 1331692
3 203.063 1329760
3 203.87 1328335
3 203.87 1327470
3 208.172 1326029
3 208.172 1325824
3 209.006 1325738
3 209.872 1323850
3 210.751 1450602
3 210.751 1431627
3 210.751 1424148
3 210.751 1424136
3 210.751 1422449
3 210.751 1401964
3 210.751 1400582
3 210.751 1382518
3 210.751 1378823
3 210.751 1372119
3 210.751 1365978
3 210.751 1363821
3 210.751 1360802
3 211.436 1355208
3 211.436 1354516
3 211.436 1354139
3 211.943 1346652
3 211.943 1337857
3 212.649 1332025
3 212.649 1331874
3 213.486 1330605
3 214.287 1326721
3 214.287 1326138
3 214.287 1320732
3 215.094 1316424
3 218.973 1316411
3 220.45 1315051
3 220.45 1311057
3 220.961 1310659
3 221.486 1303527
3 223.833 1302472
3 224.341 1423038
3 224.341 1409940
3 224.341 1400951
3 224.341 1394787
3 224.341 1381139
3 224.341 1369957
3 224.341 1368191
3 224.341 1365980
3 224.341 1361538
3 225.294 1353016
3 225.294 1345920
3 225.294 1344757
3 225.294 1343309
3 226.148 1342035
3 226.148 1341332
3 226.148 1337961
3 226.148 1336366
3 226.148 1334311
3 226.919 1322722
3 226.919 1320148
3 226.919 1313880
3 226.919 1307901
3 227.536 1307586
3 227.536 1303087
3 228.185 1302867
3 228.762 1299616
3 228.762 1299225
3 233.254 1298568
3 238.768 1452144
3 239.579 1425759
3 239.579 1424706
3 239.579 1423111
3 239.579 1418712
3 239.579 1414750
3 239.579 1405715
3 239.579 1392444
3 240.475 1389575
3 240.475 1381616
3 240.475 1381194
3 240.475 1375501
3 240.475 1373906
3 240.475 1368433
3 241.362 1365707
3 241.957 1362768
3 242.426 1334979
3 242.426 1329995
3 242.915 1327245
3 242.915 1323661
3 243.402 1321200
3 243.959 1315723
3 243.959 1314512
3 243.959 1313683
3 243.959 1309826
3 244.45 1308115
3 244.45 1307729
3 245.644 1304396
3 245.644 1303983
3 252.16 1417911
3 252.16 1417441
3 252.16 1411226
3 252.16 1400369
3 252.16 1387531
3 252.16 1352143
3 252.16 1349309
3 252.16 1344491
3 253.005 1339762
3 253.005 1336062
3 253.005 1335902
3 253.005 1335715
3 253.688 1333512
3 253.688 1329817
3 253.688 1323912
3 253.688 1322925
3 253.688 1319612
3 253.688 1317759
3 253.688 1317335
3 253.688 1316078
3 254.343 1315569
3 254.343 1314804
3 254.343 1313373
3 255.769 1310691
3 255.769 1305355
3 256.483 1302163
3 256.483 1300889
3 262.409 1297067
3 262.409 1293608
3 262.409 1293477
3 266.529 1438567
3 266.529 1425094
3 266.529 1415660
3 266.529 1394215
3 266.529 1389816
3 266.529 1382418
3 266.529 1380028
3 266.529 1362848
3 266.529 1353326
3 267.25 1346836
3 267.25 1342601
3 267.25 1337393
3 267.25 1336683
3 267.846 1335202
3 267.846 1334245
3 268.342 1333886
3 268.342 1331218
3 268.342 1329577
3 268.342 1325178
3 268.342 1321351
3 268.342 1319662
3 268.947 1316806
3 268.947 1315994
3 268.947 1311461
3 268.947 1308158
3 268.947 1306173
3 269.499 1305747
3 269.499 1305508
3 269.499 1304528
3 270.545 1303831
3 270.545 1302713
3 270.545 1302380
3 270.545 1301106
3 271.121 1300772
3 271.121 1295898
3 279.982 1291676
3 280.759 1464239
3 280.759 1447459
3 280.759 1432095
3 280.759 1427696
3 280.759 1422677
3 280.759 1408860
3 280.759 1400022
3 280.759 1397905
3 280.759 1388916
3 280.759 1380517
3 280.759 1376305
3 280.759 1374267
3 281.719 1371018
3 281.719 1350881
3 281.719 1343880
3 281.719 1333678
3 281.719 1326450
3 282.57 1322590
3 282.57 1321698
3 282.57 1319873
3 286.423 1319682
3 287.19 1316848
3 287.19 1312988
3 287.19 1311606
3 287.19 1307971
3 287.19 1307171
3 288.005 1303426
3 288.005 1302772
3 288.005 1302478
3 288.005 1302394
3 288.005 1302109
3 291.105 1301039
3 291.635 1296254
3 294.029 1391268
3 294.029 1363794
3 294.029 1360926
3 294.029 1357930
3 294.029 1355340
3 294.029 1354235
3 294.029 1354104
3 294.658 1353585
3 294.658 1349273
3 295.18 1345238
3 295.18 1343881
3 295.18 1341957
3 295.18 1340021
3 295.694 1339307
3 296.192 1338638
3 296.192 1335124
3 296.192 1328081
3 296.818 1324563
3 297.276 1324432
3 297.276 1324366
3 297.276 1323785
3 298.317 1319829
3 306.449 1315168
3 306.915 1312466
3 306.915 1312335
3 307.851 1312159
3 307.851 1308972
3 308.343 1418194
3 308.343 1413719
3 308.343 1408918
3 308.343 1406523
3 308.343 1387037
3 308.343 1363474
3 308.343 1360657
3 308.343 1352462
3 308.343 1349362
3 308.949 1343610
3 308.949 1341215
3 308.949 1339961
3 308.949 1332104
3 309.451 1331401
3 309.451 1329728
3 309.451 1326425
3 309.451 1326108
3 309.451 1324134
3 309.451 1323614
3 310.901 1323003
3 310.901 1322442
3 311.378 1321110
3 311.842 1314406
3 313.333 1314016
3 313.333 1312068
3 313.825 1307669
3 313.825 1305580
3 322.242 1408582
3 322.242 1404083
3 322.242 1390361
3 322.242 1383761
3 322.242 1377896
3 322.242 1369735
3 322.242 1368067
3 322.242 1352971
3 322.242 1351205
3 322.242 1341116
3 322.242 1338128
3 322.242 1325613
3 322.242 1325217
3 322.242 1324269
3 322.242 1323566
3 323.256 1322613
3 323.943 1321057
3 323.943 1320510
3 323.943 1319291
3 323.943 1316895
3 324.462 1316398
3 324.462 1316247
3 324.462 1314342
3 324.974 1313817
3 325.933 1313324
3 326.421 1312468
3 326.421 1310233
3 328.367 1309651
3 328.367 1305804
3 328.367 1305101
3 335.539 1302750
3 336.045 1437705
3 336.045 1416042
3 336.045 1404218
3 336.045 1397071
3 336.045 1383258
3 336.045 1381663
3 336.045 1377891
3 336.634 1373508
3 336.634 1369200
3 336.634 1362190
3 337.15 1353201
3 337.15 1352202
3 337.15 1352129
3 337.15 1338605
3 337.15 1336557
3 339.077 1332249
3 339.747 1325600
3 339.747 1322751
3 339.747 1320534
3 340.25 1319260
3 340.728 1312977
3 345.051 1311635
3 345.051 1310701
3 345.655 1310412
3 345.655 1309427
3 347.765 1309147
3 347.765 1308832
3 348.433 1308431
3 348.433 1304333
3 348.965 1304260
3 348.965 1301505
3 349.538 1296684
3 350.091 1414482
3 350.091 1409097
3 350.091 1386290
3 350.091 1375592
3 350.091 1372032
3 350.091 1364139
3 350.091 1356386
3 350.82 1351380
3 350.82 1350959
3 350.82 1346484
3 350.82 1343576
3 352.277 1343539
3 352.277 1343408
3 352.762 1339406
3 352.762 1336700
3 352.762 1335357
3 352.762 1333302
3 353.261 1330232
3 353.261 1326663
3 353.804 1324266
3 353.804 1323563
3 353.804 1321252
3 354.299 1317480
3 354.299 1316921
3 354.299 1306598
3 354.809 1306148
3 355.817 1302688
3 355.817 1301414
3 356.316 1299125
3 356.316 1294859
3 356.792 1293585
3 360.105 1293144
3 364.423 1436422
3 364.423 1407703
3 364.423 1361686
3 364.423 1357378
3 365.43 1353950
3 365.43 1352999
3 365.43 1349490
3 365.43 1348389
3 365.43 1347249
3 365.43 1346546
3 366.478 1343057
3 366.478 1340915
3 368.146 1338658
3 368.146 1332702
3 368.146 1331784
3 368.146 1329141
3 368.146 1325068
3 369.009 1322740
3 369.009 1321744
3 369.009 1318868
3 369.009 1314122
3 369.009 1313303
3 369.922 1310350
3 370.699 1308845
3 371.908 1307208
3 372.434 1302160
3 373.546 1299958
3 378.272 1456817
3 378.272 1437961
3 378.272 1415306
3 378.272 1398311
3 378.272 1394885
3 378.272 1393290
3 378.272 1383628
3 378.272 1382308
3 378.272 1380466
3 378.272 1375111
3 378.272 1368068
3 379.209 1367279
3 379.209 1362594
3 379.209 1348753
3 379.209 1346839
3 380.043 1345747
3 380.043 1342285
3 380.043 1338645
3 380.043 1338440
3 380.043 1331676
3 381.813 1330629
3 382.434 1329355
3 382.434 1329286
3 382.434 1329032
3 383.568 1327438
3 383.568 1325520
3 384.11 1324633
3 385.492 1319217
3 385.956 1316136
3 385.956 1314719
3 386.433 1312820
3 387.031 1306248
3 388.203 1302703
3 392.574 1424365
3 392.574 1420834
3 392.574 1380611
3 392.574 1376112
3 392.574 1374937
3 392.574 1373820
3 392.574 1365207
3 392.574 1355716
3 392.574 1352132
3 393.525 1350485
3 393.525 1347581
3 393.525 1346014
3 393.525 1338450
3 393.525 1338431
3 393.525 1337021
3 393.525 1334307
3 393.525 1332541
3 394.421 1323642
3 394.421 1321770
3 394.421 1317271
3 395.978 1317193
3 395.978 1307602
3 396.781 1306930
3 396.781 1306799
3 396.781 1306625
3 396.781 1306250
3 397.61 1305351
3 398.391 1303984
3 398.391 1303835
3 399.187 1303704
3 399.187 1302991
3 399.946 1302710
3 399.946 1302162
3 399.946 1300018
3 400.497 1298914
3 400.497 1298445
3 401.022 1296939
3 401.582 1294413
3 402.122 1292370
3 402.122 1292239
3 402.616 1288758
3 406.631 1434921
3 406.631 1402241
3 406.631 1391856
3 406.631 1388799
3 406.631 1386414
3 406.631 1382367
3 406.631 1378652
3 406.631 1371175
3 406.631 1368428
3 407.381 1361068
3 407.857 1352515
3 407.857 1349548
3 408.416 1349417
3 408.416 1346213
3 408.416 1343885
3 408.416 1339517
3 408.965 1337666
3 409.462 1334961
3 410.031 1332191
3 410.621 1328607
3 411.854 1323680
3 411.854 1322406
3 411.854 1322275
3 416.699 1322046
3 416.699 1317432
3 417.722 1314121
3 417.722 1313990
3 417.722 1313868
3 418.223 1308423
3 418.223 1308221
3 419.636 1307788
3 420.316 1420348
3 420.316 1412894
3 420.316 1408817
3 420.316 1385922
3 420.316 1375461
3 420.316 1372409
3 420.316 1367517
3 420.316 1364595
3 420.316 1360971
3 420.316 1360840
3 420.316 1355888
3 420.316 1347650
3 421.232 1347064
3 421.232 1346376
3 421.232 1334011
3 422.594 1333154
3 422.594 1329632
3 422.594 1326029
3 422.594 1320464
3 423.679 1313915
3 423.679 1310499
3 424.441 1308315
3 424.441 1307041
3 424.441 1306191
3 430.963 1305940
3 430.963 1303981
3 431.475 1302649
3 431.475 1301376
3 431.475 1300013
3 432.006 1299490
3 432.518 1297049
3 433.001 1293776
3 433.001 1293738
3 434.312 1451501
3 434.312 1421544
3 434.312 1419284
3 434.312 1418056
3 434.312 1416290
3 434.312 1404160
3 434.312 1403053
3 434.312 1402350
3 434.312 1386198
3 434.312 1383364
3 434.312 1381389
3 435.293 1380740
3 435.293 1376432
3 435.293 1373121
3 435.293 1365036
3 435.293 1362559
3 435.293 1348837
3 435.293 1342854
3 436.11 1339706
3 436.11 1332899
3 436.11 1330355
3 436.11 1327517
3 436.11 1324810
3 436.11 1324430
3 436.11 1321351
3 436.11 1320854
3 436.718 1320151
3 436.718 1317444
3 437.181 1317351
3 437.181 1313892
3 437.741 1310244
3 438.196 1304715
3 438.196 1299480
3 438.196 1294949
3 438.196 1294119
3 438.196 1291285
3 446.516 1288243
3 447.57 1288112
3 448.072 1402388
3 448.072 1385827
3 448.072 1382584
3 448.072 1382055
3 448.072 1381641
3 448.072 1379000
3 448.072 1371808
3 448.072 1369242
3 448.822 1356042
3 448.822 1355755
3 449.623 1341778
3 449.623 1339381
3 449.623 1339313
3 450.448 1339250
3 451.229 1336408
3 452.054 1334446
3 452.054 1334378
3 452.054 1330604
3 452.054 1328512
3 452.054 1325266
3 452.054 1324157
3 452.926 1322883
3 456.976 1319800
3 458.822 1318370
3 460.297 1317886
3 460.297 1316120
3 462.111 1454200
3 462.111 1440387
3 462.111 1433183
3 462.111 1415785
3 462.111 1406626
3 462.111 1403042
3 462.111 1388945
3 462.111 1386655
3 462.111 1371094
3 462.111 1369827
3 463.042 1369820
3 463.042 1368538
3 463.042 1365512
3 463.67 1359452
3 463.67 1356277
3 463.67 1355309
3 463.67 1354272
3 463.67 1348422
3 464.301 1346246
3 464.301 1344114
3 464.301 1338433
3 464.301 1336053
3 464.301 1327088
3 464.301 1325020
3 465.179 1323659
3 465.918 1322886
3 465.918 1318412
3 466.479 1317092
3 467.995 1316865
3 467.995 1313508
3 470.401 1299840
3 471.868 1298717
3 471.868 1298235
3 471.868 1296640
3 473.434 1294906
3 473.434 1293174
3 476.311 1459455
3 476.311 1438022
3 476.311 1418919
3 476.311 1412517
3 476.311 1404958
3 476.311 1401374
3 476.311 1391015
3 476.311 1386707
3 476.909 1382192
3 476.909 1381182
3 476.909 1375529
3 476.909 1368469
3 476.909 1364156
3 476.909 1361887
3 477.666 1357579
3 477.666 1351206
3 477.666 1348253
3 477.666 1343634
3 477.666 1343236
3 477.666 1339864
3 477.666 1335465
3 478.553 1326476
3 478.553 1320187
3 478.553 1319541
3 478.553 1318267
3 478.553 1318261
3 478.553 1316148
3 479.427 1312343
3 479.427 1304247
3 479.427 1297917
3 479.427 1296440
3 479.427 1296309
3 480.291 1295775
3 481.08 1295072
3 484.088 1292081
3 484.842 1290937
3 484.842 1289460
3 484.842 1289329
3 485.324 1285966
3 485.324 1285379
3 485.809 1285219
3 485.809 1285208
3 486.343 1282809
3 486.343 1282102
3 486.343 1281684
3 486.343 1281288
3 490.11 1430979
3 490.11 1426639
3 490.11 1395244
3 490.11 1371438
3 490.11 1366045
3 490.11 1365342
3 490.11 1361513
3 490.11 1359590
3 490.11 1356622
3 490.11 1356201
3 490.11 1349250
3 491.049 1348777
3 491.049 1348032
3 491.049 1344027
3 491.049 1337296
3 491.049 1334330
3 491.049 1330895
3 492.67 1329168
3 493.454 1327651
3 493.454 1327037
3 493.454 1324343
3 493.454 1323640
3 494.271 1322721
3 494.271 1319141
3 494.271 1314833
3 494.271 1309118
3 494.271 1307352
3 494.271 1305859
3 495.118 1305403
3 495.886 1304622
3 495.886 1304582
3 497.375 1303085
3 497.375 1301765
3 497.375 1300370
3 501.44 1299193
3 502.178 1297750
3 502.645 1293914
3 502.645 1293783
3 504.634 1494386
3 504.634 1466253
3 504.634 1453429
3 504.634 1407937
3 504.634 1395391
3 504.634 1393131
3 504.634 1389598
3 504.634 1379957
3 504.634 1376975
3 505.598 1371953
3 505.598 1371611
3 505.598 1366388
3 505.598 1362606
3 505.598 1342727
3 505.598 1340486
3 505.598 1338955
3 505.598 1334215
3 506.336 1329907
3 506.336 1328289
3 506.99 1325230
3 506.99 1317990
3 506.99 1310947
3 507.811 1309966
3 507.811 1309673
3 518.39 1432254
3 518.39 1415873
3 518.39 1400059
3 518.39 1399253
3 518.39 1394945
3 518.39 1364322
3 518.39 1364046
3 518.39 1362536
3 518.39 1350131
3 519.315 1343304
3 519.315 1338647
3 519.315 1337104
3 519.315 1336812
3 519.315 1334339
3 519.315 1331060
3 521.456 1331005
3 522.098 1327152
3 522.098 1320598
3 522.7 1318835
3 522.7 1317195
3 522.7 1314527
3 523.307 1311486
3 523.307 1305794
3 523.307 1303612
3 524.879 1298574
3 526.406 1295991
3 526.406 1294175
3 529.19 1293398
3 532.04 1472259
3 532.04 1468281
3 532.04 1455427
3 532.04 1436538
3 532.04 1416726
3 532.04 1386948
3 532.04 1377599
3 532.04 1369668
3 532.04 1365333
3 532.656 1363567
3 532.656 1359259
3 532.656 1355559
3 533.15 1351133
3 533.15 1350761
3 533.15 1343920
3 533.15 1340577
3 533.15 1339714
3 533.795 1339659
3 533.795 1337014
3 533.795 1321456
3 533.795 1316326
3 533.795 1315770
3 533.795 1313562
3 546.047 1489101
3 546.047 1474062
3 546.047 1451167
3 546.047 1412284
3 546.047 1393699
3 546.047 1392550
3 546.047 1384393
3 546.047 1377946
3 546.047 1373638
3 546.047 1362340
3 546.047 1362209
3 546.047 1361724
3 546.753 1354596
3 546.753 1353069
3 546.753 1345655
3 546.753 1340991
3 546.753 1340972
3 547.348 1337508
3 547.348 1333201
3 547.348 1327796
3 548.361 1326618
3 548.361 1323801
3 548.361 1322035
3 548.361 1318925
3 548.361 1315557
3 549.97 1311058
3 549.97 1306937
3 549.97 1305474
3 550.503 1304213
3 550.967 1301658
3 550.967 1297663
3 551.447 1293264
3 551.447 1292947
3 551.447 1291734
3 560.478 1370361
3 560.478 1362967
3 560.478 1362323
3 560.478 1362112
3 560.478 1352670
3 561.561 1352635
3 561.561 1350217
3 561.561 1348940
3 561.561 1341975
3 562.393 1329897
3 562.393 1327867
3 562.393 1326411
3 562.393 1320773
3 563.034 1316117
3 563.034 1314080
3 563.034 1304962
3 563.034 1301823
3 563.769 1300463
3 563.769 1295255
3 569.619 1294783
3 570.422 1292914
3 570.422 1292698
3 571.223 1291575
3 571.983 1283664
3 572.449 1283176
3 574.364 1434685
3 574.364 1416621
3 574.364 1410510
3 574.364 1408222
3 574.364 1395357
3 574.364 1388993
3 574.364 1383081
3 574.364 1373220
3 574.364 1372612
3 574.364 1371454
3 574.987 1364784
3 574.987 1361727
3 575.492 1360103
3 575.492 1359843
3 575.492 1359712
3 575.492 1349113
3 576.048 1348465
3 576.048 1347074
3 576.048 1344559
3 576.048 1344373
3 576.048 1339860
3 576.622 1334483
3 576.622 1329286
3 576.622 1328941
3 577.122 1325291
3 577.122 1324633
3 578.06 1313517
3 578.06 1313055
3 579.107 1311781
3 579.107 1311151
3 579.928 1310351
3 579.928 1309426
3 581.448 1308930
3 581.448 1308028
3 581.448 1307011
3 581.958 1306754
3 583.003 1306339
3 583.003 1302703
3 583.83 1301640
3 584.6 1298382
3 588.136 1417594
3 588.136 1408344
3 588.136 1408184
3 588.136 1382445
3 588.136 1380211
3 588.136 1378189
3 588.136 1376114
3 588.136 1375983
3 588.136 1364491
3 588.136 1356378
3 588.758 1349026
3 588.758 1345215
3 589.24 1343818
3 589.24 1342143
3 589.24 1335100
3 589.734 1334071
3 589.734 1328592
3 589.734 1326563
3 589.734 1323929
3 589.734 1321550
3 590.269 1319621
3 590.269 1317485
3 590.822 1316959
3 590.822 1314034
3 590.822 1313521
3 591.306 1309726
3 591.875 1308773
3 591.875 1308252
3 591.875 1307983
3 591.875 1304668
3 598.125 1301715
3 599.213 1301239
3 601.286 1301236
3 601.863 1300083
3 601.863 1299872
3 601.863 1299470
3 601.863 1298407
3 602.508 1394501
3 602.508 1375278
3 602.508 1366963
3 602.508 1355139
3 602.508 1344120
3 602.508 1343309
3 602.508 1331310
3 602.508 1327604
3 603.3 1327039
3 603.3 1321852
3 604.101 1319831
3 604.101 1319757
3 605.671 1308105
3 606.305 1307050
3 606.768 1304319
3 607.219 1302463
3 607.668 1301958
3 607.668 1301738
3 616.159 1400103
3 616.159 1398313
3 616.159 1397039
3 616.159 1392640
3 616.159 1381595
3 616.159 1376039
3 616.159 1374515
3 616.159 1366680
3 616.795 1364897
3 616.795 1360589
3 616.795 1356420
3 616.795 1348346
3 616.795 1346112
3 616.795 1342387
3 617.372 1337412
3 617.372 1327190
3 617.372 1326634
3 617.372 1322691
3 617.372 1321801
3 618.04 1318217
3 618.04 1315230
3 618.519 1312448
3 618.519 1311594
3 618.519 1309063
3 619.074 1308643
3 619.982 1308085
3 619.982 1306319
3 626.119 1304540
3 626.608 1302636
3 626.608 1301782
3 626.608 1301709
3 626.608 1301289
3 626.608 1300586
3 630.241 1403846
3 630.241 1386483
3 630.241 1366675
3 630.241 1354740
3 630.241 1354060
3 631.12 1351156
3 631.12 1340946
3 631.12 1340138
3 631.12 1339721
3 631.12 1334572
3 631.12 1334212
3 632.005 1325977
3 634.337 1323074
3 634.337 1317495
3 634.337 1317277
3 634.337 1315395
3 634.337 1312835
3 635.174 1312732
3 635.174 1308180
3 635.174 1304353
3 637.261 1302286
3 639.322 1301709
3 639.913 1300072
3 640.997 1299744
3 643.255 1299169
3 643.255 1299038
3 644.057 1414219
3 644.057 1390398
3 644.057 1377900
3 644.057 1373065
3 644.057 1366500
3 644.725 1363552
3 644.725 1358056
3 644.725 1354361
3 645.349 1351833
3 645.349 1348407
3 645.349 1330343
3 645.839 1326821
3 645.839 1319945
3 646.401 1317128
3 646.401 1316878
3 646.401 1316425
3 646.401 1315141
3 646.401 1311890
3 647.253 1311759
3 648.046 1306704
3 652.524 1299255
3 658.028 1421583
3 658.028 1408838
3 658.028 1401918
3 658.028 1398385
3 658.648 1391372
3 658.648 1387713
3 658.648 1354559
3 658.648 1348807
3 658.648 1346321
3 659.261 1321975
3 659.261 1320701
3 659.261 1314820
3 659.261 1314747
3 659.261 1311338
3 659.854 1310540
3 659.854 1309412
3 660.568 1308765
3 661.149 1308482
3 661.728 1307779
3 665.556 1305185
3 666.502 1305147
3 666.502 1301375
3 667.009 1298313
3 672.207 1399181
3 672.207 1395879
3 672.207 1392138
3 672.207 1390670
3 672.207 1381681
3 672.207 1365723
3 672.207 1363447
3 672.776 1345911
3 672.776 1344373
3 672.776 1339321
3 672.776 1338219
3 672.776 1335737
3 673.714 1331943
3 674.238 1328700
3 674.238 1325362
3 674.238 1324873
3 674.727 1321718
3 674.727 1316510
3 675.676 1310916
3 676.158 1308485
3 676.158 1306719
3 676.158 1305455
3 682.63 1305445
3 686.417 1439426
3 686.417 1428890
3 686.417 1425937
3 686.417 1397711
3 686.417 1389374
3 686.417 1375666
3 687.174 1366497
3 687.174 1344940
3 687.174 1341596
3 687.671 1337438
3 687.671 1336541
3 687.671 1333393
3 687.671 1332954
3 689.206 1327012
3 689.206 1326654
3 690.774 1320942
3 691.276 1313483
3 691.746 1310516
3 696.05 1299012
3 700.171 1436710
3 700.171 1424317
3 700.171 1420297
3 700.171 1408965
3 700.171 1403822
3 700.171 1401077
3 700.171 1400477
3 700.171 1394034
3 700.171 1391989
3 700.171 1390466
3 701.132 1385257
3 701.132 1376268
3 701.132 1373820
3 701.132 1372168
3 701.132 1371960
3 701.132 1368506
3 702.04 1364891
3 702.04 1353559
3 702.865 1340745
3 703.713 1327543
3 703.713 1323634
3 704.509 1321868
3 706.459 1320702
3 706.459 1317322
3 707.459 1314263
3 707.459 1312143
3 714.239 1372376
3 714.239 1366624
3 714.239 1363164
3 714.239 1337618
3 714.239 1337133
3 714.239 1335688
3 714.943 1330672
3 714.943 1325080
3 714.943 1317563
3 714.943 1315859
3 714.943 1312654
3 715.617 1309713
3 715.617 1309422
3 717.215 1304712
3 717.215 1300933
3 717.215 1300586
3 718.014 1298607
3 718.76 1296490
3 718.76 1296359
3 722.154 1294289
3 722.154 1294208
3 722.659 1292198
3 725.477 1291144
3 726.927 1291128
3 726.927 1290348
3 727.386 1290217
3 728.122 1419719
3 728.122 1414451
3 728.122 1396859
3 728.122 1395776
3 728.122 1388780
3 728.122 1385306
3 728.122 1383891
1 728.122 1377891
3 728.122 1360413
3 728.122 1354862
3 729.024 1349895
3 729.024 1345510
3 729.024 1337705
3 729.024 1337111
3 729.024 1332803
3 729.538 1331892
3 729.538 1329581
3 730.012 1326635
3 730.551 1324786
3 730.551 1319661
3 730.551 1316387
3 731.066 1314968
3 731.066 1310895
3 731.066 1308712
3 731.639 1307438
3 732.093 1305211
3 732.093 1303039
3 733.454 1298540
3 735.816 1294997
3 735.816 1294992
3 736.305 1293278
3 736.305 1291683
3 737.676 1291408
3 737.676 1289346
3 737.676 1285935
3 737.676 1285344
3 742.316 1401731
3 742.316 1393157
1 742.316 1388706
3 742.316 1383725
3 742.316 1376622
3 742.316 1374980
3 742.316 1361300
3 742.316 1358158
3 742.316 1356563
3 742.316 1354691
3 742.316 1354258
3 743.011 1350767
3 743.011 1346156
3 743.011 1338610
3 743.011 1338479
3 743.011 1335832
3 743.83 1329825
3 743.83 1322396
3 743.83 1320626
3 745.033 1319152
3 745.543 1319007
3 745.543 1318001
3 746.025 1316551
3 746.025 1315040
3 751.17 1314904
3 751.17 1314666
3 752.093 1312918
3 752.093 1309866
3 752.093 1308100
3 752.598 1307969
3 753.525 1306695
3 754.91 1304630
3 755.38 1304236
3 755.844 1304216
3 756.357 1418465
3 756.357 1393101
3 756.357 1388793
3 756.357 1376528
3 756.357 1372129
3 756.357 1361510
3 757.215 1359773
3 757.215 1351880
3 757.215 1351385
3 757.215 1350587
3 757.974 1348575
3 757.974 1346340
3 757.974 1344745
3 759.406 1336188
3 759.406 1333637
3 759.406 1332247
3 759.406 1331747
3 759.928 1331545
3 759.928 1329463
3 759.928 1327667
3 759.928 1317606
3 760.493 1317415
3 761.278 1313085
3 761.278 1312468
3 761.863 1312347
3 763.197 1311938
3 764.102 1311751
3 764.102 1311055
3 765.04 1309173
3 765.04 1307470
3 765.04 1307370
3 765.564 1305875
3 766.066 1305726
3 766.066 1302153
3 766.57 1302053
3 767.063 1297327
3 770.07 1425544
3 770.07 1422734
3 770.07 1408122
3 770.07 1403874
3 770.07 1395748
3 770.805 1394364
3 771.357 1390910
3 771.357 1389865
3 771.357 1377097
3 771.357 1370858
3 771.357 1369263
3 771.357 1361849
3 771.357 1355349
3 771.357 1351489
3 771.912 1347875
3 771.912 1347744
3 771.912 1346910
3 771.912 1343442
3 771.912 1340066
3 771.912 1339735
3 771.912 1337885
3 772.474 1332241
3 772.474 1329490
3 772.474 1328381
3 774.082 1327589
3 774.082 1327015
3 774.082 1326525
3 774.082 1323173
3 774.082 1319624
3 774.082 1319138
3 774.664 1312971
3 774.664 1312739
3 775.15 1311841
3 778.094 1309140
3 778.094 1309007
3 778.903 1308642
3 780.526 1308349
3 780.526 1306266
3 780.526 1304671
3 780.526 1302568
3 781.342 1301859
3 782.017 1300697
3 782.485 1299715
3 782.485 1299704
3 782.485 1295305
3 782.485 1295065
3 782.485 1294284
3 783.047 1294253
3 783.966 1292941
3 784.438 1399300
3 784.438 1389664
3 784.438 1382820
3 784.438 1370592
3 784.438 1363784
3 784.438 1361843
3 784.438 1349834
3 784.438 1342882
3 784.438 1342050
3 784.438 1335670
3 785.275 1326084
3 785.275 1324489
3 785.275 1319990
3 786.09 1318217
3 786.09 1317928
3 786.905 1317718
3 790.011 1315885
3 790.761 1309092
3 791.403 1308294
3 792.97 1305498
3 792.97 1298894
3 793.483 1298694
3 793.483 1297224
3 793.972 1297014
3 794.446 1296311
3 796.025 1294572
3 798.877 1456372
3 798.877 1451973
3 798.877 1421493
3 798.877 1418280
3 798.877 1405112
3 798.877 1396428
3 798.877 1391290
3 798.877 1374726
3 798.877 1364893
3 798.877 1355904
3 800.111 1354476
3 800.111 1350892
3 801.881 1343849
3 801.881 1342575
3 801.881 1337367
3 802.955 1327706
3 802.955 1327189
3 802.955 1326506
3 802.955 1319984
3 803.463 1319722
3 804.091 1318127
3 804.091 1314136
3 804.091 1314069
3 804.091 1312908
3 805.101 1311634
3 805.584 1307235
3 812.081 1405378
3 812.081 1404675
3 812.081 1396276
3 812.081 1392006
3 812.081 1388184
3 813.084 1384402
3 813.084 1375540
3 813.757 1374266
3 813.757 1370582
3 813.757 1365498
3 814.299 1361914
3 814.299 1358539
3 814.299 1351972
3 814.299 1348086
3 814.862 1345303
3 823.296 1345218
3 823.296 1343452
3 823.939 1342944
3 826.415 1433059
3 826.415 1417086
3 826.415 1411129
3 826.415 1404086
3 826.415 1388738
3 826.97 1368797
3 826.97 1346341
3 827.462 1341942
3 827.462 1333104
3 827.995 1326675
3 828.804 1326400
3 828.804 1325462
3 828.804 1322367
3 830.073 1314644
3 831.329 1312050
3 831.329 1310681
3 833.68 1309056
3 833.68 1306596
3 834.695 1303692
3 834.695 1301234
3 834.695 1299653
3 834.695 1299125
3 835.684 1297475
3 838.005 1294902
3 840.75 1368542
3 840.75 1354831
3 840.75 1350523
3 840.75 1346835
3 840.75 1345695
3 840.75 1345642
3 840.75 1345576
3 840.75 1342258
3 841.65 1341455
3 841.65 1341433
3 841.65 1337410
3 842.47 1333550
3 842.47 1331408
3 843.276 1329667
3 843.276 1325586
3 843.774 1323991
3 845.151 1318522
3 845.151 1315803
3 846.754 1315192
3 846.754 1315122
3 846.754 1314489
3 846.754 1313181
3 846.754 1311958
3 846.754 1311653
3 848.403 1309853
3 848.403 1308785
3 849.211 1306709
3 849.211 1306370
3 854.012 1407748
3 854.012 1390368
3 854.012 1359936
3 854.012 1346123
3 854.012 1342019
3 854.012 1341469
3 854.012 1334859
3 854.952 1324412
3 854.952 1312666
3 854.952 1306936
3 854.952 1302851
3 854.952 1301040
3 867.568 1300631
3 868.353 1419350
3 868.353 1410666
3 868.353 1395183
3 868.353 1393036
3 868.353 1387471
3 868.353 1383887
3 868.353 1372942
3 868.353 1366443
3 868.353 1354120
3 869.271 1352512
3 869.271 1349926
3 870.095 1332207
3 870.095 1332052
3 870.095 1332013
3 870.095 1330247
3 870.095 1325760
3 870.095 1323579
3 871.005 1323380
3 871.005 1323344
3 871.005 1322917
3 871.842 1319649
3 871.842 1314698
3 872.635 1314156
3 872.635 1305198
3 872.635 1305037
3 873.119 1303122
3 873.119 1301558
3 873.119 1298723
3 875.365 1298561
3 876.151 1297489
3 876.151 1295335
3 877.921 1293794
3 878.402 1292553
3 882.121 1478802
3 882.121 1449144
3 882.121 1444745
3 882.121 1414265
3 882.121 1404432
3 882.121 1390424
3 882.121 1389019
3 882.121 1378012
3 882.121 1369023
3 882.799 1364963
3 883.27 1364959
3 883.27 1363689
3 883.27 1360230
3 883.27 1352925
3 883.27 1348138
3 883.27 1346868
3 883.888 1346165
3 883.888 1341766
3 883.888 1325420
3 884.856 1324719
3 885.329 1314686
3 887.247 1313959
3 887.247 1312079
3 887.247 1310644
3 887.247 1308005
3 887.247 1304918
3 888.004 1302537
3 888.712 1302480
3 888.712 1299099
3 889.286 1298973
3 889.769 1297433
3 889.769 1297378
3 892.031 1296159
3 892.735 1293994
3 893.195 1293946
3 893.65 1293942
3 894.101 1292632
3 894.633 1292228
3 896.145 1450664
3 896.145 1446807
3 896.145 1430245
3 896.145 1429656
3 896.145 1415987
3 896.145 1415760
3 896.145 1412162
3 896.145 1410779
3 896.145 1398575
3 896.98 1388310
3 896.98 1386060
3 896.98 1385357
3 897.483 1370381
3 897.483 1365982
3 897.483 1361674
3 897.483 1356956
3 897.483 1356256
3 897.483 1350216
3 897.483 1348485
3 898.125 1337679
3 898.125 1337519
3 898.607 1331927
3 899.07 1326234
3 899.07 1320258
3 899.07 1320090
3 899.582 1318031
3 899.582 1316436
3 899.582 1308037
3 900.435 1302914
3 900.435 1300890
3 901.213 1297657
3 901.213 1297653
3 901.213 1296933
3 902.022 1295659
3 910.36 1429351
3 910.36 1422298
3 910.36 1413699
3 910.36 1403044
3 910.36 1400688
3 910.36 1372627
3 910.36 1368228
3 910.36 1360814
3 910.36 1356759
3 910.36 1346714
3 911.096 1346011
3 911.096 1345729
3 911.096 1337375
3 911.096 1335899
3 911.096 1331938
3 911.096 1331235
3 912.084 1329961
3 912.934 1327271
3 912.934 1327144
3 913.543 1327054
3 915.418 1324033
3 915.418 1322894
3 916.427 1320656
3 916.427 1319940
3 916.427 1319809
3 916.941 1318162
3 916.941 1318076
3 916.941 1316037
3 917.905 1315334
3 917.905 1314520
3 918.457 1309906
3 918.457 1308490
3 920.522 1307216
3 923.597 1306709
3 924.34 1444561
3 924.34 1428142
3 924.34 1423424
3 924.34 1422773
3 924.34 1417432
3 924.34 1408834
3 924.34 1394273
3 924.34 1388368
3 924.34 1384688
3 924.34 1379248
3 924.34 1376227
3 924.34 1369062
3 924.34 1368448
3 925.017 1367174
3 925.017 1367085
3 925.017 1363802
3 925.017 1354733
3 925.017 1354432
3 925.017 1347238
3 925.017 1344962
3 925.967 1335853
3 925.967 1335074
3 925.967 1334429
3 925.967 1332411
3 926.681 1330961
3 926.681 1327189
3 926.681 1318253
3 926.681 1317627
3 927.242 1317175
3 927.242 1317138
3 928.069 1316373
3 928.069 1315864
3 928.069 1315186
3 928.937 1313591
3 930.423 1298317
3 931.915 1298078
3 931.915 1296483
3 933.661 1296346
3 933.661 1294830
3 934.638 1294828
3 936.107 1291007
3 936.593 1290940
3 938 1289092
3 938 1284164
3 938.486 1392802
3 938.486 1388896
3 938.486 1382818
3 938.486 1366946
3 938.486 1359691
3 938.486 1358988
3 939.09 1354173
3 939.09 1353780
3 939.09 1345435
3 939.09 1345249
3 939.09 1342360
3 939.09 1336852
3 939.09 1332546
3 939.661 1329521
3 939.661 1315271
3 939.661 1312740
3 939.661 1312089
3 939.661 1309733
3 940.183 1307651
3 941.626 1305697
3 943.056 1303008
3 943.056 1302587
3 945.141 1302174
3 945.141 1302164
3 945.958 1297813
3 945.958 1297502
3 948.336 1296412
3 949.425 1296359
3 949.425 1296330
3 949.425 1295627
3 949.425 1293056
3 949.425 1292459
3 951.586 1290247
3 952.268 1407065
3 952.268 1399025
3 952.268 1397785
3 952.268 1397511
3 952.268 1388382
3 952.268 1380896
3 952.268 1376519
3 952.268 1367241
3 952.268 1363657
3 952.268 1355018
3 953.213 1354668
3 953.213 1348957
3 953.213 1348924
3 953.213 1344087
3 954.061 1339610
3 954.061 1339053
3 954.061 1337605
3 954.061 1334781
3 954.061 1334436
3 954.919 1334255
3 954.919 1333700
3 955.71 1329103
3 955.71 1327555
3 955.71 1324604
3 957.359 1324473
3 958.962 1322366
3 958.962 1320393
3 958.962 1313504
3 959.878 1312989
3 959.878 1311988
3 960.475 1308490
3 960.475 1307893
3 960.475 1307762
3 960.475 1307458
3 961.989 1302422
3 962.717 1298260
3 963.522 1298129
3 964.429 1297228
3 966.024 1452178
3 966.024 1432366
3 966.024 1417018
3 966.024 1407185
3 966.024 1398196
3 966.024 1369304
3 966.885 1364905
3 966.885 1354417
3 966.885 1350550
3 966.885 1338151
3 966.885 1333069
3 966.885 1332632
3 966.885 1319263
3 967.593 1317989
3 967.593 1317149
3 967.593 1312445
3 968.282 1312306
3 968.282 1311261
3 968.282 1310812
3 968.282 1309538
3 968.282 1307908
3 968.813 1307134
3 968.813 1306658
3 969.305 1304229
3 969.763 1302463
3 969.763 1301834
3 970.27 1295349
3 970.27 1294704
3 970.74 1294682
3 970.74 1294117
3 971.288 1287093
3 971.288 1286034
3 971.288 1285934
3 971.782 1285344
3 972.326 1285239
3 972.326 1284555
3 977.385 1284168
3 980.402 1372163
3 980.402 1333306
3 980.402 1331464
3 980.402 1319729
3 980.402 1318934
3 981.257 1317905
3 981.257 1315461
3 981.257 1314154
3 981.257 1312880
3 981.257 1310722
3 981.257 1310617
3 982.113 1309430
3 982.113 1309218
3 982.113 1308515
3 982.113 1306714
3 982.794 1304510
3 982.794 1303478
3 983.291 1300895
3 983.291 1297957
3 983.291 1297282
3 994.268 1402029
3 994.268 1398445
1 994.268 1396514
3 994.268 1391963
3 994.268 1381273
3 994.268 1374389
3 994.268 1373686
3 994.268 1363777
3 994.268 1360795
3 994.268 1358945
3 995.241 1355219
3 995.241 1346648
3 995.241 1344576
3 995.241 1340268
3 995.241 1333574
3 995.91 1331264
3 995.91 1330677
3 995.91 1327920
3 995.91 1327093
3 996.499 1325764
3 996.499 1322504
3 996.499 1319570
3 996.499 1317856
3 996.499 1315171
3 997.017 1313834
3 997.017 1313131
3 997.017 1311595
3 998.084 1309962
3 998.63 1308784
3 998.63 1308705
3 998.63 1305375
3 999.135 1304397
3 1003.46 1302049
3 1008.21 1456221
3 1008.21 1432196
3 1008.21 1422363
3 1008.21 1416907
3 1008.21 1415915
3 1008.21 1406404
3 1008.21 1405583
3 1008.21 1403988
3 1008.21 1403952
3 1009.18 1402940
3 1009.18 1395085
3 1009.18 1388283
3 1010.06 1387228
3 1010.06 1383644
3 1010.06 1383396
3 1010.06 1381164
3 1010.06 1369970
3 1010.86 1364283
3 1010.86 1355906
3 1010.86 1355623
3 1010.86 1353460
3 1011.61 1353079
3 1011.61 1341083
3 1011.61 1340374
3 1012.35 1338938
3 1012.35 1337448
3 1012.35 1335078
3 1012.96 1329724
3 1012.96 1328197
3 1013.44 1325438
3 1013.91 1321743
3 1013.91 1315988
3 1013.91 1313689
3 1014.46 1308486
3 1015.37 1308464
3 1015.37 1308347
3 1015.37 1307900
3 1016.12 1306547
3 1016.92 1305228
3 1020.82 1304758
3 1022.39 1434710
3 1022.39 1369349
3 1022.39 1365577
3 1022.39 1356742
3 1022.39 1351653
3 1022.39 1349952
3 1022.39 1335272
3 1023.34 1331652
3 1023.34 1327162
3 1023.34 1313588
3 1023.34 1312501
3 1023.34 1311941
3 1023.34 1311810
3 1025.51 1310704
3 1026.07 1305182
3 1026.72 1304471
3 1033.13 1302832
3 1033.13 1301237
3 1033.73 1300534
3 1034.68 1299294
3 1035.15 1299261
3 1035.65 1298620
3 1036.11 1386083
3 1036.11 1379451
3 1036.11 1349909
3 1036.11 1348856
3 1036.11 1346994
3 1036.11 1343158
3 1036.11 1340324
3 1036.11 1333748
3 1036.95 1332474
3 1036.95 1331721
3 1036.95 1327861
3 1037.78 1320902
3 1037.78 1319006
3 1038.58 1317230
3 1038.58 1316699
3 1039.19 1315422
3 1040.2 1314934
3 1040.2 1314059
3 1040.2 1312336
3 1040.7 1312315
3 1040.7 1309955
3 1040.7 1308911
3 1041.48 1308189
3 1042.26 1304678
3 1043.07 1304312
3 1043.07 1303339
3 1043.07 1303208
3 1043.8 1299408
3 1044.86 1293670
3 1044.86 1293421
3 1044.86 1291206
3 1044.86 1289649
3 1050.1 1421012
3 1050.1 1392951
3 1050.1 1388523
3 1050.1 1385706
3 1050.1 1372689
3 1050.68 1358788
3 1050.68 1349194
3 1050.68 1348406
3 1051.16 1344838
3 1051.62 1343570
3 1051.62 1343359
3 1051.62 1342481
3 1052.11 1340938
3 1053.04 1325508
3 1053.04 1325364
3 1053.04 1323081
3 1053.04 1322378
3 1053.04 1321152
3 1057.61 1319746
3 1058.07 1319055
3 1058.07 1315974
3 1058.85 1314057
3 1058.85 1309948
3 1061.92 1306227
3 1061.92 1305777
3 1062.7 1305549
3 1064.22 1432275
3 1064.22 1421583
3 1064.22 1410639
3 1064.22 1405007
3 1064.22 1399330
3 1064.22 1376241
3 1064.22 1369682
3 1064.22 1368087
3 1064.22 1364240
3 1065.13 1363567
3 1065.13 1353730
3 1065.13 1344116
3 1065.13 1343184
3 1065.76 1332169
3 1065.76 1328096
3 1065.76 1325781
3 1065.76 1323271
3 1065.76 1318640
3 1065.76 1317811
3 1066.35 1316944
3 1066.9 1316818
3 1067.68 1311403
3 1067.68 1303305
3 1067.68 1303004
3 1067.68 1302250
3 1068.5 1301311
3 1068.5 1301019
3 1068.5 1300888
3 1069.45 1300754
3 1070.03 1300185
3 1074.64 1296601
3 1078.06 1382421
3 1078.06 1375274
3 1078.06 1373905
3 1078.06 1372310
3 1078.06 1356056
3 1078.06 1355335
3 1078.62 1351787
3 1078.62 1351084
3 1078.62 1346376
3 1078.62 1339722
3 1079.38 1339018
3 1079.38 1335223
3 1079.38 1334941
3 1079.38 1330633
3 1080.21 1330494
3 1080.21 1330363
3 1080.21 1328597
3 1080.21 1327685
3 1081.27 1327641
3 1082.11 1324934
3 1082.11 1316174
3 1082.92 1315535
3 1083.74 1314549
3 1084.5 1313693
3 1085.27 1313636
3 1085.27 1312757
3 1085.27 1312419
3 1091.65 1311866
3 1092.46 1385380
3 1092.46 1381205
3 1092.46 1372165
3 1092.46 1371238
3 1092.46 1370757
3 1092.46 1352718
3 1092.46 1352049
3 1093.41 1349529
3 1093.41 1345589
3 1093.41 1344049
3 1093.41 1332946
3 1093.41 1332365
3 1094.23 1331101
3 1094.23 1330697
3 1094.23 1330495
3 1094.23 1329505
3 1095.06 1325674
3 1096.62 1325135
3 1097.41 1324912
3 1098.17 1324759
3 1098.96 1324035
3 1098.96 1323902
3 1098.96 1322019
3 1099.75 1313030
3 1100.54 1312938
3 1100.54 1312785
3 1100.54 1312654
3 1100.54 1310612
3 1102.32 1309944
3 1103.11 1302797
3 1104.84 1299881
3 1105.62 1299025
3 1106.34 1430734
3 1106.34 1409648
3 1106.34 1406831
3 1106.34 1384488
3 1106.34 1376614
3 1106.34 1374812
3 1106.34 1369495
3 1106.34 1366088
3 1107.2 1356256
3 1107.2 1356073
3 1107.2 1355804
3 1107.2 1355235
3 1107.2 1348357
3 1107.2 1342678
3 1108 1335949
3 1108 1335251
3 1108.74 1330914
3 1108.74 1327167
3 1109.52 1326296
3 1109.52 1323630
3 1109.52 1321941
3 1109.52 1312978
3 1110.15 1312741
3 1110.66 1309922
3 1110.66 1309155
3 1110.66 1308452
3 1110.66 1307743
3 1111.24 1301991
3 1112.32 1301990
3 1112.81 1300395
3 1120.31 1416467
3 1120.31 1406634
3 1120.31 1400020
3 1120.31 1392355
3 1120.31 1390589
3 1120.31 1381973
3 1120.31 1381689
3 1120.31 1377574
3 1121.46 1370636
3 1121.46 1367541
3 1121.46 1366743
3 1121.46 1359305
3 1121.46 1357339
3 1121.46 1353728
3 1121.46 1350814
3 1122.59 1344416
3 1122.59 1340721
3 1122.59 1339040
3 1122.59 1333349
3 1123.45 1331226
3 1123.45 1331095
3 1125 1329329
3 1125 1329121
3 1125 1328848
3 1125.65 1325713
3 1125.65 1319859
3 1125.65 1319468
3 1125.65 1313888
3 1125.65 1309311
3 1125.65 1308216
3 1126.33 1307720
3 1126.33 1306766
3 1126.33 1305954
3 1127.52 1304415
3 1128.3 1304356
3 1128.3 1304225
3 1130.6 1304088
3 1132.78 1303908
3 1133.55 1303504
3 1134.33 1407792
3 1134.33 1403073
3 1134.33 1401799
3 1134.33 1400679
3 1134.33 1388699
3 1134.33 1382386
3 1134.33 1381217
3 1134.33 1367220
3 1135.54 1364191
3 1135.54 1361238
3 1135.54 1360294
3 1135.54 1355122
3 1136.31 1345289
3 1136.31 1342347
3 1136.31 1341073
3 1136.31 1339824
3 1136.31 1335516
3 1136.31 1335195
3 1136.31 1334813
3 1136.31 1333869
3 1137.53 1330232
3 1137.53 1325378
3 1138.35 1325247
3 1138.35 1319175
3 1140.86 1316554
3 1141.67 1311368
3 1141.67 1306466
3 1141.67 1303361
3 1141.67 1301021
3 1141.67 1301002
3 1141.67 1299301
3 1142.59 1298598
3 1144.14 1297082
3 1144.14 1297050
3 1144.14 1296930
3 1144.14 1293487
3 1144.97 1291555
3 1148.38 1358268
3 1148.38 1356867
3 1148.38 1349824
3 1148.38 1347786
3 1148.38 1346020
3 1148.38 1343727
3 1148.93 1331212
3 1148.93 1331106
3 1148.93 1327352
3 1148.93 1326652
3 1148.93 1322972
3 1149.45 1318574
3 1149.45 1314462
3 1149.45 1310334
3 1150.05 1307517
3 1150.05 1305922
3 1150.85 1304759
3 1150.85 1300987
3 1162.13 1472676
3 1162.13 1468462
3 1162.13 1461294
3 1162.13 1459710
3 1162.13 1458351
3 1162.13 1452207
3 1162.13 1426569
3 1162.13 1424723
3 1162.13 1405748
3 1162.13 1401941
3 1162.79 1397295
3 1162.79 1396553
3 1162.79 1393342
3 1162.79 1376231
3 1162.79 1371023
3 1162.79 1365479
3 1162.79 1356780
3 1163.67 1345626
3 1163.67 1332153
3 1163.67 1331141
3 1163.67 1330528
3 1163.67 1330187
3 1164.97 1328100
3 1164.97 1324315
3 1164.97 1318401
3 1164.97 1318270
3 1165.68 1307767
3 1165.68 1305731
3 1165.68 1297934
3 1167.01 1297466
3 1167.01 1297367
3 1170.57 1296093
3 1171.98 1295224
3 1172.59 1294883
3 1172.59 1288432
3 1176.2 1389453
3 1176.2 1379024
3 1176.2 1372344
3 1176.2 1366561
3 1177.02 1363942
3 1177.02 1361313
3 1177.02 1360610
3 1177.02 1357793
3 1177.54 1352315
3 1177.54 1341707
3 1177.54 1338630
3 1177.54 1338110
3 1177.54 1334322
3 1177.54 1331661
3 1178.08 1329926
3 1178.08 1325647
3 1179.06 1325208
3 1179.06 1324277
3 1179.06 1324052
3 1180.08 1323388
3 1181.53 1323155
3 1181.53 1322642
3 1182.35 1322511
3 1182.35 1320409
3 1182.91 1318075
3 1190.49 1393700
3 1190.49 1392030
3 1190.49 1387722
3 1190.49 1367910
3 1191.36 1358921
3 1191.36 1343373
3 1191.36 1342660
3 1191.36 1341065
3 1191.36 1336124
3 1191.36 1321997
3 1192.23 1319123
3 1192.23 1318297
3 1193.01 1314512
3 1193.63 1313619
3 1193.63 1311150
3 1193.63 1310884
3 1194.3 1310436
3 1194.3 1304829
3 1194.3 1304546
3 1194.3 1302012
3 1195.43 1300774
3 1195.43 1299179
3 1196.59 1298736
3 1200.48 1294584
3 1200.48 1294124
3 1200.48 1292032
3 1201.44 1291604
3 1204.47 1422492
3 1204.47 1417327
3 1204.47 1413019
3 1204.47 1409435
3 1204.47 1400824
3 1204.47 1366060
3 1204.47 1365620
3 1204.47 1361100
3 1205.43 1360980
3 1205.43 1342077
3 1206.29 1336554
3 1206.29 1336512
3 1206.29 1335809
3 1206.29 1333104
3 1206.29 1332216
3 1207.96 1330720
3 1207.96 1329436
3 1207.96 1328791
3 1208.82 1328091
3 1208.82 1327757
3 1208.82 1324924
3 1208.82 1321320
3 1208.82 1319940
3 1209.69 1316916
3 1210.49 1316213
3 1211.48 1310922
3 1217.87 1309399
3 1218.36 1419805
3 1218.36 1409972
3 1218.36 1389226
3 1218.36 1373824
3 1218.36 1370458
3 1218.36 1342943
3 1218.36 1328936
3 1218.96 1317397
3 1218.96 1316123
3 1220.47 1312283
3 1220.47 1309317
3 1220.47 1307753
3 1220.98 1307653
3 1220.98 1307190
3 1220.98 1306719
3 1222.7 1305445
1 1231.83 1303553
3 1232.3 1400622
3 1232.3 1389667
3 1232.3 1385168
3 1232.3 1382375
3 1232.3 1379637
3 1232.3 1353927
3 1232.3 1353848
3 1232.3 1353275
3 1232.3 1349619
3 1232.3 1335504
3 1233.39 1328461
3 1233.39 1328401
3 1233.39 1322410
3 1233.39 1322257
3 1233.39 1322126
3 1233.39 1317818
3 1233.92 1317043
3 1234.41 1311873
3 1234.41 1306100
3 1235.39 1305734
3 1235.39 1303521
3 1235.39 1303339
3 1235.39 1301858
3 1237.04 1300272
3 1237.04 1299911
3 1237.83 1299780
3 1238.6 1299213
3 1239.38 1298653
3 1239.38 1298583
3 1240.93 1296817
3 1246.4 1400361
3 1246.4 1389900
3 1246.4 1370365
3 1246.4 1360638
3 1246.4 1359524
3 1246.4 1358954
3 1247.3 1346791
3 1247.3 1345517
3 1248.17 1340944
3 1248.17 1339616
3 1249.01 1333572
3 1249.01 1332486
3 1249.82 1331504
3 1249.82 1323437
3 1249.82 1320111
3 1250.69 1317954
3 1251.52 1315247
3 1252.32 1314124
3 1253.68 1313993
3 1256.23 1311741
3 1256.74 1308046
3 1256.74 1307123
3 1256.74 1300340
3 1256.74 1299637
3 1257.54 1298521
3 1258.33 1298193
3 1258.33 1296919
3 1259.14 1295768
3 1260.6 1407146
3 1260.6 1406532
3 1260.6 1398157
3 1260.6 1393849
3 1260.6 1386047
3 1260.6 1377542
3 1261.15 1372225
3 1261.15 1371178
3 1261.63 1367613
3 1261.63 1365970
3 1261.63 1362020
3 1262.34 1361623
3 1262.34 1358039
3 1262.34 1357879
3 1262.34 1354936
3 1262.34 1345103
3 1263.19 1334594
3 1263.19 1332999
3 1264.04 1330460
3 1264.04 1325027
3 1264.04 1324426
3 1264.04 1322771
3 1264.04 1322564
3 1264.81 1322100
3 1264.81 1321497
3 1264.81 1320133
3 1265.49 1320057
3 1265.49 1319096
3 1269.71 1312123
3 1270.48 1310455
3 1270.48 1310382
3 1271.05 1305994
3 1271.55 1305883
3 1271.55 1305699
3 1273.04 1305568
3 1274.68 1379746
3 1274.68 1363372
3 1274.68 1362760
3 1274.68 1362098
3 1275.35 1360076
3 1275.35 1339715
3 1275.35 1327958
3 1275.35 1327160
3 1275.86 1314352
3 1276.9 1314089
3 1276.9 1308702
3 1276.9 1308248
3 1277.67 1304267
3 1278.3 1304203
3 1278.3 1303152
3 1278.3 1299568
3 1278.3 1299299
3 1279.3 1296969
3 1279.97 1296146
3 1280.73 1292468
3 1281.46 1290225
3 1281.46 1289367
3 1282.91 1288954
3 1285.35 1287747
3 1288.51 1394128
3 1288.51 1390544
3 1288.51 1374325
3 1288.51 1369998
3 1289.41 1369618
3 1289.41 1354159
3 1289.41 1350946
3 1289.41 1349660
3 1289.41 1349180
3 1290.17 1345954
3 1290.17 1334169
3 1290.17 1329998
3 1290.17 1323299
3 1290.85 1322526
3 1290.85 1318819
3 1290.85 1317762
3 1290.85 1314498
3 1291.65 1312941
3 1291.65 1312238
3 1291.65 1312107
3 1292.78 1310341
3 1295.67 1309543
3 1295.67 1308519
3 1296.23 1306552
3 1297.21 1306421
3 1297.69 1304211
3 1298.66 1301358
3 1301.87 1301275
3 1302.68 1431620
3 1302.68 1426448
3 1302.68 1419058
3 1302.68 1412253
3 1302.68 1405535
3 1302.68 1405404
3 1302.68 1396221
3 1303.58 1388024
3 1303.58 1377883
3 1303.58 1374517
3 1303.58 1373862
3 1303.58 1368486
3 1303.58 1355617
3 1303.58 1354998
3 1304.52 1344150
3 1304.52 1334317
3 1305.35 1334186
3 1305.35 1333837
3 1305.35 1332220
3 1305.35 1327912
3 1305.99 1323449
3 1305.99 1321442
3 1305.99 1320739
3 1306.93 1319732
3 1306.93 1318609
3 1306.93 1316042
3 1306.93 1315729
3 1308.9 1311537
3 1308.9 1310834
3 1310.22 1308272
3 1310.22 1307330
3 1310.22 1306397
3 1310.22 1304026
3 1311.06 1301806
3 1311.06 1300453
3 1311.87 1298819
3 1311.87 1298250
3 1311.87 1297675
3 1312.66 1294555
3 1313.48 1294320
3 1313.48 1294114
3 1314.28 1293983
3 1315.82 1293407
3 1316.62 1463994
3 1316.62 1454319
3 1316.62 1440870
3 1316.62 1437352
3 1316.62 1425629
3 1316.62 1422045
3 1316.62 1420252
3 1316.62 1419090
3 1316.62 1407163
3 1316.62 1397447
3 1316.62 1395296
3 1316.62 1372528
3 1316.62 1364004
3 1317.62 1360236
3 1317.62 1357868
3 1317.62 1350095
3 1317.62 1344137
3 1317.62 1342542
3 1318.48 1341411
3 1318.48 1338954
3 1319.17 1335086
3 1319.17 1330683
3 1319.17 1330618
3 1319.67 1327828
3 1319.67 1327125
3 1321.19 1326567
3 1321.19 1324477
3 1321.78 1323768
3 1321.78 1321784
3 1322.29 1318754
3 1322.29 1310990
3 1322.29 1307130
3 1328.67 1305968
3 1328.67 1305808
3 1329.15 1301017
3 1329.15 1298009
3 1329.75 1296938
3 1330.25 1406350
3 1330.25 1400377
3 1330.25 1397804
3 1330.78 1377241
3 1330.78 1372191
3 1330.78 1352337
3 1330.78 1347809
3 1330.78 1347547
3 1331.42 1346652
3 1331.42 1343694
3 1331.42 1342344
3 1331.42 1328866
3 1332.1 1328388
3 1332.1 1327362
3 1332.1 1326049
3 1332.1 1319112
3 1332.65 1316516
3 1333.14 1315813
3 1333.72 1315469
3 1333.72 1312932
3 1334.3 1312229
3 1344.23 1416710
3 1344.23 1410450
3 1344.23 1403650
3 1344.23 1402771
3 1344.23 1383989
3 1344.23 1359159
3 1344.23 1358561
3 1344.23 1352743
3 1345.19 1346324
3 1345.19 1343136
3 1345.19 1340593
3 1346.02 1339206
3 1346.02 1332761
3 1346.83 1332471
3 1346.83 1327584
3 1346.83 1326881
3 1347.58 1318256
3 1347.58 1311547
3 1347.58 1309768
3 1348.2 1304400
3 1348.2 1304312
3 1348.2 1303609
3 1349.42 1303442
3 1350.22 1302805
3 1350.92 1302717
3 1350.92 1302014
3 1352.77 1299221
3 1358.24 1396276
3 1358.24 1357149
3 1358.24 1348160
3 1358.24 1343640
3 1358.24 1339241
3 1358.24 1338553
3 1358.24 1335684
3 1359.05 1333028
3 1359.05 1328720
3 1359.59 1328352
3 1361.2 1327411
3 1361.2 1323716
3 1361.79 1320945
3 1361.79 1320814
3 1363.58 1317997
3 1364.67 1311519
3 1364.67 1309753
3 1366.26 1309407
3 1366.26 1309315
3 1367.35 1306988
3 1368.07 1306350
3 1368.69 1305076
3 1369.29 1303583
3 1372.35 1423203
3 1372.35 1407855
3 1372.35 1392775
3 1372.35 1390594
3 1372.35 1379794
3 1372.35 1375395
3 1373.07 1356192
3 1373.07 1347491
3 1373.74 1346482
3 1373.74 1344808
3 1373.74 1343674
3 1373.74 1342617
3 1373.74 1341653
3 1373.74 1340489
3 1373.74 1339218
3 1373.74 1335546
3 1374.68 1335358
3 1374.68 1329606
3 1375.49 1326813
3 1375.49 1322280
3 1377.11 1322149
3 1377.11 1320987
3 1377.11 1319728
3 1377.98 1317026
3 1378.78 1315681
3 1379.66 1314526
3 1379.66 1314373
3 1379.66 1313153
3 1380.54 1313013
3 1380.54 1312806
3 1380.54 1311294
3 1381.37 1303996
3 1381.37 1303811
3 1381.37 1303108
3 1381.37 1302953
3 1382.24 1301351
3 1383.11 1299692
3 1383.11 1299093
3 1385.48 1297926
3 1386.4 1449564
3 1386.4 1444751
3 1386.4 1444749
3 1386.4 1412972
3 1386.4 1385908
3 1386.4 1381509
3 1386.4 1378037
3 1386.4 1375157
3 1386.4 1374454
3 1386.4 1367411
3 1386.4 1366946
3 1386.4 1366706
3 1387.38 1365432
3 1387.38 1365107
3 1387.38 1360961
3 1388.08 1360163
3 1388.08 1356718
3 1388.08 1344894
3 1388.59 1341217
3 1388.59 1341086
3 1389.55 1339866
3 1389.55 1338560
3 1389.55 1338506
3 1390.1 1333027
3 1390.1 1330312
3 1390.1 1328218
3 1390.91 1319587
3 1390.91 1316847
3 1391.46 1316003
3 1391.46 1315922
3 1391.46 1314932
3 1392.01 1311237
3 1392.01 1306735
3 1392.01 1306325
3 1392.5 1305539
3 1392.5 1304875
3 1392.5 1304218
3 1398.91 1294973
3 1398.91 1291584
3 1400.24 1430701
3 1400.24 1425157
3 1400.24 1416168
3 1400.24 1414983
3 1400.24 1411860
3 1400.24 1402027
3 1400.24 1382868
3 1400.81 1379284
3 1400.81 1359098
3 1400.81 1349550
3 1400.81 1349283
3 1401.41 1345846
3 1401.41 1343595
3 1401.9 1342212
3 1401.9 1341979
3 1402.38 1338973
3 1402.38 1336344
3 1402.38 1332269
3 1402.38 1331336
3 1402.88 1329528
3 1402.88 1329204
3 1402.88 1323464
3 1403.45 1320833
3 1403.45 1318397
3 1404.09 1310423
3 1404.9 1310152
3 1405.68 1309164
3 1405.68 1306533
3 1414.21 1426644
3 1414.21 1403412
3 1414.21 1388062
3 1414.21 1387604
3 1414.21 1386950
3 1414.21 1372641
3 1414.21 1366053
3 1414.21 1364744
3 1415 1360675
3 1415 1354780
3 1415 1351322
3 1415 1340478
3 1415 1339179
3 1415 1331655
3 1415.74 1327368
3 1415.74 1324799
3 1417.47 1323293
3 1417.47 1323185
3 1418.33 1322032
3 1419.12 1317869
3 1419.12 1317193
3 1420.84 1316103
3 1420.84 1310150
3 1427.77 1307112
3 1427.77 1306080
3 1427.77 1305838
3 1427.77 1305811
3 1428.32 1444056
3 1428.32 1428251
3 1428.32 1425414
3 1428.32 1412614
3 1428.32 1399141
3 1428.32 1398381
3 1428.32 1387848
3 1428.32 1386840
3 1428.32 1380805
3 1428.32 1360993
3 1429.4 1358645
3 1429.4 1351024
3 1429.4 1341641
3 1430.98 1338098
3 1432.15 1329797
3 1432.15 1328189
3 1432.15 1326062
3 1432.15 1321101
3 1432.15 1319154
3 1432.15 1318261
3 1432.7 1315382
3 1432.7 1309438
3 1433.17 1308395
3 1433.17 1306168
3 1433.64 1305705
3 1434.18 1305135
3 1434.68 1303306
3 1434.68 1303175
3 1435.15 1302563
3 1435.15 1302331
3 1435.67 1301167
3 1435.67 1297583
3 1442.11 1442437
3 1442.11 1422987
3 1442.11 1419782
3 1442.11 1377376
3 1442.11 1374353
3 1442.11 1359680
3 1442.67 1344117
3 1442.67 1342298
3 1442.67 1340490
3 1443.17 1338093
3 1443.69 1337932
3 1444.17 1335790
3 1444.17 1335333
3 1444.73 1331930
3 1444.73 1321238
3 1445.22 1321107
3 1455.35 1320469
3 1455.35 1318774
3 1456.19 1394725
3 1456.19 1391410
3 1456.19 1387120
3 1456.19 1379265
3 1456.19 1372698
3 1456.19 1368926
3 1456.19 1367869
3 1456.19 1366671
3 1456.19 1363781
3 1456.19 1356738
3 1456.19 1355464
3 1456.19 1354554
3 1456.94 1354371
3 1456.94 1346485
3 1456.94 1342901
3 1456.94 1341859
3 1456.94 1336612
3 1457.47 1334933
3 1457.47 1334263
3 1457.47 1325953
3 1458.04 1325077
3 1458.04 1324983
3 1458.04 1320118
3 1458.04 1319155
3 1458.66 1311739
3 1458.66 1311036
3 1458.66 1309985
3 1458.66 1308346
3 1459.3 1306178
3 1459.3 1302738
3 1459.88 1302298
3 1460.88 1299489
3 1470.43 1437008
3 1470.43 1397091
3 1470.43 1382948
3 1470.43 1378727
3 1470.43 1376972
3 1470.43 1366511
3 1470.43 1351506
3 1470.43 1349657
3 1470.43 1346840
3 1470.43 1345934
3 1470.43 1345157
3 1470.43 1337592
3 1472.05 1335586
3 1472.05 1334257
3 1472.05 1333424
3 1472.05 1333293
3 1472.05 1328731
3 1472.69 1321542
3 1472.69 1320525
3 1472.69 1318725
3 1473.26 1318000
3 1473.26 1315282
3 1473.75 1315243
3 1473.75 1311907
3 1475.25 1311579
3 1475.25 1311344
3 1476.15 1306013
3 1476.77 1305467
3 1476.77 1305246
3 1477.58 1303660
3 1478.35 1303158
3 1479.66 1302313
3 1479.66 1299841
3 1480.39 1297914
3 1484.06 1396792
3 1484.06 1394739
3 1484.06 1389531
3 1484.06 1389504
3 1484.06 1388775
3 1484.6 1387160
3 1484.6 1382852
3 1484.6 1366938
3 1484.6 1357050
3 1485.1 1356592
3 1485.1 1355993
3 1485.1 1350868
1 1486.33 1341073
3 1486.33 1341017
3 1486.33 1335923
3 1486.33 1325520
3 1486.33 1323251
3 1487.17 1322730
3 1487.17 1320426
3 1487.17 1319945
3 1487.17 1319242
3 1488.87 1316931
3 1489.63 1316785
3 1489.63 1313647
3 1490.32 1313362
3 1490.94 1312656
3 1491.68 1310830
3 1492.77 1310328
3 1495.13 1309872
3 1497.93 1306001
3 1498.42 1392811
3 1498.42 1385387
3 1498.42 1382778
3 1498.42 1372598
3 1498.42 1371839
3 1498.42 1365418
3 1498.42 1364770
3 1498.42 1364609
3 1498.42 1358335
3 1498.42 1355536
3 1498.42 1343443
3 1498.42 1340447
3 1499.22 1340316
3 1499.22 1326687
3 1499.22 1323103
3 1499.22 1320942
3 1500.52 1316570
3 1502.68 1315196
3 1503.47 1314114
3 1503.47 1308480
3 1504.14 1303272
3 1504.14 1298873
3 1507.53 1297626
3 1507.53 1297184
3 1508.21 1297036
3 1508.21 1296694
3 1509.16 1296545
3 1509.16 1294574
3 1511.21 1293318
3 1511.21 1291746
3 1511.21 1289988
3 1511.21 1288295
3 1512.07 1403203
3 1512.07 1384228
3 1512.07 1383649
3 1512.07 1381439
3 1512.07 1362104
3 1512.07 1361250
3 1512.07 1359641
3 1513.04 1351680
3 1513.04 1350295
3 1513.04 1349767
3 1513.89 1349326
3 1513.89 1347656
3 1513.89 1342947
3 1513.89 1337425
3 1514.42 1330338
3 1514.42 1329364
3 1514.42 1327661
3 1514.42 1326840
3 1514.99 1326801
3 1515.45 1326293
3 1515.45 1321638
3 1515.45 1320797
3 1516.02 1317769
3 1516.65 1317432
3 1516.65 1309479
3 1516.65 1307932
3 1518.21 1303710
3 1519.15 1303677
3 1526.03 1428210
3 1526.03 1421167
3 1526.03 1418528
3 1526.03 1398499
3 1526.03 1396604
3 1526.03 1386853
3 1526.03 1364198
3 1526.94 1361779
3 1526.94 1357280
3 1526.94 1352972
3 1526.94 1343139
3 1527.81 1338740
3 1528.6 1336008
3 1528.6 1334734
3 1529.39 1333882
3 1529.39 1331033
3 1529.39 1329507
3 1529.39 1321233
3 1530.07 1319662
3 1530.07 1317885
3 1530.07 1312182
3 1530.07 1308896
3 1530.07 1307617
3 1531.21 1303462
3 1532.78 1303344
3 1533.58 1302896
3 1533.58 1301695
3 1533.58 1299548
3 1534.39 1298351
3 1534.39 1294832
3 1535.69 1294755
3 1537.28 1289594
3 1540.49 1427701
3 1540.49 1424884
3 1540.49 1423544
3 1540.49 1409542
3 1540.49 1407390
3 1540.49 1400271
3 1540.49 1391478
3 1540.49 1374854
3 1540.49 1369646
3 1540.49 1367880
3 1541.45 1358373
3 1541.45 1353162
3 1541.45 1352189
3 1541.45 1350245
3 1541.45 1346618
3 1541.45 1346473
3 1542.33 1331125
3 1543.14 1327931
3 1543.14 1326908
3 1543.98 1324727
3 1547.26 1322509
3 1554.03 1384198
3 1554.03 1378044
3 1554.03 1357100
3 1554.03 1344113
3 1554.03 1336880
3 1554.03 1336218
3 1554.03 1330264
3 1554.92 1325318
3 1554.92 1319171
3 1554.92 1318132
3 1554.92 1314766
3 1554.92 1313606
3 1554.92 1311561
3 1555.57 1306439
3 1555.57 1305109
3 1555.57 1304795
3 1555.57 1303514
3 1556.3 1301875
3 1556.3 1297833
3 1556.3 1296203
3 1557.2 1296082
3 1557.2 1293248
3 1557.2 1291192
3 1558.96 1290660
3 1568.43 1372333
3 1568.43 1349678
3 1568.43 1341724
3 1568.43 1340450
3 1568.43 1338892
3 1568.43 1336146
3 1569.12 1334493
3 1569.12 1334337
3 1569.12 1332742
3 1569.12 1329389
3 1569.12 1327038
3 1569.12 1319891
3 1569.66 1308999
3 1569.66 1305205
3 1570.63 1302359
3 1571.12 1302058
3 1571.12 1301085
3 1571.61 1300819
3 1572.52 1300081
3 1572.98 1299697
3 1577.1 1297679
3 1579.24 1296629
3 1581.7 1295473
3 1581.7 1293548
3 1582.48 1450110
3 1582.48 1445611
3 1582.48 1431651
3 1582.48 1421190
3 1582.48 1417086
3 1582.48 1410134
3 1582.48 1408368
3 1582.48 1386331
3 1582.48 1379184
3 1582.48 1376562
3 1582.48 1368376
3 1582.48 1350782
3 1583.43 1350368
3 1584.23 1341200
3 1584.23 1336574
3 1584.23 1329531
3 1584.93 1323176
3 1584.93 1320360
3 1585.5 1319657
3 1586.02 1319568
3 1586.02 1309298
3 1586.02 1307441
3 1587.75 1306463
3 1587.75 1305760
3 1588.57 1304837
3 1588.57 1304805
3 1589.53 1304449
3 1590.03 1302821
3 1590.5 1302690
3 1590.97 1302312
3 1591.43 1300408
3 1591.43 1297281
3 1591.94 1295590
3 1593.59 1295186
3 1595.89 1295055
3 1596.5 1378153
3 1596.5 1361636
3 1596.5 1346359
3 1596.5 1345061
3 1597.02 1329429
3 1597.53 1325860
3 1597.53 1325432
3 1598.08 1325157
3 1606.69 1324597
3 1606.69 1323323
3 1606.69 1321892
3 1607.24 1321273
3 1607.24 1319678
3 1607.24 1319504
3 1607.76 1314723
3 1607.76 1311815
3 1609.52 1310541
3 1609.52 1309721
3 1609.52 1308692
3 1609.52 1307559
3 1610.4 1450779
3 1610.4 1433303
3 1610.4 1427826
3 1610.4 1406339
3 1610.4 1385854
3 1610.4 1378980
3 1610.4 1375547
3 1610.4 1367294
3 1610.4 1362086
3 1610.99 1360420
3 1610.99 1355169
3 1611.66 1352664
3 1611.66 1351108
3 1611.66 1337748
3 1611.66 1333476
3 1611.66 1332059
3 1611.66 1327083
3 1612.55 1322654
3 1612.55 1319070
3 1612.55 1318714
3 1612.55 1318011
3 1612.55 1317475
3 1613.42 1312660
3 1617.55 1311153
3 1618.35 1308911
3 1618.35 1308200
3 1618.35 1306487
3 1618.35 1303906
3 1619.18 1303766
3 1619.18 1302662
3 1619.95 1302531
3 1619.95 1302371
3 1619.95 1301320
3 1620.74 1301202
3 1621.5 1298732
3 1622.27 1297854
3 1624.25 1445776
3 1624.25 1443039
3 1624.25 1433573
3 1624.25 1431178
3 1624.25 1423113
3 1624.25 1411781
3 1624.25 1407473
3 1624.25 1378764
3 1624.82 1370551
3 1624.82 1367632
3 1625.3 1362424
3 1625.3 1352556
3 1625.3 1340955
3 1626.11 1339942
3 1626.11 1339586
3 1626.11 1337434
3 1626.11 1336814
3 1626.11 1333371
3 1626.11 1331755
3 1626.98 1328171
3 1626.98 1327313
3 1628.51 1323191
3 1628.51 1320886
3 1629.29 1320776
3 1629.29 1320478
3 1629.87 1319516
3 1629.87 1318023
3 1630.33 1316934
3 1630.33 1316622
3 1633.98 1314741
3 1634.58 1314182
3 1634.58 1314051
3 1634.58 1313935
3 1634.58 1313232
3 1634.58 1311833
3 1634.58 1310140
3 1634.58 1306022
3 1635.21 1304165
3 1635.71 1299857
3 1635.71 1298962
3 1636.21 1296183
3 1636.68 1296128
3 1637.59 1294316
3 1637.59 1294265
3 1638.06 1438627
3 1638.06 1431584
3 1638.06 1430101
3 1638.06 1418277
3 1638.06 1415452
3 1638.06 1393522
3 1638.06 1377159
3 1638.71 1370627
3 1638.71 1363804
3 1638.71 1355173
3 1638.71 1344037
3 1639.79 1342271
3 1642.17 1341967
3 1642.17 1340263
3 1642.66 1334771
3 1642.66 1332968
3 1642.66 1331134
3 1643.59 1322247
3 1643.59 1317376
3 1644.11 1314331
3 1644.57 1312977
3 1644.57 1311672
3 1644.57 1306567
3 1645.09 1303144
3 1652.13 1440049
3 1652.13 1433688
3 1652.13 1426645
3 1652.13 1416161
3 1652.13 1403750
3 1652.13 1400856
3 1652.13 1385244
3 1652.13 1382438
3 1652.13 1368965
3 1652.13 1366389
3 1652.13 1364623
3 1652.13 1364466
3 1652.79 1361513
3 1652.79 1359747
3 1652.79 1349286
3 1652.79 1345493
3 1652.79 1328845
3 1652.79 1320935
3 1652.79 1317683
3 1652.79 1317552
3 1653.51 1316278
3 1653.51 1312158
3 1654.04 1311572
3 1654.04 1311455
3 1654.04 1306247
3 1654.59 1305660
3 1654.59 1304815
3 1657.61 1301998
3 1658.49 1301788
3 1660.97 1301638
3 1666.15 1421224
3 1666.15 1417362
3 1666.15 1403160
3 1666.15 1397952
3 1666.15 1397155
3 1666.15 1395560
3 1667.04 1387725
3 1667.04 1385152
3 1667.04 1379414
3 1667.04 1369824
3 1667.04 1359121
3 1667.04 1352504
3 1667.04 1349133
3 1667.04 1347262
3 1667.04 1347257
3 1667.95 1343306
3 1667.95 1336175
3 1667.95 1335753
3 1667.95 1332856
3 1668.77 1331416
3 1668.77 1330134
3 1668.77 1329990
3 1668.77 1328223
3 1669.35 1327228
3 1669.35 1325618
3 1669.35 1323908
3 1669.35 1322093
3 1669.35 1319097
3 1670.63 1318709
3 1670.63 1317694
3 1673.72 1312894
3 1673.72 1312763
3 1673.72 1312459
3 1673.72 1311505
3 1674.34 1309812
3 1675.58 1305952
3 1676.17 1304517
3 1676.65 1303344
3 1676.65 1302909
3 1676.65 1302738
3 1676.65 1300933
3 1678.67 1300561
3 1680.49 1411628
3 1680.49 1397906
3 1680.49 1397634
3 1680.49 1391328
3 1680.49 1376656
3 1681.07 1359844
3 1681.07 1356260
3 1681.07 1354558
3 1681.07 1350514
3 1681.07 1350250
3 1681.07 1350033
3 1682.69 1349330
3 1682.69 1345380
3 1685.59 1331204
3 1685.59 1330936
3 1685.59 1330353
3 1685.59 1326862
3 1685.59 1324627
3 1686.29 1324450
3 1687.08 1323747
3 1687.86 1322777
3 1688.64 1322717
3 1689.42 1316930
3 1690.2 1316227
3 1690.8 1316000
3 1690.8 1315455
3 1692.8 1314373
3 1693.33 1313770
3 1694.23 1397535
3 1694.23 1379661
3 1694.23 1361597
3 1694.23 1360756
3 1694.23 1351237
3 1694.23 1346756
3 1694.23 1345206
3 1694.23 1345122
3 1694.23 1341350
3 1694.23 1331517
3 1694.88 1326637
3 1694.88 1326601
3 1694.88 1316090
3 1695.39 1315995
3 1695.99 1315395
3 1695.99 1314852
3 1695.99 1314721
3 1697.94 1312230
3 1697.94 1311549
3 1697.94 1311030
3 1698.77 1309853
3 1699.57 1309722
3 1700.34 1308855
3 1700.34 1305820
3 1701.19 1305402
3 1701.19 1304816
3 1701.19 1304685
3 1705.04 1303699
3 1705.04 1303568
3 1705.04 1303495
3 1705.04 1300521
3 1705.84 1299491
3 1705.84 1299360
3 1706.64 1298261
3 1708.13 1379089
3 1708.13 1374690
3 1708.13 1361461
3 1708.96 1356045
3 1708.96 1351945
3 1708.96 1339276
3 1708.96 1338108
3 1708.96 1331586
3 1708.96 1330312
3 1709.67 1327659
3 1710.19 1327188
3 1710.19 1325893
3 1710.19 1325030
3 1710.72 1323260
3 1710.72 1320730
3 1710.72 1319938
3 1711.31 1318964
3 1711.31 1316973
3 1711.31 1315439
3 1711.31 1315027
3 1713.53 1309717
3 1713.53 1309413
3 1714.09 1307481
3 1714.09 1307250
3 1714.09 1307082
3 1714.09 1306672
3 1714.95 1304074
3 1715.73 1303709
3 1716.83 1302774
3 1716.83 1301134
3 1717.49 1298595
3 1717.49 1297327
3 1722.41 1393387
3 1722.41 1393384
3 1722.41 1380014
3 1722.41 1364894
3 1722.41 1352584
3 1722.41 1348602
3 1722.41 1338853
3 1722.41 1335253
3 1722.41 1330874
3 1722.41 1330743
3 1723.03 1327541
3 1723.03 1326344
3 1723.03 1326141
3 1723.51 1324784
3 1723.51 1322240
3 1724.15 1321537
3 1724.15 1319301
3 1724.15 1317048
3 1724.94 1309539
3 1724.94 1308150
3 1724.94 1305290
3 1725.73 1302671
3 1725.73 1301883
3 1736.37 1404160
3 1736.37 1403457
3 1736.37 1392911
3 1736.37 1390778
3 1736.37 1388810
3 1736.37 1388689
3 1736.37 1382825
3 1737.21 1356425
3 1737.21 1348748
3 1737.21 1344675
3 1737.21 1339721
3 1737.21 1338923
3 1738.05 1335955
3 1738.05 1335573
3 1738.05 1332012
3 1738.93 1330684
3 1739.5 1327007
3 1739.5 1325344
3 1739.5 1324203
3 1739.5 1323759
3 1740.08 1322485
3 1740.08 1322226
3 1743.57 1314943
3 1743.57 1314324
3 1743.57 1313867
3 1744.41 1313647
3 1745.21 1313186
3 1745.21 1310699
3 1746.07 1310288
3 1746.84 1310131
3 1746.84 1309320
3 1748.38 1306914
3 1748.38 1302624
3 1749.07 1301350
3 1749.07 1300552
3 1749.56 1296618
3 1750.19 1397483
3 1750.19 1390499
3 1750.19 1375151
3 1751.07 1374743
3 1751.07 1372977
3 1751.07 1365830
3 1751.94 1363935
3 1751.94 1361331
3 1751.94 1338196
3 1751.94 1335836
3 1752.8 1333495
3 1752.8 1331374
3 1752.8 1322975
3 1753.67 1321875
3 1754.47 1320986
3 1755.69 1319391
3 1757.15 1314427
3 1757.78 1313418
3 1758.56 1311107
3 1759.37 1310333
3 1760.53 1309650
3 1760.53 1307702
3 1760.53 1307561
3 1764.26 1427458
3 1764.26 1416766
3 1764.26 1409619
3 1764.26 1406231
3 1764.26 1405786
3 1765.15 1390497
3 1765.15 1389731
3 1765.15 1388457
3 1765.15 1385086
3 1765.15 1381647
3 1766.02 1381502
3 1766.02 1377645
3 1766.02 1377466
3 1766.02 1371189
3 1766.68 1370876
3 1766.68 1366922
3 1766.68 1361388
3 1766.68 1336412
3 1767.24 1334750
3 1767.24 1333058
3 1767.24 1333048
3 1768.04 1332498
3 1768.04 1331739
3 1768.04 1331146
3 1768.87 1328620
3 1768.87 1327413
3 1768.87 1324747
3 1768.87 1324355
3 1769.45 1323242
3 1769.45 1322473
3 1769.45 1322438
3 1770.79 1316581
3 1771.6 1310931
3 1773.98 1308823
3 1773.98 1308545
3 1774.49 1307147
3 1775.15 1307016
3 1778.25 1430771
3 1778.25 1426184
3 1778.25 1422372
3 1778.25 1416814
3 1778.25 1413042
3 1778.25 1393169
3 1778.25 1386102
3 1779.16 1385698
3 1779.16 1377884
3 1779.16 1362058
3 1779.16 1361345
3 1779.16 1353750
3 1779.16 1346953
3 1779.16 1344842
3 1780.08 1341586
3 1780.08 1341455
3 1780.08 1315467
3 1780.89 1315008
3 1780.89 1307985
3 1782.28 1307240
3 1783.58 1301059
3 1783.58 1299293
3 1783.58 1298318
3 1784.39 1298113
3 1784.96 1297971
3 1784.96 1296731
3 1785.56 1296266
3 1786.5 1294610
3 1787.88 1293449
3 1791.62 1289523
3 1792.14 1368811
3 1792.14 1360412
3 1792.14 1358152
3 1792.14 1354655
3 1792.14 1348903
3 1792.14 1347249
3 1792.14 1343695
3 1792.82 1337780
3 1793.32 1333472
3 1793.32 1329668
3 1793.32 1326532
3 1793.84 1324776
3 1793.84 1324254
3 1793.84 1324130
3 1794.38 1321610
3 1794.85 1320567
3 1795.3 1320436
3 1795.77 1320397
3 1795.77 1319750
3 1798.21 1319181
3 1798.73 1318968
3 1798.73 1314737
3 1798.73 1311002
3 1799.89 1310871
3 1806.39 1463152
3 1806.39 1451586
3 1806.39 1437144
3 1806.39 1436912
3 1806.39 1435638
3 1806.39 1422654
3 1806.39 1420793
3 1806.39 1416394
3 1806.97 1409836
3 1806.97 1396666
3 1806.97 1382672
3 1806.97 1380631
3 1806.97 1366388
3 1807.5 1360146
3 1807.5 1349089
3 1807.5 1346272
3 1808.03 1341905
3 1808.03 1330458
3 1808.03 1329896
3 1808.72 1329146
3 1809.53 1328942
3 1809.53 1328828
3 1810.34 1328444
3 1810.34 1327186
3 1811.14 1324634
3 1811.14 1323360
3 1811.14 1322272
3 1811.97 1320501
3 1811.97 1316675
3 1811.97 1316551
3 1812.78 1315366
3 1812.78 1313900
3 1815.09 1312246
3 1815.67 1311359
3 1818.58 1309933
3 1818.58 1309097
3 1819.1 1305721
3 1819.57 1305351
3 1819.57 1304328
3 1820.15 1385668
3 1820.15 1380963
3 1820.15 1378625
1 1820.15 1359554
3 1820.15 1359190
3 1820.15 1343897
3 1820.15 1343194
3 1820.73 1338225
3 1820.73 1337418
3 1820.73 1335293
3 1820.73 1333176
3 1820.73 1332101
3 1820.73 1328517
3 1821.25 1327064
3 1821.84 1323878
3 1821.84 1320106
3 1821.84 1318036
3 1822.69 1317471
3 1822.69 1313637
3 1822.69 1308560
3 1822.69 1306965
3 1823.52 1306517
3 1830.67 1303776
3 1830.67 1294281
3 1831.46 1293967
3 1832.29 1293895
3 1834.64 1392915
3 1834.64 1374704
3 1834.64 1374001
3 1834.64 1369693
3 1834.64 1367806
3 1834.64 1353302
3 1835.61 1346627
3 1835.61 1342768
3 1835.61 1342000
3 1835.61 1341002
3 1835.61 1339489
3 1836.42 1339160
3 1836.42 1335905
3 1836.42 1332258
3 1836.93 1329479
3 1836.93 1328974
3 1836.93 1328776
3 1836.93 1323720
3 1837.65 1321101
3 1837.65 1317154
3 1838.45 1310166
3 1840.01 1308679
3 1840.84 1305095
3 1842.68 1301235
3 1848.02 1391958
3 1848.02 1391695
3 1848.02 1380359
3 1848.02 1371086
3 1848.02 1368084
3 1848.02 1366489
3 1848.02 1358803
3 1848.02 1357361
3 1848.96 1356798
3 1848.96 1354482
3 1848.96 1351319
3 1848.96 1350357
3 1848.96 1349829
3 1848.96 1349660
3 1848.96 1346628
3 1849.87 1330783
3 1849.87 1329776
3 1849.87 1329017
3 1850.37 1328387
3 1850.37 1328167
3 1850.37 1326980
3 1850.37 1314282
3 1850.37 1310004
3 1850.98 1309637
3 1851.97 1307773
3 1851.97 1307477
3 1852.51 1303768
3 1853.06 1302981
3 1853.06 1301021
3 1853.06 1299022
3 1853.06 1297655
3 1853.56 1295542
3 1853.56 1295436
3 1856.38 1295433
3 1856.38 1291547
3 1856.38 1287317
3 1856.94 1286808
3 1858.73 1282621
3 1858.73 1282084
3 1859.23 1282027
3 1859.23 1280787
3 1859.73 1279838
3 1861.07 1279491
3 1862.01 1417403
3 1862.01 1397294
3 1862.01 1396938
3 1862.01 1392539
3 1862.01 1384071
3 1862.01 1382797
3 1862.01 1360867
3 1862.9 1360335
3 1862.9 1351651
3 1862.9 1350237
3 1862.9 1343157
3 1862.9 1342085
3 1862.9 1341592
3 1862.9 1341081
3 1864.58 1340144
3 1864.58 1339303
3 1865.39 1339227
3 1865.39 1330342
3 1866.2 1322102
3 1866.2 1321212
3 1866.2 1317435
3 1876.14 1435891
3 1876.14 1397400
3 1876.14 1389385
3 1876.14 1369759
3 1876.14 1366255
3 1876.14 1364798
3 1876.14 1361900
3 1876.14 1352639
3 1876.14 1351974
3 1876.76 1347431
3 1876.76 1346325
3 1876.76 1343659
3 1876.76 1342385
3 1877.48 1335342
3 1877.48 1331262
3 1877.48 1331131
3 1878.3 1325763
3 1879.21 1322145
3 1879.99 1321455
3 1885.72 1320547
3 1887.89 1318904
3 1887.89 1318238
3 1887.89 1316461
3 1888.39 1313907
3 1888.93 1313257
3 1890.31 1419384
3 1890.31 1404056
3 1890.31 1403031
3 1890.31 1398632
3 1890.31 1384819
3 1890.31 1360132
3 1890.87 1359985
3 1890.87 1355621
3 1890.87 1351926
3 1890.87 1350671
3 1890.87 1350600
3 1891.4 1332925
3 1891.4 1332794
3 1891.4 1331470
3 1891.93 1330196
3 1891.93 1326018
3 1891.93 1324988
3 1891.93 1318318
3 1892.93 1317615
3 1893.41 1304540
3 1895.68 1300581
3 1896.28 1297633
3 1897.24 1297456
3 1898.68 1297394
3 1898.68 1296182
3 1904.07 1431650
3 1904.07 1417837
3 1904.07 1406716
3 1904.07 1396883
3 1904.07 1392731
3 1904.07 1391114
3 1904.07 1373646
3 1904.07 1362218
3 1904.67 1360944
3 1904.67 1359903
3 1904.67 1356578
3 1904.67 1355504
3 1905.25 1350383
3 1905.25 1347907
3 1905.25 1347856
3 1905.25 1342508
3 1905.25 1341331
3 1905.25 1336449
3 1905.25 1332337
3 1906.15 1331638
3 1906.15 1327378
3 1906.15 1326583
3 1906.15 1324821
3 1907.63 1320513
3 1908.14 1318747
3 1910.08 1314004
3 1911.7 1312835
3 1918.68 1471247
3 1918.68 1419706
3 1918.68 1413971
3 1918.68 1410199
3 1918.68 1407382
3 1918.68 1407251
3 1919.58 1404190
3 1919.58 1402635
3 1919.58 1396881
3 1919.58 1385606
3 1919.58 1384671
3 1919.58 1382905
3 1920.46 1379907
3 1920.46 1374363
3 1921.29 1364754
3 1921.29 1362230
3 1921.29 1348757
3 1921.29 1341439
3 1922.15 1337055
3 1922.15 1320870
3 1922.15 1318991
3 1922.15 1316882
3 1932.38 1475596
3 1932.38 1443819
3 1932.38 1427707
3 1932.38 1420251
3 1932.38 1408732
3 1932.38 1390544
3 1932.38 1384328
3 1932.38 1351984
3 1932.38 1345201
3 1933.02 1343927
3 1933.02 1341955
3 1933.02 1341877
3 1933.02 1331630
3 1933.02 1323869
3 1933.02 1323637
3 1933.02 1323018
3 1933.68 1321041
3 1933.68 1316998
3 1934.16 1316071
3 1934.16 1311672
3 1935.72 1309649
3 1935.72 1304700
3 1935.72 1304353
3 1935.72 1302683
3 1939.71 1298217
3 1939.71 1296943
3 1942.95 1293834
3 1943.85 1291251
3 1946.14 1465466
1 1946.14 1462465
3 1946.14 1455761
3 1946.14 1455058
3 1946.14 1449342
3 1946.14 1445570
3 1946.14 1441171
3 1946.95 1424359
3 1946.95 1402232
3 1946.95 1401886
3 1946.95 1388606
3 1946.95 1380190
3 1947.57 1377914
3 1947.57 1374199
3 1947.57 1368894
3 1947.57 1363244
3 1948.14 1361970
3 1948.14 1361393
3 1948.14 1358838
3 1948.14 1358135
3 1948.66 1357225
3 1948.66 1352593
3 1948.66 1345052
3 1948.66 1341261
3 1948.66 1339300
3 1948.66 1336483
3 1960.06 1416530
3 1960.06 1412222
3 1960.06 1397964
3 1960.06 1395820
3 1960.06 1387460
3 1960.06 1381014
3 1960.06 1375789
3 1960.06 1372525
3 1960.06 1363802
3 1960.06 1363300
3 1960.06 1359494
3 1960.06 1358726
3 1960.06 1348255
3 1961.12 1346489
3 1961.12 1342905
3 1961.12 1337959
3 1961.12 1329807
3 1961.12 1326035
3 1961.87 1320465
3 1961.87 1314900
3 1961.87 1312066
3 1961.87 1311872
3 1961.87 1308505
3 1962.51 1302951
3 1962.51 1296769
3 1971.41 1296717
3 1973.42 1294548
3 1974.24 1455456
3 1974.24 1453728
3 1974.24 1453130
3 1974.24 1417237
3 1974.24 1415578
3 1974.24 1407299
3 1974.24 1406025
3 1974.24 1397036
3 1974.24 1394666
3 1974.24 1383809
3 1974.24 1376551
3 1974.24 1375648
3 1974.24 1372842
3 1974.24 1365130
3 1974.24 1361857
3 1975.27 1360846
3 1975.27 1360049
3 1975.27 1355253
3 1975.27 1349200
3 1975.27 1341351
3 1975.27 1341212
3 1975.27 1340812
3 1975.27 1337228
3 1975.27 1330939
3 1975.27 1328908
3 1976.98 1327105
3 1977.77 1321024
3 1977.77 1320964
3 1978.6 1319388
3 1978.6 1318114
3 1978.6 1316563
3 1978.6 1311373
3 1979.95 1310796
3 1979.95 1309063
3 1979.95 1308932
3 1979.95 1302944
3 1980.47 1300533
3 1980.47 1299191
3 1980.94 1298693
3 1984.05 1297498
3 1988.64 1401374
3 1988.64 1392975
3 1988.64 1387984
3 1988.64 1386889
3 1988.64 1386278
3 1988.64 1385954
3 1989.51 1384506
3 1989.51 1380007
3 1989.51 1363588
3 1989.51 1360004
3 1989.51 1359042
3 1989.51 1354522
3 1989.51 1352177
3 1990.69 1350793
3 1990.69 1350662
3 1991.19 1349496
3 1991.7 1343161
3 1991.7 1332400
3 1991.7 1329348
3 1992.76 1327766
3 1992.76 1325006
3 1992.76 1322825
3 1992.76 1322416
3 1993.28 1322200
3 1993.28 1313860
3 1994.67 1311574
3 1994.67 1310174
3 1996.13 1308183
3 1997.57 1306543
3 1997.57 1305675
3 1998.14 1304948
3 1998.7 1303132
3 1998.7 1301011
3 1998.7 1300978
3 2002.26 1414234
3 2002.26 1410462
3 2002.26 1404684
3 2002.26 1396649
3 2002.26 1392789
3 2002.26 1391182
3 2002.26 1382093
3 2002.26 1366789
3 2002.26 1364689
3 2003.13 1362023
3 2003.13 1352985
3 2003.13 1351219
3 2003.13 1348181
3 2003.13 1345350
3 2003.13 1341813
3 2003.13 1340142
3 2003.67 1338476
3 2003.67 1335743
3 2004.54 1334439
3 2005.41 1330351
3 2006.01 1327566
3 2006.01 1327154
3 2006.01 1326733
3 2006.84 1320981
3 2006.84 1318883
3 2011.16 1318277
3 2011.96 1317003
3 2015.36 1315773
3 2016.42 1425772
3 2016.42 1421464
3 2016.42 1419869
3 2016.42 1379576
3 2016.42 1369281
3 2017.01 1369150
3 2017.01 1349742
3 2017.01 1349737
3 2017.01 1341592
3 2017.01 1340335
3 2017.55 1336446
3 2018.28 1321474
3 2018.28 1313329
3 2019.11 1313266
3 2019.11 1310783
3 2019.11 1307011
3 2019.95 1302703
3 2024.2 1299534
3 2024.99 1298668
3 2025.8 1296274
3 2025.8 1293840
3 2026.62 1293630
3 2027.63 1293024
3 2028.63 1289217
3 2030.22 1420404
3 2030.22 1380694
3 2030.22 1364330
3 2030.22 1359931
3 2030.22 1359315
3 2030.22 1350288
3 2031.12 1344539
3 2031.12 1341705
3 2031.12 1336559
3 2031.12 1334077
3 2031.12 1332947
3 2031.97 1318545
3 2033.54 1318319
3 2033.54 1313798
3 2033.54 1313506
3 2034.32 1312536
3 2035.58 1310592
3 2035.58 1305083
3 2040.32 1302210
3 2040.32 1297002
3 2044.24 1380258
3 2044.24 1376674
3 2044.24 1358097
3 2044.24 1356247
3 2044.24 1352849
3 2044.24 1346299
3 2044.24 1336796
3 2044.24 1336339
3 2045.04 1332992
3 2045.04 1328904
3 2045.58 1324996
3 2046.06 1323997
3 2046.06 1318613
3 2046.06 1318518
3 2046.66 1314977
3 2046.66 1308624
3 2047.22 1298448
3 2047.22 1297174
3 2048.18 1296685
3 2049.14 1296501
3 2050.62 1296271
3 2050.62 1296140
3 2057.59 1295411
3 2058.38 1465743
3 2058.38 1435505
3 2058.38 1428748
3 2058.38 1421965
3 2058.38 1421937
3 2058.38 1408464
3 2058.38 1396387
3 2058.38 1385755
3 2059.18 1378712
3 2059.18 1339585
3 2059.18 1335416
3 2059.18 1331108
3 2059.18 1330078
3 2059.7 1329507
3 2059.7 1328610
3 2060.31 1326844
3 2061.12 1325579
3 2061.12 1321180
3 2061.12 1316540
3 2061.91 1315997
3 2061.91 1313664
3 2062.67 1312254
3 2063.14 1305498
3 2063.14 1305304
3 2063.14 1303538
3 2063.14 1302118
3 2063.85 1300999
3 2064.47 1300502
3 2064.47 1297222
3 2064.47 1295662
3 2064.47 1294630
3 2065.49 1290322
3 2065.49 1289117
3 2065.99 1285345
3 2065.99 1283089
3 2072.23 1487728
3 2072.23 1439404
3 2072.23 1413109
3 2072.23 1404692
3 2072.23 1396093
3 2072.23 1394746
3 2072.23 1390920
3 2072.23 1369185
3 2072.23 1368038
3 2072.23 1354565
3 2072.23 1348423
3 2072.85 1347856
3 2072.85 1346090
3 2072.85 1328119
3 2072.85 1319555
3 2073.37 1305732
3 2075.67 1305069
3 2075.67 1303678
3 2075.67 1302667
3 2076.52 1301473
3 2076.52 1301008
3 2078.12 1300598
3 2078.88 1300416
3 2079.46 1300112
3 2079.46 1298553
3 2079.46 1297720
3 2079.46 1297468
3 2080.52 1294245
3 2081.32 1293328
3 2081.32 1291927
3 2081.97 1291711
3 2082.42 1290946
3 2082.9 1289260
3 2086.51 1430104
3 2086.51 1415732
3 2086.51 1376605
3 2086.51 1371879
3 2086.51 1352270
3 2086.51 1341506
3 2086.51 1337107
3 2086.51 1333031
3 2087.17 1332274
3 2087.99 1331047
3 2087.99 1322122
3 2088.87 1320749
3 2088.87 1318963
3 2088.87 1308750
3 2089.7 1308240
3 2089.7 1306916
3 2089.7 1302071
3 2090.42 1301086
3 2090.42 1299320
3 2090.9 1298844
3 2100.3 1405709
3 2100.3 1397398
3 2100.3 1382685
3 2100.3 1379028
3 2100.3 1362157
3 2100.3 1359730
3 2100.3 1354128
3 2100.3 1353738
3 2100.3 1345670
3 2100.3 1345013
3 2101.25 1342086
3 2101.25 1332882
3 2101.25 1331504
3 2101.25 1330397
3 2101.25 1326813
3 2102.09 1324799
3 2102.09 1322278
3 2102.09 1321933
3 2102.09 1320167
3 2102.09 1319464
3 2103.11 1317478
3 2104.04 1313425
3 2104.04 1308790
3 2105.43 1304428
3 2105.43 1303783
3 2105.43 1303542
3 2108.42 1302312
3 2108.95 1301956
3 2109.89 1300862
3 2109.89 1299614
3 2109.89 1298622
3 2109.89 1298019
3 2110.67 1297264
3 2110.67 1297133
3 2114.48 1389898
3 2114.48 1388490
3 2114.48 1385656
3 2114.48 1384899
3 2114.48 1382333
3 2114.48 1379701
3 2114.48 1375929
3 2114.48 1374500
3 2114.48 1373957
3 2114.48 1371140
3 2114.48 1370259
3 2115.43 1370144
3 2115.43 1368693
3 2115.43 1364385
3 2115.43 1362116
3 2115.43 1357940
3 2116.07 1357027
3 2116.07 1353694
3 2116.71 1351564
3 2116.71 1341731
3 2116.71 1337749
3 2117.53 1329943
3 2117.53 1329063
3 2117.53 1328360
3 2117.53 1325526
3 2119.88 1325395
3 2121.41 1324947
3 2122.19 1322641
3 2122.19 1322521
3 2124.64 1321219
3 2125.34 1320659
3 2125.34 1320632
3 2126.2 1320251
3 2126.2 1319548
3 2127.07 1313090
1 2128.13 1478972
3 2128.13 1466112
3 2128.13 1447038
3 2128.13 1439107
3 2128.13 1433905
3 2128.13 1429597
3 2128.13 1390470
3 2128.13 1379180
3 2128.13 1378208
3 2128.13 1369686
3 2128.13 1367920
3 2128.78 1367453
3 2128.78 1361673
3 2128.78 1359843
3 2129.64 1359038
3 2129.64 1355454
3 2130.7 1347690
3 2130.7 1345367
3 2131.57 1344379
3 2132.37 1342613
3 2133.33 1341749
3 2135.03 1333080
3 2136.49 1329580
3 2136.49 1326527
3 2136.49 1325272
3 2136.49 1322354
3 2136.49 1320775
3 2137.5 1319501
3 2137.5 1319493
3 2137.98 1317741
3 2138.89 1317464
3 2139.35 1304120
3 2139.35 1301849
3 2139.35 1301718
3 2139.88 1298495
3 2142.34 1398798
3 2142.34 1390022
3 2142.34 1380386
3 2142.34 1379853
3 2142.34 1370772
3 2142.34 1362824
3 2142.34 1357633
3 2142.34 1353560
3 2143.16 1352260
3 2143.16 1349618
3 2143.99 1345923
3 2143.99 1345709
3 2144.83 1343943
3 2144.83 1332955
3 2144.83 1332409
3 2144.83 1328376
3 2144.83 1326521
3 2145.67 1323612
3 2145.67 1320338
3 2145.67 1316030
3 2145.67 1315261
3 2145.67 1303925
3 2145.67 1302521
3 2146.52 1302469
3 2149.05 1302309
3 2149.05 1301228
3 2149.05 1299257
3 2149.94 1298342
3 2149.94 1298071
3 2151.39 1296778
3 2156.53 1420760
3 2156.53 1417986
3 2156.53 1410839
3 2156.53 1398594
3 2156.53 1385036
3 2157.21 1384781
3 2157.21 1366628
3 2157.21 1352194
3 2157.21 1348694
3 2157.21 1344650
3 2158.04 1344511
3 2158.04 1341066
3 2158.04 1339300
3 2159.72 1333834
3 2159.72 1332115
3 2159.72 1329001
3 2160.55 1325530
3 2160.55 1324599
3 2162.17 1323850
3 2162.17 1323147
3 2162.17 1320954
3 2163.05 1314926
3 2163.85 1309124
3 2164.39 1308527
3 2164.39 1308228
3 2164.39 1308042
3 2164.88 1306630
3 2164.88 1303643
3 2165.67 1302409
3 2168 1302369
3 2170.06 1418939
3 2170.06 1409103
3 2170.06 1404704
3 2170.06 1398040
3 2170.06 1389641
3 2170.06 1389510
3 2170.06 1373072
3 2170.06 1357744
3 2170.62 1351368
3 2170.62 1342539
3 2170.62 1336417
3 2170.62 1329374
3 2171.17 1319844
3 2171.17 1317708
3 2171.17 1315746
3 2171.67 1312928
3 2171.67 1311071
3 2171.67 1309581
3 2172.7 1308634
3 2172.7 1307588
3 2172.7 1306939
3 2174.18 1306719
3 2175.09 1305445
3 2178.87 1304617
3 2178.87 1304486
3 2178.87 1303212
3 2178.87 1302044
3 2184.58 1433116
3 2184.58 1414042
3 2184.58 1399790
3 2184.58 1395291
3 2184.58 1360674
3 2184.58 1358841
3 2184.58 1357075
3 2184.58 1348914
3 2185.19 1343447
3 2185.19 1342636
3 2185.83 1334400
3 2185.83 1333073
3 2186.43 1332411
3 2186.43 1329769
3 2187.03 1321969
3 2187.03 1321922
3 2187.03 1321185
3 2187.03 1318575
3 2187.03 1316059
3 2187.03 1311751
3 2187.67 1310204
3 2188.26 1309362
3 2188.26 1307146
3 2188.26 1306906
3 2188.26 1302661
3 2188.26 1302570
3 2191.91 1300235
3 2191.91 1298469
3 2198.06 1436601
3 2198.06 1429943
3 2198.06 1414505
3 2198.06 1397923
3 2198.06 1391736
3 2198.06 1388506
3 2198.06 1384107
3 2198.06 1379799
3 2198.06 1376215
3 2198.99 1372692
3 2198.99 1369172
3 2198.99 1364900
3 2198.99 1355067
3 2198.99 1353793
3 2198.99 1353727
3 2198.99 1350680
3 2198.99 1347847
3 2199.64 1331428
3 2199.64 1319396
3 2200.45 1318486
3 2200.98 1315898
3 2200.98 1315135
3 2200.98 1313825
3 2201.48 1310752
3 2201.48 1310049
3 2201.48 1309321
3 2201.99 1305741
3 2201.99 1304113
3 2201.99 1301910
3 2201.99 1299817
3 2203.63 1298336
3 2203.63 1298246
3 2212.35 1430765
3 2212.35 1430738
3 2212.35 1430062
3 2212.35 1415239
3 2212.35 1394140
3 2212.35 1390802
3 2212.35 1389869
3 2212.35 1388593
3 2212.35 1380881
3 2212.35 1376064
3 2212.35 1375576
3 2213.33 1375120
3 2213.33 1362851
3 2213.33 1357807
3 2213.33 1345589
3 2213.33 1337111
3 2214.21 1336705
3 2214.21 1336147
3 2215.04 1334746
3 2215.04 1330030
3 2215.04 1329327
3 2215.04 1322755
3 2215.04 1322201
3 2215.04 1315482
3 2215.91 1314742
3 2216.75 1312601
3 2217.57 1310411
3 2218.37 1309923
3 2218.9 1309708
3 2226.7 1358897
3 2226.7 1357791
3 2226.7 1357711
3 2226.7 1349430
3 2227.56 1342368
3 2227.56 1341949
3 2227.56 1340675
3 2227.56 1333031
3 2228.39 1332429
3 2228.39 1330171
3 2228.95 1323652
3 2228.95 1319253
3 2229.42 1316656
3 2230.85 1316436
3 2230.85 1315573
3 2230.85 1315533
3 2230.85 1315518
3 2231.36 1312951
3 2240.69 1417425
3 2240.69 1397226
3 2240.69 1393531
3 2240.69 1384463
3 2240.69 1382697
3 2240.69 1374851
3 2240.69 1374795
3 2241.43 1368439
3 2241.43 1359539
3 2241.43 1358571
3 2241.43 1356360
3 2241.43 1347976
3 2242.06 1337979
3 2242.06 1336961
3 2242.06 1334207
3 2242.06 1333512
3 2242.92 1330502
3 2242.92 1329874
3 2242.92 1328181
3 2242.92 1327776
3 2243.76 1327746
3 2243.76 1327733
3 2244.54 1325168
3 2244.54 1324743
3 2245.31 1317282
3 2245.31 1314616
3 2245.31 1313331
3 2245.31 1313311
3 2246.43 1313043
3 2246.43 1311059
3 2246.43 1310120
3 2246.43 1308354
3 2254.25 1410896
3 2254.25 1401063
3 2254.25 1389579
3 2254.25 1372417
3 2254.25 1370665
3 2254.25 1369786
3 2254.25 1368899
3 2254.25 1366432
3 2254.25 1364383
3 2254.25 1354928
3 2255.18 1344929
3 2255.18 1338889
3 2255.66 1330759
3 2256.31 1328520
3 2256.31 1328389
3 2256.31 1327557
3 2257.14 1322544
3 2257.79 1320435
3 2258.26 1319927
3 2258.26 1312878
3 2258.26 1312153
3 2258.26 1311283
3 2259.08 1307699
3 2263.75 1306310
3 2263.75 1299679
3 2264.27 1299548
3 2264.73 1298201
3 2264.73 1295940
3 2266.12 1293848
3 2266.12 1292906
3 2266.86 1292052
3 2268.41 1443316
3 2268.41 1441697
3 2268.41 1430235
3 2268.41 1428536
3 2268.41 1419011
3 2268.41 1391585
3 2268.41 1383311
3 2268.41 1381752
3 2268.41 1370051
3 2268.41 1365743
3 2268.41 1361413
3 2269.39 1357697
3 2269.39 1350746
3 2269.39 1349726
3 2269.39 1336307
3 2269.39 1334631
3 2270.26 1334128
3 2270.26 1331632
3 2270.26 1331228
3 2270.96 1330493
3 2270.96 1329552
3 2271.45 1327672
3 2271.45 1326077
3 2272.31 1322305
3 2272.31 1320263
3 2273.3 1320132
3 2273.3 1318541
3 2273.3 1314042
3 2273.3 1310927
3 2274.36 1310224
3 2274.36 1307114
3 2275.29 1303273
3 2275.29 1303142
3 2275.8 1302482
3 2277.97 1300583
3 2282.71 1434593
3 2282.71 1415618
3 2282.71 1392723
3 2282.71 1383024
3 2282.71 1372167
3 2282.71 1371792
3 2283.61 1371110
3 2283.61 1370342
1 2283.61 1368792
3 2283.61 1354969
3 2284.44 1353924
3 2284.44 1348542
3 2284.44 1339852
3 2284.44 1335992
3 2284.44 1333467
3 2284.44 1331701
3 2284.44 1330427
3 2285.31 1327954
3 2286.09 1322377
3 2286.82 1321674
3 2287.28 1320513
3 2287.28 1319239
3 2287.28 1318093
3 2287.28 1317368
3 2287.81 1317237
3 2287.81 1314778
3 2287.81 1314420
3 2288.3 1314075
3 2294.36 1312239
3 2296.46 1407209
3 2296.46 1398587
3 2297.3 1384699
3 2297.3 1377323
3 2297.3 1363184
3 2297.3 1358348
3 2297.3 1356669
3 2297.3 1343473
3 2298.64 1334169
3 2298.64 1332400
3 2298.64 1325181
3 2299.14 1324572
3 2299.14 1324533
3 2299.62 1322707
3 2299.62 1322114
3 2299.62 1322033
3 2301.1 1318838
3 2301.1 1315066
3 2301.1 1311031
3 2301.1 1309281
3 2301.94 1307362
3 2301.94 1305906
3 2309.75 1303133
3 2309.75 1302250
3 2310.24 1477043
3 2310.24 1464158
3 2310.24 1463516
3 2310.24 1440621
3 2310.24 1420517
3 2310.24 1419719
3 2310.24 1406621
3 2310.24 1392808
3 2310.24 1375502
3 2310.24 1371112
3 2311.05 1359765
3 2311.05 1355247
3 2311.05 1348911
3 2311.05 1348204
3 2311.05 1344922
3 2311.05 1339215
3 2311.92 1336422
3 2311.92 1332990
3 2312.74 1328682
3 2312.74 1322319
3 2312.74 1320724
3 2312.74 1317736
3 2313.57 1313337
3 2314.23 1312541
3 2314.71 1312201
3 2314.71 1310927
3 2314.71 1303884
3 2316.44 1302214
3 2316.44 1301452
3 2316.44 1299782
3 2317.27 1294532
3 2317.27 1293818
3 2317.27 1291716
3 2320.92 1291675
3 2320.92 1287532
3 2321.82 1286375
3 2321.82 1286244
3 2322.41 1285741
3 2322.99 1284720
3 2323.93 1284007
3 2324.41 1439895
3 2324.41 1438129
3 2324.41 1420405
3 2324.41 1416953
3 2324.93 1411164
3 2324.93 1395836
3 2324.93 1393233
3 2324.93 1393023
3 2324.93 1391853
3 2324.93 1391549
1 2324.93 1380299
3 2324.93 1379634
3 2324.93 1367662
3 2325.58 1348225
3 2325.58 1342386
3 2325.58 1340561
3 2325.58 1340430
3 2325.58 1334586
3 2325.58 1334280
3 2326.13 1333259
3 2326.13 1328069
3 2326.64 1325071
3 2326.64 1322237
3 2327.15 1321540
3 2327.15 1317738
3 2333.02 1317335
3 2333.87 1317252
3 2333.87 1314896
3 2333.87 1313924
3 2333.87 1313558
3 2338.11 1420851
3 2338.11 1414681
3 2338.11 1396531
3 2338.11 1396310
3 2338.11 1395981
3 2338.11 1380664
3 2338.11 1377956
3 2338.11 1372748
3 2339.08 1357917
3 2339.08 1353764
3 2339.08 1348012
3 2339.91 1343722
3 2341.33 1342807
3 2342.15 1338408
3 2342.15 1336451
3 2342.15 1331542
3 2342.98 1330579
3 2342.98 1330304
3 2342.98 1326271
3 2342.98 1323437
3 2343.84 1320373
3 2343.84 1319405
3 2345.8 1319284
3 2346.3 1318823
3 2346.3 1315823
3 2346.8 1314363
3 2346.8 1307807
3 2346.8 1306533
3 2347.29 1304761
3 2347.29 1304717
3 2347.29 1301883
3 2347.84 1301880
3 2347.84 1301684
3 2348.33 1301308
3 2352.25 1391068
3 2352.25 1389794
3 2352.25 1380867
3 2352.25 1370720
3 2352.25 1364864
3 2352.25 1361360
3 2352.25 1355025
3 2352.25 1349939
3 2352.25 1331919
3 2352.25 1328174
3 2352.25 1327104
3 2353.08 1325864
3 2353.08 1321438
3 2353.88 1316509
3 2353.88 1316346
3 2354.68 1310637
3 2354.68 1302691
3 2354.68 1302587
3 2355.38 1296992
3 2357.3 1295850
3 2357.3 1294138
3 2366.71 1435851
3 2366.71 1425068
3 2366.71 1391986
3 2366.71 1387655
3 2366.71 1378850
3 2366.71 1378052
3 2366.71 1376194
3 2366.71 1369606
3 2367.65 1354428
3 2367.65 1353177
3 2367.65 1342982
3 2367.65 1342893
3 2367.65 1342525
3 2368.49 1340963
3 2368.49 1339457
3 2368.49 1339277
3 2368.49 1338324
3 2369.24 1337764
3 2369.24 1335292
3 2369.24 1333641
3 2369.24 1328801
3 2369.24 1323963
3 2369.76 1323832
3 2370.31 1321057
3 2370.31 1312262
3 2370.31 1310667
3 2371.14 1309699
3 2371.14 1306771
3 2371.14 1306167
3 2372.03 1303946
3 2373.62 1300286
3 2373.62 1300155
3 2374.46 1299990
3 2375.01 1297419
3 2375.49 1297085
3 2375.97 1296592
3 2375.97 1296261
3 2375.97 1296130
3 2380.47 1435202
3 2380.47 1430147
3 2380.47 1384655
3 2380.47 1373418
3 2380.47 1369110
3 2380.47 1368531
3 2380.47 1366388
3 2381.39 1365114
3 2381.39 1355638
3 2381.39 1355583
3 2381.39 1345750
3 2382.28 1344807
3 2382.28 1343041
3 2382.28 1339934
3 2382.28 1338052
3 2382.28 1332222
3 2383.6 1331643
3 2383.6 1331498
3 2383.6 1331367
3 2384.63 1330610
3 2384.63 1327004
3 2385.13 1326285
3 2385.13 1317918
3 2385.13 1316170
3 2388.57 1314191
3 2388.57 1312917
3 2388.57 1311530
3 2389.12 1311450
3 2389.12 1311071
3 2389.12 1309141
3 2389.81 1308438
3 2390.86 1308387
3 2394.45 1436111
3 2394.45 1418767
3 2394.45 1395999
3 2394.45 1367279
3 2394.45 1360440
3 2394.45 1356132
3 2394.45 1351742
3 2395.16 1345236
3 2395.16 1344077
3 2395.16 1336882
3 2395.16 1332932
3 2395.16 1330264
3 2396.01 1318760
3 2396.01 1312221
3 2396.01 1308372
3 2396.89 1307822
3 2396.89 1306383
3 2396.89 1304928
3 2397.69 1304502
3 2398.49 1301077
3 2399.25 1300946
3 2399.25 1299168
3 2399.25 1298833
3 2400.63 1298327
3 2401.14 1297057
3 2402.58 1296474
3 2403.05 1295771
3 2405.18 1295581
3 2405.18 1295025
3 2406.78 1293259
3 2408.33 1459147
3 2408.33 1454748
3 2408.33 1450687
3 2408.33 1445214
3 2408.33 1425402
3 2408.33 1416413
3 2408.33 1410416
3 2408.33 1394772
3 2409.24 1387530
3 2409.24 1386232
3 2409.24 1382460
3 2409.24 1378666
3 2409.24 1376524
3 2409.24 1362802
3 2410.18 1356744
3 2410.18 1354417
3 2410.18 1350975
3 2410.18 1329661
3 2410.18 1326259
3 2410.18 1324106
3 2410.18 1323251
3 2410.18 1322254
3 2410.97 1318670
3 2410.97 1309996
3 2410.97 1308837
3 2412.55 1306532
3 2420.9 1305436
3 2421.66 1304839
3 2422.44 1417706
3 2422.44 1415873
3 2422.44 1413784
3 2422.44 1368292
3 2422.44 1359303
3 2422.44 1344031
3 2422.44 1338595
3 2423.42 1337132
3 2423.42 1330441
3 2424.26 1324040
3 2425.83 1319418
3 2426.64 1316628
3 2427.66 1314549
3 2427.66 1313614
3 2428.32 1310246
3 2428.32 1309623
3 2429.37 1307527
3 2429.37 1305124
3 2429.37 1303432
3 2429.37 1302292
3 2430.11 1302161
3 2431.05 1301942
3 2431.05 1300176
3 2432.51 1299916
3 2436.24 1404605
3 2436.24 1404488
3 2436.24 1366797
3 2436.24 1364230
3 2436.24 1354764
3 2436.24 1343147
3 2436.24 1339830
3 2436.24 1339620
3 2436.24 1338761
3 2436.24 1334303
3 2436.24 1333506
3 2437.02 1332498
3 2437.49 1332367
3 2437.49 1331244
3 2438.01 1330199
3 2438.01 1329649
3 2438.53 1327900
3 2438.53 1324991
3 2438.53 1322229
3 2439.28 1320275
3 2439.28 1318873
3 2440.03 1318776
3 2440.03 1314565
3 2440.58 1309181
3 2441.52 1308713
3 2441.52 1306551
3 2441.99 1305129
3 2441.99 1302583
3 2441.99 1300509
3 2450.57 1430418
3 2450.57 1423677
3 2450.57 1410912
3 2450.57 1399589
3 2450.57 1384299
3 2450.57 1382149
3 2450.57 1372005
3 2450.57 1369996
3 2451.54 1363879
3 2451.54 1359597
3 2451.54 1358894
3 2452.68 1353015
3 2452.68 1346210
3 2452.68 1345388
3 2452.68 1344444
3 2453.22 1342849
3 2453.22 1340805
3 2453.73 1338706
3 2454.2 1338350
3 2456.39 1333433
3 2456.39 1332987
3 2457.2 1331921
3 2457.2 1330425
3 2457.93 1329617
3 2458.43 1328330
3 2458.43 1328014
3 2458.95 1324093
3 2460.08 1324080
3 2461.24 1322806
3 2464.23 1403699
3 2464.23 1386762
3 2464.23 1368698
3 2464.23 1358399
3 2464.23 1338728
3 2464.23 1335504
3 2464.23 1327903
3 2464.97 1326751
3 2466.35 1323052
3 2466.84 1322751
3 2466.84 1320002
3 2467.32 1315620
3 2467.86 1315294
3 2468.64 1313362
3 2471.69 1313090
3 2473.53 1311073
3 2473.98 1310448
3 2474.89 1307996
3 2475.78 1307797
3 2478.54 1396560
3 2478.54 1382526
3 2478.54 1382504
3 2478.54 1382373
3 2478.54 1377534
3 2479.46 1367566
3 2479.46 1362223
3 2479.46 1359676
3 2480.47 1359335
3 2480.47 1358826
3 2480.47 1358649
3 2480.47 1347221
3 2481.48 1340411
3 2481.48 1338750
3 2481.48 1333565
3 2482.14 1329705
3 2482.14 1322754
3 2482.62 1305669
3 2482.62 1303680
3 2482.62 1301809
3 2482.62 1300756
3 2483.31 1300678
3 2483.9 1300278
3 2484.48 1297824
3 2485.47 1297366
3 2485.47 1294198
3 2487.01 1293561
3 2487.01 1292603
3 2492.25 1365324
3 2492.25 1360918
3 2492.25 1359000
3 2492.25 1355220
3 2492.25 1343468
3 2492.25 1340790
3 2492.25 1328327
3 2492.25 1326949
3 2492.85 1325637
3 2492.85 1325526
3 2492.85 1323055
3 2493.34 1322964
3 2494.74 1320189
3 2494.74 1312131
3 2494.74 1312019
3 2494.74 1310282
3 2494.74 1309218
3 2495.31 1307301
3 2495.31 1300887
3 2495.31 1300184
3 2497.04 1299824
3 2498.59 1297044
3 2499.09 1295511
3 2499.57 1295449
3 2506.14 1400041
3 2506.14 1391425
3 2506.14 1386710
3 2506.14 1369858
3 2506.14 1362055
3 2506.14 1361795
3 2506.14 1356689
3 2506.14 1351564
3 2506.14 1350290
3 2507.09 1349513
3 2507.09 1339537
3 2507.09 1339193
3 2507.09 1337771
3 2507.09 1337677
3 2507.96 1335018
3 2507.96 1334189
3 2508.74 1333486
3 2508.74 1332688
3 2508.74 1330517
3 2508.74 1329575
3 2509.61 1328282
3 2509.61 1324477
3 2516.83 1319970
3 2517.31 1317985
3 2517.31 1316056
3 2518.25 1314444
3 2518.25 1314406
3 2518.74 1313703
3 2520.69 1403812
3 2520.69 1395274
3 2520.69 1390275
3 2520.69 1386691
3 2520.69 1385989
3 2520.69 1384253
3 2521.59 1382987
3 2521.59 1379215
3 2521.59 1377620
3 2521.59 1376489
3 2521.59 1374270
3 2521.59 1369056
3 2521.59 1364791
3 2521.59 1360483
3 2521.59 1353528
3 2521.59 1351095
3 2522.3 1348784
3 2522.3 1342696
3 2522.3 1338297
3 2522.3 1338260
3 2522.3 1336144
3 2522.3 1328340
3 2522.83 1327489
3 2522.83 1324032
3 2522.83 1321494
3 2522.83 1315260
3 2522.83 1313346
3 2522.83 1311751
3 2525.4 1310477
3 2525.4 1309203
3 2526.23 1308658
3 2526.23 1307311
3 2527.03 1306892
3 2528.62 1305521
3 2528.62 1301069
3 2532.49 1299328
3 2533.17 1296773
3 2533.17 1296631
3 2533.17 1293952
3 2533.69 1291753
3 2533.69 1291307
3 2534.22 1444864
3 2534.22 1432296
3 2534.22 1428429
3 2534.22 1423897
3 2534.22 1416941
3 2534.22 1413520
3 2534.22 1376121
3 2534.22 1375727
3 2534.22 1371813
3 2534.22 1362010
3 2534.8 1353588
3 2535.26 1352544
3 2535.26 1348644
3 2535.83 1347333
3 2535.83 1342936
3 2535.83 1342736
3 2535.83 1338128
3 2535.83 1337437
3 2536.39 1335312
3 2536.39 1334000
3 2536.39 1333887
3 2536.39 1332696
3 2537.24 1331830
3 2537.24 1328836
3 2538.03 1328729
3 2538.03 1328400
3 2538.82 1325438
3 2538.82 1325064
3 2538.82 1324735
3 2539.44 1321204
3 2539.44 1320814
3 2540.04 1320126
3 2540.54 1318871
3 2541.91 1318168
3 2541.91 1316489
3 2542.49 1315684
3 2542.99 1314410
3 2543.92 1314200
3 2544.54 1313365
3 2544.99 1312513
3 2544.99 1311525
3 2545.45 1306963
3 2545.45 1304734
3 2546.37 1302759
3 2546.37 1300422
3 2548.15 1400217
3 2548.15 1395818
3 2548.15 1363381
3 2548.15 1359308
3 2548.15 1359183
3 2548.15 1355518
3 2548.15 1349571
3 2548.15 1342743
3 2548.15 1341710
3 2548.74 1340849
3 2548.74 1339154
3 2548.74 1334434
3 2548.74 1331411
3 2549.24 1329267
3 2549.24 1325660
3 2549.76 1324968
3 2549.76 1324265
3 2549.76 1324251
3 2550.25 1322974
3 2550.25 1321205
3 2550.25 1321074
3 2550.25 1320698
3 2550.76 1317990
3 2551.22 1315545
3 2551.22 1309985
3 2551.22 1309854
3 2551.74 1302635
3 2552.69 1301419
3 2553.61 1298976
3 2553.61 1297381
3 2553.61 1296453
3 2558.15 1294708
3 2558.86 1294593
3 2558.86 1294143
3 2558.86 1292187
3 2559.78 1291593
3 2559.78 1290706
3 2559.78 1288559
3 2560.59 1286899
3 2560.59 1286045
3 2561.39 1285914
3 2562.17 1409578
3 2562.17 1390899
3 2562.17 1372156
3 2562.17 1370422
3 2562.17 1357511
3 2562.17 1355916
3 2562.17 1350599
3 2563.09 1346062
3 2563.09 1345391
3 2563.09 1339015
3 2563.92 1333071
3 2563.92 1331922
3 2563.92 1326493
3 2563.92 1322882
3 2563.92 1322179
3 2564.62 1320717
3 2564.62 1320203
3 2565.58 1316619
3 2565.58 1312311
3 2566.14 1308952
3 2566.14 1306877
3 2567.18 1303389
3 2567.18 1302478
3 2568.71 1298270
3 2568.71 1295293
3 2568.71 1294019
3 2568.71 1293489
3 2576.31 1416199
3 2576.31 1401168
3 2576.31 1396860
3 2576.31 1365083
3 2576.31 1354378
3 2576.31 1351383
3 2576.92 1351194
3 2576.92 1349866
3 2576.92 1348466
3 2576.92 1348271
3 2577.46 1346769
3 2577.46 1342461
3 2577.46 1337086
3 2577.46 1335320
3 2578.06 1331736
3 2578.06 1331091
3 2578.06 1329446
3 2578.06 1327574
3 2578.61 1325936
3 2578.61 1323371
3 2578.61 1322097
3 2579.14 1319084
3 2579.14 1317933
3 2579.73 1317498
3 2579.73 1317447
3 2579.73 1316338
3 2580.32 1315435
3 2580.78 1315383
3 2581.25 1314973
3 2581.25 1312545
3 2582.75 1311947
3 2582.75 1308757
3 2584.35 1306991
3 2584.35 1306266
3 2585.91 1305766
3 2586.45 1305403
3 2586.45 1304152
3 2586.45 1301472
3 2586.93 1298634
3 2587.62 1297656
3 2587.62 1297164
3 2589.39 1296223
3 2589.39 1295703
3 2589.91 1295597
3 2590.39 1383747
3 2590.39 1379101
3 2590.39 1370931
3 2590.39 1362907
3 2590.39 1359898
3 2590.39 1359766
3 2590.39 1358171
3 2591.09 1337926
3 2591.09 1332106
3 2591.09 1330492
3 2592.89 1326114
3 2592.89 1324258
3 2593.43 1321909
3 2593.89 1321206
3 2593.89 1319611
3 2594.36 1319132
3 2595.32 1318781
3 2596.29 1305427
3 2596.9 1303453
3 2597.68 1300635
3 2599.22 1299123
3 2599.22 1297849
3 2600.07 1297818
3 2603.59 1297578
3 2603.59 1295284
3 2604.38 1363448
3 2604.38 1360614
3 2604.38 1349899
3 2604.38 1346315
3 2604.38 1345100
3 2604.38 1343046
3 2604.38 1339953
3 2604.38 1338358
3 2604.99 1332586
3 2604.99 1332455
3 2604.99 1331752
3 2605.96 1331305
3 2605.96 1329240
3 2605.96 1327645
3 2605.96 1326036
3 2605.96 1324061
3 2606.57 1322837
3 2606.57 1321223
3 2607.05 1318675
3 2607.56 1317443
3 2607.56 1316740
3 2609.02 1313519
3 2611.03 1310277
3 2611.57 1308790
3 2612.11 1306473
3 2615.68 1306421
3 2616.23 1302837
3 2616.23 1301753
3 2617.49 1301622
3 2618.28 1506144
3 2618.28 1503908
3 2618.28 1482365
3 2618.28 1459710
3 2618.28 1434880
3 2618.28 1424023
3 2618.28 1402093
3 2618.28 1380291
3 2619.24 1368104
3 2619.24 1364215
3 2619.24 1363020
3 2619.24 1349409
3 2619.24 1346205
3 2619.24 1340428
3 2619.24 1331439
3 2619.24 1330165
3 2620.14 1325670
3 2620.14 1308858
3 2620.14 1303541
3 2622.42 1303370
3 2625.8 1301279
3 2625.8 1301194
3 2626.79 1300005
3 2632.24 1444276
3 2632.24 1440816
3 2632.24 1418886
3 2632.24 1412966
3 2632.24 1408194
3 2632.24 1401843
3 2632.24 1396635
3 2633.15 1383162
3 2633.15 1378663
3 2633.15 1366277
3 2633.15 1349591
3 2633.15 1348888
3 2633.15 1346940
3 2633.15 1337951
3 2633.15 1334513
3 2633.15 1332856
3 2634.08 1332121
3 2634.08 1330972
3 2634.08 1329698
3 2634.95 1325304
3 2634.95 1323732
3 2634.95 1323471
3 2634.95 1322079
3 2634.95 1318527
3 2635.82 1317969
3 2635.82 1314509
3 2635.82 1313235
3 2637.47 1312278
3 2637.47 1311575
3 2638.42 1309705
3 2638.93 1309460
3 2640.4 1309185
3 2640.4 1307759
3 2640.94 1305731
3 2641.43 1305600
3 2641.43 1305254
3 2646.22 1424732
3 2646.22 1419096
3 2646.22 1394254
3 2646.22 1391639
3 2646.22 1382612
3 2647.12 1377554
3 2647.12 1375106
3 2647.12 1373832
3 2647.12 1368112
3 2647.69 1367314
3 2647.69 1347432
3 2647.69 1346614
3 2647.69 1346307
3 2647.69 1346140
3 2647.69 1344545
3 2648.29 1342025
3 2648.29 1331447
3 2648.29 1328836
3 2648.85 1326248
3 2648.85 1319803
3 2649.34 1319296
3 2649.34 1318529
3 2649.34 1317004
3 2649.34 1311252
3 2650.5 1308404
3 2650.5 1307911
3 2651.32 1304344
3 2651.32 1303070
3 2652.12 1302597
3 2652.93 1299210
3 2660.13 1473250
3 2660.13 1460016
3 2660.13 1454516
3 2660.13 1443685
3 2660.13 1430354
3 2660.13 1426494
3 2660.13 1418866
3 2660.13 1416803
3 2660.13 1402611
3 2660.13 1393919
3 2661.09 1393622
3 2661.09 1379809
3 2661.09 1359517
3 2661.09 1354713
3 2661.09 1346634
3 2661.09 1337587
3 2662.34 1334568
3 2662.82 1330169
3 2662.82 1329853
3 2663.33 1327941
3 2664.11 1327501
3 2664.11 1323867
3 2664.11 1323633
3 2664.11 1323427
3 2664.11 1322337
3 2665.73 1321460
3 2665.73 1320475
3 2665.73 1320099
3 2666.56 1319520
3 2671.97 1318616
3 2671.97 1317937
3 2671.97 1316734
3 2671.97 1314968
3 2674.43 1359944
3 2674.43 1343472
3 2674.43 1341203
3 2674.43 1340166
3 2674.43 1332929
3 2674.43 1332731
3 2674.43 1331194
3 2674.43 1328332
3 2674.43 1326229
3 2675.4 1323610
3 2675.4 1320525
3 2675.4 1317413
3 2675.4 1316830
3 2676.18 1315865
3 2676.94 1314618
3 2676.94 1310437
3 2677.45 1310161
3 2678.1 1309437
3 2678.85 1304255
3 2679.64 1299020
3 2680.38 1298745
3 2680.38 1297174
3 2680.38 1295161
3 2684.99 1294595
3 2684.99 1294407
3 2686.46 1293587
3 2686.46 1293560
3 2688.39 1409155
3 2688.39 1400756
3 2688.39 1389849
3 2688.39 1370037
3 2688.39 1365729
3 2689.27 1350643
3 2689.27 1341654
3 2690.09 1336979
3 2690.09 1336058
3 2690.09 1327146
3 2690.77 1325380
3 2691.28 1322411
3 2691.28 1316433
3 2691.79 1314130
3 2692.39 1312810
3 2692.89 1311536
3 2693.51 1310546
3 2702.64 1403757
3 2702.64 1392646
3 2702.64 1390194
3 2702.64 1389978
3 2702.64 1386283
3 2702.64 1385741
3 2702.64 1381881
3 2703.62 1380948
3 2703.62 1379113
3 2703.62 1372259
3 2704.47 1372165
3 2704.47 1372034
3 2705.96 1369455
3 2706.74 1364956
3 2706.74 1361184
3 2707.59 1352983
3 2707.59 1351629
3 2707.59 1347846
3 2708.47 1346989
3 2708.47 1341751
3 2709.21 1340699
3 2711.02 1339614
3 2711.02 1332822
3 2711.02 1330197
3 2711.02 1329600
3 2711.02 1327157
3 2711.62 1324067
3 2712.56 1323052
3 2712.56 1322815
3 2714.25 1321799
3 2715.73 1321250
3 2716.32 1455110
3 2716.32 1428725
3 2716.32 1425752
3 2716.32 1401906
3 2716.32 1397507
3 2716.32 1388915
3 2716.32 1375102
3 2716.32 1374304
3 2716.32 1361582
3 2716.32 1354723
3 2716.89 1349467
3 2716.89 1347502
3 2716.89 1347202
3 2716.89 1344031
3 2716.89 1343824
3 2716.89 1338072
3 2717.42 1336582
3 2717.42 1331111
3 2717.42 1330635
3 2717.42 1329837
3 2717.96 1323597
3 2717.96 1311813
3 2718.51 1309875
3 2718.51 1309455
3 2718.51 1306991
3 2718.51 1304767
3 2718.51 1304329
3 2719.42 1300368
3 2720.26 1300024
3 2721.07 1299321
3 2722.21 1298602
3 2730.17 1392280
3 2730.17 1390888
3 2730.17 1386208
3 2730.17 1381900
3 2731.33 1368682
3 2731.33 1368551
3 2731.33 1360956
3 2732.16 1343662
3 2732.16 1343531
3 2732.16 1339413
3 2732.96 1334488
3 2732.96 1334392
3 2732.96 1321070
3 2733.81 1320133
3 2734.46 1319049
3 2734.93 1314249
3 2734.93 1314101
3 2736.78 1312844
3 2738.32 1309076
3 2744.14 1366180
3 2744.14 1362757
3 2744.14 1353972
3 2744.14 1353337
3 2744.14 1348224
3 2744.14 1343016
3 2744.14 1341250
3 2745.06 1340611
3 2745.83 1335868
3 2745.83 1332923
3 2745.83 1330896
3 2745.83 1330642
3 2748.77 1329523
3 2749.73 1328809
3 2751.2 1317795
3 2752 1317552
3 2755.71 1316375
3 2756.33 1315101
3 2758.11 1368046
3 2758.11 1350575
3 2758.11 1338412
3 2758.98 1337892
3 2758.98 1329493
3 2760.92 1324285
3 2761.56 1319779
3 2761.56 1319388
3 2762.18 1315627
3 2762.18 1314518
3 2762.18 1312460
3 2762.18 1311917
3 2762.85 1307475
3 2764.74 1306462
3 2765.66 1305704
3 2765.66 1303028
3 2766.2 1301298
3 2766.2 1299532
3 2766.76 1297551
3 2767.26 1296848
3 2767.79 1296280
3 2768.27 1295493
3 2768.27 1294219
3 2772.49 1414477
3 2772.49 1413779
3 2772.49 1405107
3 2772.49 1400608
3 2772.49 1398842
3 2772.49 1397835
3 2772.49 1392817
3 2772.49 1389085
3 2772.49 1382817
3 2772.49 1379480
3 2772.49 1377975
3 2772.49 1369773
3 2772.49 1369072
3 2772.49 1357921
3 2773.55 1355035
3 2773.55 1354904
3 2773.55 1351960
3 2773.55 1343196
3 2773.55 1342823
3 2773.55 1339239
3 2773.55 1338944
3 2773.55 1337965
3 2774.39 1337480
3 2774.39 1337349
3 2774.39 1333157
3 2774.39 1329609
3 2774.39 1329164
3 2774.39 1326932
3 2774.92 1323810
3 2774.92 1321440
3 2775.4 1321351
3 2775.4 1316063
3 2775.4 1315847
3 2775.89 1315648
3 2775.89 1315311
3 2775.89 1312423
3 2776.67 1310377
3 2776.67 1309103
3 2777.22 1307207
3 2777.22 1307076
3 2778.89 1306711
3 2779.39 1306120
3 2779.39 1305478
3 2780.06 1304204
3 2780.06 1302059
3 2780.06 1299598
3 2781.51 1299469
3 2781.51 1299008
3 2781.99 1298195
3 2786.41 1404955
3 2786.41 1394693
3 2786.41 1393534
3 2786.41 1390709
3 2786.41 1390594
3 2786.41 1384565
3 2786.41 1370918
3 2786.41 1365491
3 2786.41 1356021
3 2786.41 1350704
3 2787.05 1348272
3 2787.05 1346677
3 2787.05 1342369
3 2787.6 1336813
3 2787.6 1335654
3 2787.6 1334727
3 2787.6 1333862
3 2787.6 1322903
3 2787.6 1319604
3 2787.6 1318884
3 2788.22 1313506
3 2788.85 1313088
3 2788.85 1312176
3 2788.85 1311495
3 2789.37 1309754
3 2789.37 1307458
3 2790.35 1307096
3 2790.35 1303401
3 2791.27 1302020
query_times: 147
Score = 1309304
