    Blocking waiting for file lock on package cache
    Blocking waiting for file lock on package cache
    Blocking waiting for file lock on package cache
    Blocking waiting for file lock on package cache
    Blocking waiting for file lock on build directory
    Finished `release` profile [optimized] target(s) in 0.08s
     Running `target/release/tester ../a.out 0022`
3 0.014 1027406
3 0.014 1017206
3 0.014 1016540
3 0.014 1006922
3 0.014 999598
3 0.014 997588
3 0.014 994210
3 0.416 993432
3 0.617 982380
3 0.617 981911
3 0.617 978067
3 0.617 974174
3 0.617 973043
3 14.13 1043572
3 14.13 1031830
3 14.13 1027988
3 14.13 1020014
3 14.13 1009720
3 14.13 986051
3 14.13 978386
3 14.13 977507
3 14.13 969533
3 14.544 961859
3 14.544 956825
3 14.544 955550
3 16.273 955316
3 16.273 951257
3 16.506 947656
3 16.709 947651
3 17.296 945898
3 28.152 1023286
3 28.152 1008393
3 28.152 1002300
3 28.152 998117
3 28.152 991880
3 28.459 982387
3 28.672 981684
3 28.672 981065
3 28.672 979114
3 28.672 975736
3 28.672 975610
3 29.081 969373
3 42.04 1054068
3 42.04 1044894
3 42.04 1038801
3 42.04 1032134
3 42.04 1022102
3 42.04 1017839
3 42.455 1016386
3 42.455 1011700
3 42.455 1009726
3 42.455 1004489
3 42.455 1003082
3 42.798 1001584
3 42.798 994933
3 56.128 1031181
3 56.128 1022432
3 56.128 1021301
3 56.128 1013787
3 56.128 1013593
3 56.128 1003737
3 56.128 989924
3 56.513 988474
3 56.513 987437
3 56.753 983905
3 56.753 983296
3 56.753 982448
3 57.021 982165
3 57.021 979129
3 57.021 976355
3 57.313 969373
1 61.807 968941
3 61.807 967651
3 61.807 961711
3 61.807 959940
3 61.807 959375
3 62.147 958645
3 62.395 958137
3 63.214 955474
3 63.422 954649
3 63.422 954544
3 64.372 952971
3 70.072 1032506
3 70.072 1014409
3 70.072 1011433
3 70.072 1009490
3 70.072 992359
3 70.072 985875
3 70.072 985473
3 70.072 985335
3 70.072 984975
3 70.518 975776
3 70.518 972265
3 70.518 969373
1 73.588 968639
3 73.588 966883
3 73.588 963045
3 73.588 961711
3 73.588 961227
3 73.931 960323
3 73.931 958645
3 74.17 956868
3 74.17 955498
3 74.17 955370
3 74.597 954862
3 75.316 954134
3 84.194 1030286
3 84.194 1020254
3 84.194 1003767
3 84.194 999572
3 84.194 993335
3 84.194 975164
3 84.194 973513
3 84.194 972583
3 84.194 968734
3 84.741 965421
3 84.741 962425
3 98.016 1033441
3 98.016 1018133
3 98.016 1011896
3 98.016 1000804
3 98.016 999027
3 98.016 987692
3 98.503 986728
3 98.503 981383
3 98.503 957719
3 98.503 957714
3 98.888 955550
3 99.213 947651
3 112.075 1043600
3 112.075 1027972
3 112.075 1020514
3 112.075 1010115
3 112.075 1009470
3 112.075 1007998
3 112.075 1004620
3 112.075 997001
3 112.075 989018
3 112.932 982367
3 113.321 975656
3 113.321 973875
3 113.781 969373
3 126.148 1060652
3 126.148 1045287
3 126.148 1023153
3 126.148 1021299
3 126.148 1013309
3 126.148 1012178
3 126.148 1002146
3 126.723 997617
3 126.723 996119
3 140.251 1000845
3 140.251 985537
3 140.251 978871
3 140.251 978023
3 140.251 968849
3 140.741 967702
3 140.741 960885
3 141.137 958487
3 154.2 1025801
3 154.2 1019492
3 154.2 1003890
3 154.2 1000512
3 154.2 994317
3 154.2 992998
3 154.723 984689
3 154.723 983505
3 155.094 982165
3 155.094 978038
3 155.094 977473
3 168.182 1038548
3 168.182 1038344
3 168.182 1030679
3 168.182 1024574
3 168.182 1008972
3 168.182 996549
3 168.728 996539
3 168.728 995419
3 168.728 984987
3 169.429 982929
3 169.429 977473
3 182.232 1030343
3 182.232 1022678
3 182.232 1013514
3 182.232 1004750
3 182.232 994413
3 182.232 991035
3 182.756 975433
3 182.756 969069
3 182.756 964493
3 183.158 963362
3 196.179 1001117
3 196.179 1000481
3 196.179 1000119
3 196.179 994922
3 196.179 991406
3 196.179 985172
3 196.179 977841
3 196.179 966867
3 196.179 964035
3 196.759 959202
3 196.759 959084
3 196.759 952850
3 196.759 944437
3 197.182 941776
3 197.182 941359
3 197.537 940943
3 197.537 939095
3 210.031 1047206
3 210.031 1036178
3 210.031 1030458
3 210.031 1023807
3 210.031 1022410
3 210.031 1019032
3 210.031 1015292
3 210.031 1010317
3 210.44 1007027
3 210.44 1004502
3 210.44 1002652
3 210.695 1001037
3 210.695 990019
3 210.695 984362
3 210.695 983782
3 210.998 983505
3 210.998 982994
3 210.998 977473
1 216.015 972962
3 216.237 971716
3 216.237 971386
3 216.237 966661
3 216.237 962969
3 216.551 960402
3 216.551 959271
3 216.551 955251
3 216.551 954686
3 216.551 954506
3 218.397 954426
3 218.61 953617
3 218.61 952648
3 218.61 951312
3 218.848 950858
3 224.016 1068628
3 224.016 1059454
3 224.016 1046860
3 224.016 1039346
3 224.016 1038781
3 224.016 1030444
3 224.369 1016164
3 224.369 997063
3 224.622 994457
3 224.85 992959
3 238.172 1051862
3 238.172 1037453
3 238.172 1027421
3 238.172 1024038
3 238.172 1020660
3 238.172 1017752
3 238.172 1011444
3 238.172 995842
3 238.172 990210
3 238.172 984921
3 238.172 984356
3 238.172 983408
3 238.848 982307
3 238.848 982277
3 238.848 982165
3 238.848 977473
3 252.197 1063474
1 252.197 1057566
3 252.197 1053727
3 252.197 1039572
3 252.197 1033840
3 252.197 1032393
3 252.197 1025742
3 252.197 1025165
3 252.703 1019300
3 252.703 1015694
3 253.069 1009330
3 253.069 1007455
3 253.069 1003163
3 253.069 1001630
3 253.47 998733
3 253.47 996780
3 253.829 995649
1 254.16 989700
3 254.487 987413
3 255.13 986282
1 256.961 974566
3 266.105 1012679
3 266.105 1009073
3 266.105 989926
3 266.105 970846
3 266.105 970829
3 266.105 963332
3 266.105 962915
3 266.105 961784
3 266.105 953194
3 266.105 947694
3 266.68 946182
3 266.68 945898
3 280.17 1047261
3 280.17 1042569
3 280.17 1035044
3 280.17 1027851
3 280.17 1018414
3 280.17 1002812
3 280.17 990289
3 280.17 983711
3 280.553 983710
3 280.771 977473
1 281.529 976577
3 281.738 976342
3 281.738 972962
3 282.215 971716
3 282.435 970488
3 282.435 965070
3 282.435 964536
3 282.702 964331
3 289.159 962681
3 289.723 959558
3 289.723 958248
3 289.957 957070
3 289.957 953576
3 289.957 953011
3 289.957 951597
3 289.957 950858
3 294.163 1000817
3 294.163 999181
3 294.163 992530
3 294.163 986418
3 294.163 982054
3 294.163 968660
3 294.163 966660
3 294.163 965404
3 294.597 963893
3 294.821 962413
3 294.821 959372
3 296.011 958753
3 296.251 953242
3 296.467 952743
3 308.283 1015795
3 308.283 1014664
3 308.283 1005297
3 308.283 985101
3 308.283 982994
3 308.283 980786
3 308.283 966034
3 308.283 964903
3 308.889 958594
3 311.837 955827
3 311.837 955348
3 312.233 954392
3 312.233 953261
3 317.443 948095
3 322.125 1062687
3 322.125 1062199
3 322.125 1042244
3 322.125 1031467
3 322.125 1013968
3 322.125 1011868
3 322.125 997492
3 322.125 996361
3 322.125 996187
3 322.599 986919
3 322.599 980610
3 322.599 974621
3 322.599 971122
3 322.599 966649
3 322.599 964671
3 322.599 963492
3 322.599 960563
3 323.328 954454
3 323.328 954029
3 323.582 952898
3 336.173 1038868
3 336.173 1030979
3 336.173 1024174
3 336.173 1023043
3 336.173 1016734
3 336.173 1001209
3 336.173 997017
3 336.173 988061
3 336.173 987496
3 336.173 987338
3 336.644 980974
3 336.644 979703
3 336.644 978205
3 336.644 971896
3 336.644 969847
3 337.005 966152
3 341.875 965479
3 342.093 962681
3 344.366 959558
3 344.582 958135
3 344.582 957591
3 344.582 956460
3 344.853 955809
3 344.853 952743
3 345.272 952083
3 345.272 951312
3 345.511 951204
3 346.781 950858
3 350.096 1040657
3 350.096 1025055
3 350.096 1005920
3 350.096 999708
3 350.096 993224
3 350.096 985462
3 350.096 984050
3 350.096 982919
3 350.096 981100
3 350.536 979724
3 350.536 973435
1 357.44 968575
3 357.44 964551
3 357.44 956886
3 357.917 955825
3 357.917 955755
3 359.103 955711
3 364.027 1063852
3 364.027 1055389
3 364.027 1028989
3 364.027 1025594
3 364.027 1018943
3 364.027 1013174
3 364.027 1012634
3 364.027 1006335
3 364.027 996150
3 364.027 995994
3 364.027 991517
3 364.027 990810
3 364.531 989962
3 364.531 985340
3 364.531 983296
3 364.531 976355
3 364.848 975736
3 365.448 975610
3 365.448 973875
3 365.448 970504
3 365.721 969373
3 378.06 1020762
3 378.06 1006353
3 378.06 1004275
3 378.06 1000897
3 378.06 997185
3 378.06 996205
3 378.06 988580
3 378.464 983782
3 378.678 977473
3 392.098 1033971
3 392.098 1027148
3 392.098 1021413
3 392.098 1015854
3 392.098 1009203
3 392.098 1005269
3 392.098 1004841
3 392.098 998094
3 392.098 996065
3 392.098 995335
3 392.098 990565
3 392.098 990000
3 392.098 978487
3 392.098 977854
3 392.098 977207
3 392.722 975960
3 392.722 975822
3 392.722 975462
3 392.722 975211
3 392.722 972751
3 392.722 969373
1 398.045 963349
3 398.743 961939
3 398.743 961414
3 398.987 961276
3 399.622 960284
3 399.622 956022
3 399.878 951069
3 406.159 1035947
3 406.159 1029710
3 406.159 1028748
3 406.159 1025370
3 406.159 1009845
3 406.159 1002180
3 406.159 1000641
3 406.588 990962
3 407.225 981060
3 407.225 980930
3 407.48 980095
3 407.48 977636
3 407.48 972107
3 420.05 1013185
3 420.05 1011168
3 420.05 1004955
3 420.05 987886
3 420.05 984508
3 420.05 977908
3 420.05 975509
3 420.05 969200
3 420.05 968581
3 420.564 967702
3 420.564 962819
3 420.564 960421
3 420.564 959985
3 420.564 959290
3 420.918 959052
3 420.918 958487
3 434.328 997814
3 434.328 996683
3 434.328 990446
3 434.328 975302
3 434.328 974118
3 434.779 970069
3 435.062 964331
3 435.311 961372
3 435.311 960908
3 435.311 959724
3 435.651 958593
3 436.117 955485
3 436.117 954920
3 436.403 953422
3 436.403 953242
3 436.748 952743
3 448.06 1043676
3 448.06 1037615
3 448.06 1034961
3 448.06 1010030
3 448.06 1009693
3 448.53 1002028
3 448.53 999998
3 448.53 999438
3 448.53 998867
3 448.53 989697
3 448.53 989461
3 448.53 987125
3 448.53 981796
3 448.53 981699
3 449.05 977361
3 449.05 975462
3 449.05 974702
3 449.05 969373
1 455.405 968941
3 455.723 968115
3 455.723 967457
3 456.045 964857
3 456.045 959937
3 456.045 958753
3 456.651 955772
3 456.651 955251
3 456.963 954686
3 456.963 954506
3 457.555 952743
3 457.555 952083
3 457.862 951312
3 458.07 950858
3 462.196 1033503
3 462.196 1030125
3 462.196 1022460
3 462.196 1016766
3 462.196 1007250
3 462.196 1003927
3 462.196 999361
3 462.196 997016
3 462.196 982977
3 462.785 976884
3 463.397 976355
3 463.737 975736
3 464.36 969373
3 476.182 1019802
3 476.182 1008940
3 476.182 997436
3 476.182 987943
3 476.182 985765
3 476.668 982387
3 476.668 969373
3 490.048 1031908
3 490.048 1025599
3 490.048 1018346
3 490.048 1011375
3 490.048 1005138
3 490.048 1004007
3 490.048 1000085
3 490.048 990535
3 490.048 988405
3 490.626 980984
3 490.626 980740
3 491.322 980718
3 491.322 974409
3 491.322 973435
1 495.301 970782
3 495.301 969284
3 495.301 968179
3 495.301 967969
3 495.301 967404
3 495.301 966154
3 495.301 964907
3 495.799 960623
3 495.799 954259
3 504.222 1009348
3 504.222 1001459
3 504.222 996900
3 504.222 987916
3 504.222 987221
3 504.222 983055
3 504.222 976543
3 504.222 975412
3 504.222 969303
3 504.766 969175
3 505.402 969065
3 505.402 965303
3 505.402 964172
3 505.798 960866
3 505.798 959880
3 507.112 956779
3 510.343 955755
3 511.264 955711
3 518.241 986291
3 518.241 983710
3 518.241 977577
3 518.64 977473
3 532.09 1053844
3 532.09 1046330
3 532.09 1046126
3 532.09 1041110
3 532.09 1039979
3 532.09 1021037
3 532.09 1013829
3 532.09 1010451
1 532.09 998857
3 532.09 996106
3 532.09 995008
3 532.77 988623
3 532.77 988240
3 533.126 974525
3 533.126 973394
3 533.126 971896
3 533.126 965065
3 533.126 963246
3 533.566 962681
3 538.342 951597
3 538.342 951204
3 543.877 950858
3 546.011 1046675
3 546.011 1041323
3 546.011 1039187
3 546.011 1019124
3 546.011 1011639
3 546.011 1008033
3 546.011 1007641
3 546.011 999976
3 546.011 993612
3 546.011 984391
3 546.61 983933
3 560.018 1017208
3 560.018 1009543
3 560.018 1002029
3 560.018 989484
3 560.018 973882
3 560.018 972751
3 560.434 971100
3 560.434 969373
1 563.804 966393
3 563.804 965412
3 563.804 963914
3 564.07 963349
3 564.281 963095
3 565.013 961685
3 565.217 958691
3 565.217 958307
3 565.958 954862
3 566.206 952351
3 567.887 952200
3 567.887 951069
3 574.073 1034639
3 574.073 1027988
3 574.073 1019937
3 574.073 1000790
3 574.073 998976
3 574.073 991039
3 574.073 974746
3 574.073 970687
3 574.073 960286
3 574.073 954052
3 574.691 952921
3 574.691 950723
3 575.042 950205
3 575.042 949788
3 575.398 948851
3 588.068 1023929
3 588.068 1008327
3 588.068 998890
3 588.068 995380
3 588.068 995379
3 588.068 993251
3 588.068 993046
3 588.068 990288
3 588.068 985516
3 588.519 978002
3 588.73 977473
3 602.029 1033596
3 602.029 1022153
3 602.029 1009252
3 602.029 1003927
3 602.029 994998
3 602.029 990983
3 602.029 984776
3 602.452 983514
3 602.452 983484
3 602.452 978896
3 602.452 977577
3 602.452 977473
3 616.278 1035985
3 616.278 1020310
3 616.278 1009881
3 616.278 1008568
3 616.278 997767
3 616.278 993075
3 616.278 989467
3 616.278 988298
3 616.801 986800
3 616.801 985138
3 617.15 984244
3 617.15 982468
3 618.074 977473
3 630.057 1064911
3 630.057 1049309
3 630.057 1022602
3 630.057 1019224
3 630.057 1017876
3 630.057 1010934
3 630.057 1010211
3 630.057 996973
3 630.057 991135
3 630.057 985098
3 630.057 978384
3 630.057 976110
3 630.529 972147
3 630.529 969373
1 640.447 965371
3 640.777 964813
3 640.777 964248
3 640.777 962750
3 640.777 961373
3 641.184 959375
3 641.184 958307
3 644.025 1073556
3 644.025 1064217
3 644.025 1044262
3 644.025 1036748
3 644.025 1035617
3 644.025 1020015
3 644.025 1014453
3 644.025 1002030
3 644.025 1000966
3 644.025 999155
3 644.635 984704
3 644.635 984036
3 644.635 983710
3 645.593 983505
3 645.593 977473
1 652.347 972962
3 653.815 971716
3 653.815 969645
3 653.815 969555
3 653.815 969465
3 654.198 968990
3 654.198 966243
3 654.198 965317
3 654.198 965065
3 654.601 963246
3 654.601 962681
3 655.76 953011
3 655.996 952281
3 657.072 951312
3 658.169 1009955
3 658.169 992629
3 658.169 988141
3 658.169 986286
3 658.472 986232
3 658.472 985101
3 658.472 978792
3 658.472 970903
3 658.472 968719
3 658.472 965150
3 658.824 964040
3 658.824 959845
3 659.066 959645
3 659.066 959372
3 659.308 953194
3 659.308 951892
3 672.014 1008669
3 672.014 989522
3 672.014 977780
3 672.014 977621
3 672.014 977056
3 672.014 976407
3 672.512 971825
3 672.512 970170
3 672.865 969981
3 672.865 967192
3 672.865 966306
3 672.865 963987
3 673.281 960420
3 673.281 960261
3 673.281 956027
3 673.281 954813
3 686.069 1060589
3 686.069 1043263
3 686.069 1022346
3 686.069 1016304
3 686.069 1010067
3 686.069 1006744
3 686.069 1000470
3 686.069 995990
3 686.069 993941
3 686.069 993819
3 686.069 990441
3 686.069 984255
3 686.069 976741
3 686.069 973396
3 686.069 972265
3 686.069 969373
3 700.159 1027864
3 700.159 1021500
3 700.159 986633
3 700.159 986199
3 700.159 985637
3 700.159 982981
3 700.159 977884
3 700.159 968118
3 700.681 965274
3 700.681 964309
3 700.681 963877
3 701.124 962862
3 701.124 961678
3 702.359 960484
3 714.181 1032285
3 714.181 1021624
3 714.181 1009668
3 714.181 1008537
3 714.181 1000872
3 714.181 999563
3 714.181 997579
3 714.181 994513
3 714.181 992702
3 714.181 990428
3 714.181 986465
3 714.759 978083
3 714.759 977464
3 714.759 969373
1 717.89 968941
3 718.203 963349
3 718.78 961414
3 718.78 961276
3 718.78 958348
3 719.4 954544
3 721.46 952971
3 728.229 1032691
3 728.229 1027712
3 728.229 1026581
3 728.229 1025438
3 728.229 1025251
3 728.229 1018600
3 728.229 1013678
3 728.229 1000320
3 728.229 993669
3 728.769 991375
3 729.076 983710
3 729.076 983505
3 729.415 977473
1 732.411 973582
3 732.63 972962
3 732.63 972594
3 732.94 972343
3 732.94 969434
3 733.565 968797
3 733.565 968496
3 733.565 967299
3 742.06 1026774
3 742.06 1020123
3 742.06 1010091
3 742.06 994566
3 742.06 989846
3 742.06 988715
3 742.06 979443
3 742.06 979117
3 742.06 973134
3 742.06 972753
3 756.049 1028039
3 756.049 1026855
3 756.049 1023306
3 756.049 1014853
3 756.049 1013295
3 756.049 1012164
3 756.049 1005513
3 756.049 1004548
3 756.049 1003467
3 756.603 988102
3 756.888 987828
3 756.888 983605
3 756.888 982662
3 757.218 979076
3 757.218 975396
3 757.867 973688
3 770.008 1027194
3 770.008 1022628
3 770.008 1022088
1 770.008 1016155
3 770.008 1012466
3 770.008 1000630
3 770.008 998148
3 770.008 990598
3 770.559 984136
3 770.559 978097
3 770.559 976966
3 770.559 974568
3 770.559 973588
3 770.559 973383
3 771.03 970568
3 771.03 968650
3 771.03 967152
3 771.397 964331
3 784.191 1034164
3 784.191 1031776
3 784.191 1028170
3 784.191 1027039
3 784.191 1022776
3 784.191 1020594
3 784.674 1011379
3 784.998 1005070
3 798.009 1047838
3 798.009 1046297
3 798.009 1038632
3 798.009 1036200
3 798.009 1035845
3 798.009 1016771
3 798.009 1015640
3 798.009 1015075
3 798.009 1012151
3 798.009 996549
3 798.878 991039
3 798.878 989583
3 798.878 984016
3 798.878 981101
3 799.548 977473
3 812.119 1019501
3 812.119 1018653
3 812.119 1018370
3 812.119 1012560
3 812.119 1009269
3 812.119 1002287
3 812.119 1002200
3 812.119 984961
3 812.119 983124
3 812.671 981699
3 812.671 978431
3 812.671 975610
3 813.017 974340
3 813.017 973875
3 813.017 973396
3 813.017 970504
3 813.411 969373
3 826.201 1026683
3 826.201 1024506
3 826.201 1000834
3 826.201 983455
3 826.201 981733
3 826.201 975090
3 826.201 974525
3 826.201 973394
3 826.201 970570
3 827.288 970284
3 827.288 965992
3 827.288 962681
3 830.354 951597
3 830.354 951312
3 830.685 951204
3 831.271 950858
3 840.017 1026124
3 840.017 1008085
3 840.017 1003751
3 840.017 994119
3 840.429 993987
3 840.429 981721
3 840.429 978169
3 840.429 977038
3 840.836 971100
3 840.836 969373
1 848.748 963349
3 848.748 963095
3 849.099 961685
3 849.399 961373
3 849.974 959375
3 849.974 958691
3 850.297 958307
3 853.276 954862
3 854.104 1050628
3 854.104 1049524
3 854.104 1037257
3 854.104 1027225
3 854.104 1020574
3 854.104 1011137
3 854.104 1005546
3 854.104 1003751
3 854.632 1000052
3 854.632 994210
3 854.632 990923
3 854.632 989699
3 854.632 986321
3 855.063 982592
3 855.063 982387
3 855.063 976355
3 855.446 975736
3 855.446 975211
3 855.787 972751
3 855.787 969373
1 863.711 963914
3 863.711 963349
3 863.711 961939
3 864.079 961685
3 864.079 958135
3 864.414 956360
3 864.716 954862
3 865.292 952351
3 867.433 951069
3 868.246 1032966
3 868.246 1023141
3 868.246 999472
3 868.246 995136
3 868.246 991911
3 868.246 989496
3 868.246 988365
3 868.246 988257
3 868.246 986310
3 868.246 984416
3 868.831 981259
3 868.831 977473
3 882.01 1005918
3 882.01 998613
3 882.01 997124
3 882.01 996203
3 882.01 986771
3 882.01 978577
3 882.407 974515
3 882.407 973950
3 882.407 966645
3 882.716 965884
3 882.716 965147
3 896.023 1039871
3 896.023 1032221
3 896.023 1024556
3 896.023 1017042
3 896.023 1010803
3 896.023 1002966
3 896.023 1001351
3 896.023 997973
3 896.381 997690
3 896.381 982165
3 896.381 980638
3 896.672 977473
3 910.118 1033567
3 910.118 1017965
3 910.118 1012789
3 910.118 1011728
3 910.118 1009881
3 910.118 996549
3 910.507 996526
3 910.507 994516
3 910.507 993674
3 910.507 989605
3 910.781 983296
3 910.781 982165
3 911.016 978038
3 911.016 977473
3 924.029 1030342
3 924.029 1018600
3 924.029 1008568
3 924.029 1002423
3 924.029 1001858
3 924.029 986883
3 924.029 980851
3 924.791 977473
1 925.856 972962
3 925.856 971716
3 926.132 969485
3 926.386 968990
3 926.386 965065
3 926.674 964744
3 926.674 964179
3 926.99 954509
3 926.99 952281
3 927.558 951312
3 927.558 950858
1 938.248 1111744
3 938.248 1091789
3 938.248 1082615
3 938.248 1063541
3 938.248 1044440
3 938.248 1042942
3 938.248 1027376
3 938.248 1021067
3 938.248 1012818
3 938.248 1012253
3 952.248 1024966
3 952.248 1018370
3 952.248 1014896
3 952.248 1007026
3 952.248 1000662
3 952.248 995765
3 952.248 993069
3 952.248 983505
3 952.811 982165
3 953.124 977473
3 966.265 1066042
3 966.265 1062664
3 966.265 1043588
3 966.265 1035923
3 966.265 1020398
3 966.265 1011454
3 966.265 1004380
3 966.265 1000700
3 966.265 986850
3 966.808 985098
3 966.808 976884
3 966.808 976355
3 967.162 975736
3 967.162 970504
3 967.501 969373
3 980.116 1024304
3 980.116 1009056
3 980.116 1007925
3 980.116 1007306
3 980.116 1006977
3 980.584 1002347
3 980.584 1000443
3 980.584 1000238
3 980.584 990800
3 980.992 984636
3 980.992 983505
3 980.992 981219
3 980.992 977473
3 994.112 1019490
3 994.112 1009811
3 994.112 1009054
3 994.112 1007923
3 994.112 996312
3 994.112 993252
3 994.112 988822
3 994.631 983342
3 994.964 978790
3 994.964 977496
3 994.964 972139
3 994.964 971235
3 995.382 955944
3 995.382 954813
3 1008.11 1022281
3 1008.11 1017316
3 1008.11 1009802
3 1008.11 1003438
3 1008.11 1002179
3 1008.11 998384
3 1008.11 997819
3 1008.61 996540
3 1008.61 991168
3 1008.61 991101
3 1008.61 982559
3 1008.61 981994
3 1009.02 981966
3 1009.02 981422
3 1009.38 973470
3 1009.38 972529
3 1009.7 970537
3 1009.7 968584
3 1018.91 966114
3 1022.2 1014884
3 1022.2 1006753
3 1022.2 1005622
3 1022.2 995081
3 1022.2 986475
3 1022.2 983212
3 1022.2 976975
3 1022.2 973776
3 1022.2 973211
3 1022.68 972050
3 1022.68 964385
3 1023.84 964310
3 1024.14 962595
3 1024.14 961464
3 1024.14 961366
3 1024.51 957132
3 1024.51 955462
3 1024.51 954813
3 1036.03 1049526
3 1036.03 1048395
3 1036.03 1036800
3 1036.03 1025902
3 1036.03 1018619
3 1036.03 1014491
3 1036.52 1011968
3 1036.52 1006826
3 1036.52 1002211
3 1036.52 995974
3 1036.52 993075
3 1038.11 990780
3 1038.11 978896
3 1038.45 978792
3 1038.45 977473
3 1050.02 1047598
3 1050.02 1042702
3 1050.02 1041571
3 1050.02 1038193
3 1050.02 1030594
3 1050.02 1025902
3 1050.02 1022652
3 1050.02 1012724
3 1050.02 1006826
1 1050.02 1004555
3 1050.02 982350
3 1050.02 975699
3 1050.02 974568
3 1050.67 973392
3 1050.99 973187
3 1051.32 970568
3 1051.32 968650
3 1051.67 968085
3 1051.67 966587
3 1051.67 964331
3 1064.22 1057382
3 1064.22 1050731
3 1064.22 1031630
3 1064.22 1021598
3 1064.22 1007743
3 1064.22 1006073
3 1064.22 997428
3 1064.22 988834
3 1064.22 988474
3 1064.8 981826
3 1064.8 975776
3 1064.8 975462
3 1064.8 973975
3 1064.8 973336
3 1064.8 971272
3 1064.8 969373
1 1068.63 964974
3 1068.63 964330
3 1068.94 964077
3 1068.94 963349
3 1069.29 961939
3 1069.29 961685
3 1069.63 958135
3 1069.63 956360
3 1069.63 954862
3 1069.99 952199
3 1070.29 951069
3 1078.26 1030402
3 1078.26 1027663
3 1078.26 1012138
3 1078.26 1008568
3 1078.26 1002786
3 1078.67 996549
3 1078.67 991186
3 1079.01 990288
3 1079.32 988365
3 1079.32 986449
3 1079.32 984987
3 1079.32 984837
3 1079.72 976920
3 1079.72 975883
3 1079.72 969373
1 1088.71 963914
3 1088.71 963095
3 1089.6 959545
3 1089.6 955935
3 1089.94 955370
3 1092.08 1014399
3 1092.08 1009707
3 1092.08 1005852
3 1092.08 997161
3 1092.08 989496
3 1092.08 988455
3 1092.08 988264
3 1092.08 982232
3 1092.08 981982
3 1092.08 980851
3 1092.08 977473
3 1106.15 1016264
3 1106.15 1013754
3 1106.15 994686
3 1106.15 975610
3 1106.15 970823
3 1107.66 969373
3 1120.23 1015259
3 1120.23 1008950
3 1120.23 1002812
3 1120.23 1000718
3 1120.23 991747
3 1120.23 991254
3 1120.23 982310
3 1120.23 980949
3 1120.77 979770
3 1120.77 973435
1 1122.62 969670
3 1122.62 967370
3 1122.98 966849
3 1122.98 966729
3 1122.98 964781
3 1123.38 963534
3 1123.38 960623
3 1123.67 957167
3 1123.67 956691
3 1123.67 955567
3 1123.67 954259
3 1134.17 1015292
3 1134.17 1008641
3 1134.17 1005904
3 1134.17 1002444
3 1134.17 1001588
3 1134.17 995495
3 1134.17 983571
3 1134.17 982592
3 1134.76 982387
3 1134.76 976820
3 1134.76 976355
3 1134.76 975736
3 1135.24 970504
3 1135.24 969373
3 1148.23 1035582
3 1148.23 1033821
3 1148.23 1030443
3 1148.23 1029312
3 1148.23 1024491
3 1148.23 1022644
3 1148.23 1018991
3 1148.23 1016303
3 1148.23 1010298
3 1148.23 1002652
3 1148.23 991151
3 1148.89 984636
3 1148.89 983505
3 1148.89 982929
3 1149.28 977473
3 1162.1 1030026
3 1162.1 1011296
3 1162.1 1007033
3 1162.1 1002844
3 1162.1 996535
3 1162.1 989021
3 1162.1 986399
3 1162.1 985982
3 1162.1 980332
3 1162.76 973968
3 1176.27 1001869
3 1176.27 982137
3 1176.27 981472
3 1176.27 972298
3 1176.27 959492
3 1176.27 956034
3 1176.27 953151
3 1177.13 951482
3 1177.13 948593
3 1177.49 947651
3 1190.26 1004783
3 1190.26 1002035
3 1190.26 978366
3 1190.26 965749
3 1190.26 964134
3 1190.71 962636
3 1190.71 952604
3 1191.06 951433
3 1191.7 947594
3 1204.04 1018044
3 1204.04 997848
3 1204.04 994131
3 1204.04 987822
3 1204.04 974788
3 1204.04 972457
3 1205.12 962597
3 1205.12 962425
3 1218.04 1011564
3 1218.04 991609
3 1218.04 981127
3 1218.04 980645
3 1218.46 976311
3 1218.46 974281
3 1218.46 973150
3 1218.85 972532
3 1218.85 972107
3 1223.81 969720
3 1223.81 968320
3 1224.18 966114
3 1232.26 1004988
3 1232.26 996642
3 1232.26 992255
3 1232.26 983275
3 1232.26 975610
3 1232.69 973336
3 1232.99 970823
1 1232.99 963873
3 1232.99 963308
3 1233.35 959545
3 1233.65 959001
3 1233.65 955935
3 1233.65 955370
3 1246.18 1041155
3 1246.18 1033854
3 1246.18 1014753
3 1246.18 1009228
3 1246.18 1002991
3 1246.18 996670
3 1246.67 993902
3 1246.67 992959
3 1260.23 1033194
3 1260.23 1031580
3 1260.23 1012433
3 1260.23 1009843
3 1260.23 1004463
3 1260.23 1004368
3 1260.23 989280
3 1260.23 988419
3 1260.23 986014
3 1260.23 980779
3 1260.23 976641
3 1260.23 976270
3 1260.23 970508
3 1260.88 970179
3 1260.88 966721
3 1260.88 960484
3 1274.26 1025169
3 1274.26 991135
3 1274.26 980919
3 1274.26 980007
3 1274.26 979551
3 1274.26 976761
3 1274.26 976073
3 1274.26 973383
3 1274.75 969076
3 1274.75 965479
3 1274.75 964331
3 1277.04 964179
3 1277.34 961621
3 1277.34 957413
3 1277.34 955520
3 1277.68 954426
3 1279.06 952648
3 1279.06 948269
3 1288.09 1030919
3 1288.09 1024814
3 1288.09 1014782
3 1288.09 999417
3 1288.09 995648
3 1288.09 992766
3 1288.09 984954
3 1288.09 984747
3 1288.09 984092
3 1288.09 978750
3 1288.09 977252
3 1288.67 976121
3 1288.67 975556
3 1289 974882
3 1289 974442
3 1302.2 1030680
3 1302.2 1012309
3 1302.2 1004644
3 1302.2 1000548
3 1302.2 1000320
3 1302.2 994516
3 1302.2 990288
3 1302.2 980851
3 1303.03 977473
3 1316.16 1019864
3 1316.16 1016486
3 1316.16 1004063
3 1316.16 1001858
3 1316.16 1000202
3 1316.16 996549
3 1316.16 992570
3 1316.64 981101
3 1316.64 977473
3 1330.19 1033997
3 1330.19 1027346
3 1330.19 1027193
3 1330.19 1024909
3 1330.19 1011828
3 1330.19 984379
3 1330.19 980416
3 1330.19 979870
3 1330.72 977038
3 1331.3 975462
3 1331.62 973975
3 1331.91 972147
3 1331.91 969373
1 1334.91 964330
3 1334.91 963349
3 1334.91 963095
3 1335.57 961685
3 1336.14 958135
3 1336.14 957762
3 1336.14 955626
3 1336.8 955474
3 1336.8 952971
3 1344.15 1002518
3 1344.15 1000359
3 1344.15 982853
3 1344.15 982580
3 1344.15 975852
3 1344.15 973406
3 1344.6 969760
3 1344.6 967762
3 1344.6 967197
3 1344.6 967037
3 1344.6 965906
3 1345.02 962730
3 1345.02 960623
3 1345.63 954259
3 1358.16 980328
3 1358.16 970961
3 1358.16 954625
3 1358.16 953635
3 1358.54 952734
3 1359.12 946399
3 1359.12 941776
3 1359.74 939095
3 1372.2 1032074
3 1372.2 1013594
3 1372.2 1012955
3 1372.2 1006718
3 1372.2 996686
3 1372.2 990322
3 1372.2 988824
3 1372.2 985551
3 1372.2 971557
3 1372.2 969677
3 1372.7 959852
3 1372.99 952934
3 1372.99 947931
3 1386.15 1047736
3 1386.15 1032211
3 1386.15 1025974
3 1386.15 1019665
3 1386.15 1012151
3 1386.56 1002757
3 1386.56 993075
3 1386.56 982994
3 1386.9 982941
3 1386.9 980851
3 1386.9 977473
3 1400.02 984369
3 1400.02 982728
3 1400.02 976726
3 1400.3 959872
3 1400.3 958563
3 1400.3 958146
3 1400.3 953150
3 1400.3 952982
3 1400.3 950363
3 1400.68 942982
3 1400.68 941851
3 1401.5 940730
3 1401.5 940462
3 1401.5 939095
3 1414.17 1034340
3 1414.17 1028103
3 1414.17 1024725
3 1414.17 1015551
3 1414.17 1010709
3 1414.17 1009336
3 1414.17 998204
3 1414.17 993734
3 1414.17 989620
3 1414.6 988798
3 1414.6 986044
3 1414.6 985065
3 1414.6 983383
3 1414.6 982252
3 1428.07 1070229
3 1428.07 1040434
3 1428.07 1030402
3 1428.07 1026776
3 1428.07 1019262
3 1428.07 1003999
3 1428.07 1003460
3 1428.07 995776
3 1428.07 986800
3 1428.52 984689
3 1428.52 983782
3 1428.52 983505
3 1428.52 977473
3 1442.15 1019798
3 1442.15 1012133
3 1442.15 1007441
3 1442.15 999927
3 1442.15 996549
3 1442.15 995431
3 1442.48 993445
3 1442.48 990683
3 1442.48 981065
3 1442.48 975736
3 1442.48 975610
3 1442.83 974335
3 1442.83 971287
3 1442.83 970695
3 1443.11 966607
3 1443.11 966286
3 1443.11 964331
3 1443.39 963823
3 1443.39 959805
3 1443.39 958307
3 1447.75 958137
3 1448.14 952971
3 1456.07 1034185
3 1456.07 1015173
3 1456.07 1004390
3 1456.07 995967
3 1456.07 995691
3 1456.07 975628
3 1456.07 970404
3 1456.07 966565
3 1456.51 963098
3 1456.51 956757
3 1456.51 955160
3 1456.51 952192
3 1456.79 948586
3 1456.79 947651
3 1457.6 945898
3 1470.29 1030364
3 1470.29 1021598
3 1470.29 1017941
3 1470.29 1002339
3 1470.29 994825
3 1470.29 987990
3 1470.29 987622
3 1470.29 987160
3 1470.83 983782
3 1471.15 980638
3 1471.15 978604
3 1484.24 1049174
3 1484.24 1039142
3 1484.24 1026670
3 1484.24 1026305
3 1484.24 1022566
3 1484.24 1016329
3 1484.24 1009054
3 1484.24 1007556
3 1484.24 1006991
3 1484.81 1005194
3 1484.81 1004063
3 1484.81 996549
3 1485.16 996118
3 1485.16 990780
3 1485.16 984987
3 1485.56 984416
3 1485.89 977473
3 1498.12 1030310
3 1498.12 1011999
3 1498.12 1008621
3 1498.12 1006940
3 1498.12 1004178
3 1498.12 998194
3 1498.12 997527
3 1498.12 990106
3 1498.69 982592
3 1499.02 982387
3 1499.35 976884
3 1499.66 975610
3 1499.98 973875
3 1499.98 971737
3 1499.98 969373
1 1510.38 968941
3 1510.38 967651
3 1510.38 964585
3 1511.03 962149
3 1511.34 960323
3 1511.66 959815
3 1511.66 956360
3 1512.03 1043275
3 1512.03 1015272
3 1512.03 1007607
3 1512.03 992005
3 1512.03 991135
3 1512.49 984898
3 1512.49 983049
3 1512.49 981796
3 1512.49 978384
3 1512.49 972147
3 1512.94 969373
3 1526.03 1048167
3 1526.03 1044832
3 1526.03 1043875
3 1526.03 1036361
3 1526.03 1014526
3 1526.03 1009026
3 1526.03 995723
3 1526.03 983926
3 1526.03 978397
3 1526.87 976940
3 1527.21 972648
3 1527.21 971746
3 1540.17 1026845
3 1540.17 1011480
3 1540.17 1008717
1 1540.17 1006354
3 1540.17 1005789
3 1540.63 1001435
3 1540.63 997376
3 1540.63 996230
3 1540.63 992624
3 1540.63 984598
3 1540.63 983098
3 1541.13 978405
3 1541.13 974566
3 1554.03 1052359
1 1554.03 1037316
3 1554.03 1008999
3 1554.03 1007521
3 1554.03 1001485
3 1554.03 999857
3 1554.03 985816
3 1554.03 976678
3 1554.03 975547
3 1554.03 967916
3 1554.63 967395
3 1554.63 966514
3 1554.98 965845
3 1554.98 963118
3 1554.98 960053
3 1555.65 958499
3 1555.65 957405
3 1555.65 955557
3 1556.03 955520
3 1556.03 954426
3 1556.38 954146
3 1556.38 953956
3 1556.38 952648
3 1556.38 948269
3 1568.24 1063954
3 1568.24 1056440
3 1568.24 1047225
3 1568.24 1037193
3 1568.24 1023044
3 1568.24 1018752
3 1568.24 1013265
3 1568.24 1007218
3 1568.24 1006653
3 1568.24 988179
3 1568.24 987662
3 1568.24 985971
3 1568.83 984074
3 1568.83 982943
3 1582.27 1029746
3 1582.27 1012420
3 1582.27 1009895
3 1582.27 1008397
3 1582.27 1002211
3 1582.27 1001062
3 1582.27 996843
3 1582.27 993647
3 1582.81 993561
3 1582.81 992996
3 1582.81 990534
3 1582.81 983710
3 1583.22 980638
3 1583.55 978792
3 1583.55 977473
3 1596.25 1015422
3 1596.25 1000114
3 1596.25 994614
3 1596.25 985440
3 1596.25 977775
3 1596.68 963296
3 1596.68 961990
3 1596.68 956825
3 1596.68 953771
3 1596.68 947656
3 1597.14 947651
3 1609.05 947462
3 1609.05 945898
3 1610.26 995885
3 1610.26 988593
3 1610.26 981510
3 1610.26 966588
3 1610.26 965609
3 1610.26 965404
3 1610.26 963893
3 1611.04 960350
3 1611.04 959937
3 1611.04 956429
3 1611.42 955989
3 1611.42 954686
3 1612.03 954553
3 1612.03 953422
3 1612.34 953242
3 1613.83 952743
3 1614.43 952356
3 1614.43 951204
3 1614.77 950858
3 1624.02 992949
3 1624.02 986844
3 1624.02 980340
3 1624.02 976721
3 1624.02 976065
3 1624.02 968960
3 1624.02 968690
3 1624.02 967069
3 1624.02 961839
3 1624.54 961838
3 1624.54 959844
3 1624.54 958065
3 1624.91 955497
3 1638.03 1031412
3 1638.03 1020284
3 1638.03 1012619
3 1638.03 1008014
3 1638.03 1006481
3 1638.03 1004837
3 1638.03 994151
3 1638.03 986637
3 1638.03 975883
3 1638.03 975610
3 1638.56 972625
3 1638.56 972265
3 1638.56 969373
1 1650.53 964330
3 1650.53 963349
3 1650.53 961939
3 1650.89 961685
3 1650.89 960189
3 1651.21 958691
3 1652.02 1102202
3 1652.02 1093028
1 1652.02 1072965
3 1652.02 1068776
3 1652.02 1053411
3 1652.02 1047068
3 1652.02 1040095
3 1652.02 1033858
3 1652.02 1025309
3 1652.02 1024977
3 1652.02 1019838
3 1652.02 1014489
3 1652.02 1013115
3 1652.65 1007091
3 1652.65 1003485
3 1655.92 1002199
3 1666.14 1051670
3 1666.14 1044156
3 1666.14 1024093
3 1666.14 1017784
3 1666.14 1014945
3 1666.14 1011339
3 1666.14 1008669
3 1666.14 1003169
3 1666.14 993995
3 1666.65 993738
3 1666.65 991707
3 1666.65 989516
3 1666.65 986138
3 1666.65 983740
3 1666.65 982609
3 1667.35 980562
3 1667.35 972897
3 1667.35 968557
3 1667.35 966800
3 1667.74 960563
3 1669.2 959639
3 1669.54 956169
3 1669.54 954029
3 1669.91 952898
3 1680.27 1046327
3 1680.27 1042606
3 1680.27 1039228
3 1680.27 1023557
3 1680.27 1004481
3 1680.27 997830
3 1680.27 977634
3 1680.79 960885
3 1681.43 960756
3 1681.43 960259
3 1681.79 958487
3 1694.24 1064985
3 1694.24 1052508
3 1694.24 1045621
3 1694.24 1025558
3 1694.24 1024427
3 1694.24 1020749
3 1694.24 1017143
3 1694.24 1007928
3 1694.24 1003869
3 1694.24 999610
3 1694.24 998249
3 1694.24 994190
3 1694.24 990584
3 1694.96 983933
1 1705.06 983267
3 1705.06 982702
3 1705.06 980875
3 1705.78 974566
3 1708.24 1037910
3 1708.24 1028695
3 1708.24 993592
3 1708.24 985529
3 1708.24 980964
3 1708.24 969951
3 1708.67 969597
3 1709 967149
3 1709 957499
3 1709 954029
3 1709 952898
3 1722.19 1031945
3 1722.19 1028624
3 1722.19 1028423
3 1722.19 1024431
3 1722.19 1020758
3 1722.19 1017349
3 1722.19 1013057
3 1723.35 1011749
3 1723.35 1011184
3 1723.35 1009686
3 1736.24 1014168
3 1736.24 1007517
3 1736.24 1001208
3 1736.24 981012
3 1736.24 977539
3 1736.24 969874
3 1736.24 968539
3 1736.24 966496
3 1736.24 964796
3 1736.79 960885
3 1737.12 958487
3 1750.06 1010097
3 1750.06 1005117
3 1750.06 1003655
3 1750.06 995990
3 1750.06 994693
3 1750.06 993320
3 1750.54 992189
3 1750.54 988149
3 1750.54 975729
3 1750.54 966555
3 1750.93 963579
3 1750.93 963369
3 1750.93 959077
3 1750.93 955944
3 1751.94 954813
3 1764.19 1042469
3 1764.19 1027306
3 1764.19 1026175
3 1764.19 1023003
3 1764.19 1016766
3 1764.65 1012074
3 1764.65 1001783
3 1764.65 996549
3 1764.65 996118
3 1765.07 979648
3 1765.07 979357
3 1765.07 978792
3 1765.44 977473
3 1778.08 1057124
3 1778.08 1046536
3 1778.08 1021605
3 1778.08 1017766
3 1778.08 1011971
3 1778.56 998214
3 1778.56 996606
3 1778.56 990297
3 1778.56 983933
1 1787.53 983267
3 1787.88 982702
3 1787.88 982538
3 1787.88 980930
3 1788.25 978405
3 1788.25 974566
3 1792.09 1053552
3 1792.09 1047459
3 1792.09 1047255
3 1792.09 1037601
3 1792.09 1034223
3 1792.09 1015147
3 1792.09 999622
3 1792.58 986326
3 1792.58 984020
3 1792.58 982444
3 1792.58 980826
3 1792.58 976920
3 1793.04 975883
3 1793.04 975462
3 1793.04 969838
3 1793.43 969373
3 1806.11 1032470
3 1806.11 1032266
3 1806.11 1002142
3 1806.11 994864
3 1806.11 978724
3 1806.5 977226
3 1806.5 973715
3 1806.5 970823
3 1807.11 970504
3 1807.42 969373
1 1812.25 963349
3 1812.55 961939
3 1812.55 961685
3 1812.89 958135
3 1813.21 955427
3 1813.53 954862
3 1813.84 952351
3 1814.67 952200
3 1814.67 951069
3 1820.01 1043114
3 1820.01 1039736
3 1820.01 1038888
3 1820.01 1032651
3 1820.01 1017126
3 1820.01 1000239
3 1820.01 998651
3 1820.01 998050
3 1820.01 993588
3 1820.01 983049
3 1820.61 982448
3 1820.61 978431
3 1820.61 978169
3 1820.99 977038
3 1820.99 973219
3 1820.99 969373
3 1834.12 1047496
3 1834.12 1038071
3 1834.12 1034969
3 1834.12 1022546
3 1834.12 1019168
3 1834.12 1012859
3 1834.12 1011728
3 1834.12 1009635
3 1834.12 992652
3 1834.63 985138
3 1834.63 977473
1 1838.72 975777
3 1838.72 973582
3 1838.72 972962
3 1839.1 972343
3 1839.1 967864
3 1839.44 967299
3 1848.3 1048390
3 1848.3 1046892
3 1848.3 1036903
3 1848.3 1021378
3 1848.3 1018000
3 1848.72 1012483
3 1848.72 1006174
3 1849.07 996959
3 1849.4 990376
3 1862.13 1041499
3 1862.13 1031469
3 1862.13 1015944
3 1862.13 1009635
3 1862.13 997893
3 1862.13 993057
3 1862.61 985543
3 1862.61 983484
3 1862.61 979357
3 1862.61 978038
3 1862.61 977473
3 1876.19 1038398
3 1876.19 1032161
3 1876.19 1022129
3 1876.19 1018627
3 1876.19 1012914
3 1876.64 1009159
3 1876.97 1002739
3 1876.97 1000144
3 1876.97 999950
3 1877.36 992959
3 1890.16 1038063
3 1890.16 1032370
3 1890.16 1024618
3 1890.16 1009093
3 1890.16 1003000
3 1890.16 1000520
3 1890.16 996516
3 1890.16 993138
3 1890.16 992640
3 1890.16 984975
3 1890.16 973219
3 1890.59 972507
3 1890.59 969733
3 1890.59 969373
1 1899.11 963873
3 1899.11 963315
3 1899.31 962750
3 1899.31 960506
3 1899.31 959375
3 1899.74 958691
3 1899.74 958307
3 1900.97 958137
3 1901.85 952971
3 1904.12 1063920
3 1904.12 1048924
3 1904.12 1042024
3 1904.12 1021663
3 1904.12 1012170
3 1904.12 1002581
3 1904.12 1000320
3 1904.12 995431
3 1904.44 988502
3 1904.44 982387
3 1904.44 976884
3 1904.87 975736
3 1905.07 975610
3 1905.07 973875
3 1905.07 971737
3 1905.07 970504
3 1905.32 969733
3 1905.32 969373
3 1918.08 1042163
3 1918.08 1012368
3 1918.08 1006972
3 1918.08 1005846
3 1918.08 1003462
3 1918.08 997561
3 1918.39 993682
3 1918.6 993274
3 1918.6 989896
3 1919.02 987338
3 1919.22 987088
3 1919.22 981416
3 1919.22 979357
3 1919.22 978792
3 1919.52 977473
3 1932.13 1050415
3 1932.13 1049284
3 1932.13 1043179
3 1932.13 1025853
3 1932.13 1016325
3 1932.13 1015760
3 1932.13 1014111
3 1932.13 995010
3 1932.53 990573
3 1932.53 984387
3 1932.53 983822
3 1932.53 978322
3 1932.53 977496
3 1932.87 974893
3 1932.87 974616
3 1932.87 970568
3 1933.14 967152
3 1933.14 965070
3 1933.14 964536
3 1933.43 964331
3 1935.8 962681
3 1935.8 951597
3 1935.8 950858
3 1946.15 1013428
3 1946.15 1013083
3 1946.15 1011942
3 1946.15 1010050
3 1946.15 1002536
3 1946.15 990592
3 1946.15 989461
3 1946.15 987766
3 1946.15 986105
3 1946.56 981796
3 1946.56 975610
3 1946.99 973975
3 1946.99 972147
3 1946.99 969373
1 1958.44 968639
3 1958.44 967150
3 1958.44 965394
3 1958.71 962149
3 1958.92 959979
3 1958.92 959667
3 1959.16 959464
3 1959.16 956317
3 1959.4 955498
3 1959.4 955370
3 1959.98 954862
3 1960.18 1005218
3 1960.18 1000826
3 1960.18 982155
3 1960.18 980123
3 1960.18 975918
3 1960.52 975488
3 1961.11 970680
3 1961.33 970570
3 1961.55 968044
3 1961.95 965479
3 1961.95 965180
3 1974.09 1018486
3 1974.09 1006888
3 1974.09 1000579
3 1974.09 983397
3 1974.09 977887
3 1974.09 976746
3 1974.09 976482
3 1974.45 967308
3 1974.45 964002
3 1974.45 963016
3 1974.7 959880
3 1974.91 956779
3 1975.48 955825
3 1975.48 955755
3 1975.9 955711
3 1988.14 1027421
3 1988.14 1026290
3 1988.14 1007305
3 1988.14 991780
3 1988.14 991002
3 1988.14 988402
3 1988.14 983710
3 1988.53 983505
3 1988.75 982165
3 1988.97 977473
3 2002.1 1040056
3 2002.1 1028314
3 2002.1 1025100
3 2002.1 1022966
3 2002.1 1022883
3 2002.1 1017383
3 2002.1 1008209
3 2002.1 1006997
3 2002.5 1005499
3 2002.5 1003609
3 2002.5 994516
3 2002.5 985826
3 2002.5 975673
3 2002.5 973882
3 2002.82 972751
3 2002.82 972265
3 2002.82 969373
1 2004.86 968941
3 2004.86 963349
3 2005.61 961939
3 2005.81 961685
3 2005.81 961373
3 2006.38 959375
3 2006.75 958307
3 2007.29 954649
3 2007.29 952971
1 2016.14 1039061
3 2016.14 1023753
3 2016.14 1023549
3 2016.14 1006249
3 2016.43 1004448
3 2016.43 992148
3 2016.43 989468
3 2016.72 989389
3 2016.72 983375
3 2017.5 983080
3 2030.27 1039799
3 2030.27 1032134
3 2030.27 1031092
3 2030.27 1022795
3 2030.27 1016486
3 2030.27 997410
3 2030.76 995180
3 2030.76 993682
3 2031.12 987496
3 2031.12 987338
3 2031.12 987133
3 2031.12 983261
3 2031.52 981101
3 2031.52 980638
3 2031.86 977473
3 2044.05 1014525
3 2044.05 1005400
3 2044.05 999545
3 2044.05 999307
3 2044.05 993105
3 2044.05 992379
3 2044.43 991486
3 2044.43 969981
3 2044.43 963744
3 2044.43 961776
3 2044.71 955539
3 2044.71 954813
3 2058.14 998469
3 2058.14 983836
3 2058.14 983271
3 2058.43 978689
3 2058.43 977983
3 2058.67 974653
3 2059.26 973691
3 2072.22 1035331
3 2072.22 1026116
3 2072.22 1016776
3 2072.22 1010125
3 2072.22 1007819
3 2072.6 988751
3 2072.83 988186
3 2072.83 986639
3 2072.83 984798
3 2072.83 984261
3 2072.83 982978
3 2073.96 979125
3 2086.14 1041722
3 2086.14 1026120
3 2086.14 1024707
3 2086.14 1021720
3 2086.14 1013233
3 2086.14 1005631
3 2086.14 1000939
3 2086.14 997561
3 2086.14 994960
3 2086.14 985138
3 2086.14 981259
3 2087.04 981101
3 2087.04 980851
3 2087.04 978792
3 2087.04 977473
3 2100.1 1024919
3 2100.1 1015685
3 2100.1 1012785
3 2100.1 1012341
3 2100.1 1006548
3 2100.1 991183
3 2100.1 980739
3 2100.1 972868
3 2100.1 969838
3 2100.65 967368
3 2100.65 966862
3 2100.65 960701
3 2100.65 954518
3 2100.65 954392
3 2101.39 954000
3 2101.39 953069
3 2101.74 952869
3 2101.74 951701
3 2102.08 950669
3 2102.08 948267
3 2102.08 948095
3 2114.07 1073229
3 2114.07 1067136
3 2114.07 1047772
1 2114.07 1044170
3 2114.07 1037519
3 2114.07 1018418
3 2114.07 1002816
3 2114.07 1001924
3 2114.07 994259
3 2114.07 990881
3 2114.67 982558
3 2128.16 1046772
3 2128.16 1041869
3 2128.16 1037577
3 2128.16 1018900
3 2128.16 1012591
3 2128.16 1008780
3 2128.16 1006517
3 2128.16 1003679
3 2128.16 998852
3 2128.58 996165
3 2128.58 992705
3 2128.58 988081
3 2128.58 981988
3 2128.58 977320
3 2128.9 973172
3 2129.13 963140
3 2129.35 961678
3 2134.46 960484
3 2142.21 1020732
3 2142.21 1017630
3 2142.21 1005207
3 2142.21 1004076
3 2142.21 995166
3 2142.21 991151
3 2142.64 989216
3 2142.64 988317
3 2142.64 986819
3 2142.64 985835
3 2142.64 984704
3 2143.1 984077
3 2143.1 983710
3 2143.76 983505
3 2144.37 982994
3 2144.37 980851
3 2144.37 977473
1 2152.02 972962
3 2152.02 971716
3 2152.02 968990
3 2152.48 965065
3 2152.48 962681
3 2152.85 956243
3 2153.17 955330
3 2153.48 953242
3 2154.39 952743
3 2154.72 952356
3 2155.04 950858
3 2156.17 1023593
3 2156.17 1007448
3 2156.17 1004517
3 2156.17 1000931
3 2156.17 997927
3 2156.17 991352
3 2156.17 990899
3 2156.7 989213
3 2156.7 984662
3 2156.7 982562
3 2156.7 981378
3 2157.74 976384
3 2158.37 975695
3 2158.37 975491
3 2170.22 1021938
3 2170.22 1016959
3 2170.22 1011688
3 2170.22 1008722
3 2170.22 1002213
3 2170.68 1001082
3 2170.68 985789
3 2170.68 983756
3 2170.68 979793
3 2170.68 975462
3 2170.68 972751
3 2171.16 969373
3 2184.01 1032245
3 2184.01 1029907
3 2184.01 1026059
3 2184.01 1001128
3 2184.01 1000095
3 2184.01 994528
3 2184.01 993397
3 2184.01 991966
3 2184.01 990683
3 2184.01 989965
3 2184.01 983782
3 2184.62 978038
3 2184.62 977473
3 2198.15 1035269
3 2198.15 1027755
3 2198.15 1020610
3 2198.15 1013959
3 2198.15 1010211
3 2198.61 994732
3 2198.61 994686
3 2198.61 988449
3 2198.61 969373
1 2210.3 963095
3 2212.09 1018254
3 2212.09 1016118
3 2212.09 1009881
3 2212.09 1008600
3 2212.09 1003517
3 2212.09 1000512
3 2212.09 988152
3 2212.09 984987
3 2212.65 984837
3 2212.98 980851
3 2212.98 978473
3 2213.33 977473
1 2222.87 977255
3 2222.87 972962
3 2222.87 971716
3 2222.87 970488
3 2222.87 966243
3 2223.21 965065
3 2223.21 964744
3 2223.21 963246
3 2223.21 962681
3 2225.05 953011
3 2225.27 951597
3 2225.27 950858
3 2226.02 1023462
3 2226.02 1015579
3 2226.02 1014448
3 2226.02 1008445
3 2226.02 1007314
3 2226.02 1003957
3 2226.02 994590
3 2226.02 975443
3 2226.02 954443
3 2226.02 953595
3 2226.53 953312
3 2226.53 953237
3 2226.53 948729
3 2240.1 1034057
3 2240.1 1030919
3 2240.1 1020428
3 2240.1 1017265
3 2240.1 1013286
3 2240.1 1013205
3 2240.1 1012074
3 2240.49 996549
3 2240.49 992620
3 2240.49 982994
3 2240.49 977473
1 2244.21 975736
3 2244.21 972962
3 2244.21 971716
3 2244.53 968990
3 2244.75 968044
3 2244.75 965479
3 2245.01 965149
3 2245.01 954997
3 2245.01 953402
3 2245.32 950834
3 2245.64 950754
3 2245.98 949320
3 2245.98 948269
3 2254.04 1051317
3 2254.04 1038956
3 2254.04 1035407
3 2254.04 1026453
3 2254.04 1017812
3 2254.04 1007352
3 2254.04 1003974
3 2254.04 992412
3 2254.55 990348
3 2254.55 988449
3 2254.55 981826
3 2254.55 980416
3 2254.97 977464
3 2254.97 972751
3 2254.97 969373
1 2263.8 964847
3 2263.8 963437
3 2264.18 961939
3 2264.51 961685
3 2265.14 960189
3 2265.14 959805
3 2265.51 958307
3 2267.83 958135
3 2267.83 956022
3 2267.83 952916
3 2268.21 1035063
3 2268.21 1028754
3 2268.21 1028471
3 2268.21 1022661
3 2268.21 1021413
3 2268.21 1014431
3 2268.21 998906
3 2268.21 998877
3 2268.73 992640
3 2268.73 991612
3 2268.73 986465
3 2269.13 981580
3 2269.13 980416
3 2269.13 974650
3 2269.52 974046
3 2269.52 971272
3 2269.52 970504
3 2269.52 969373
3 2282.25 1058830
3 2282.25 1057139
3 2282.25 1056574
3 2282.25 1047400
3 2282.25 1041091
3 2282.67 1014094
3 2282.67 1011925
3 2282.67 1010967
3 2283.36 1009122
3 2283.36 1005467
3 2296.03 1050223
3 2296.03 1048373
3 2296.03 1040708
3 2296.03 1035746
3 2296.03 1016670
3 2296.03 1014981
3 2296.03 1013568
3 2296.03 1010190
3 2296.57 1009087
3 2296.57 1002901
3 2296.57 997653
3 2296.57 994251
3 2296.57 993686
3 2296.57 992188
3 2297.04 987496
3 2297.04 987338
3 2297.04 981219
3 2297.04 981101
3 2297.44 977473
3 2310.16 1038441
3 2310.16 1022839
3 2310.16 1016746
3 2310.16 1010437
3 2310.16 1002923
3 2310.16 994125
3 2310.16 990961
3 2310.16 984003
3 2310.16 982448
3 2310.68 982321
3 2310.68 982165
3 2311.59 979328
3 2311.59 976355
3 2312.51 975656
3 2312.51 970504
3 2312.51 969373
1 2319.08 965371
3 2319.08 963095
3 2319.71 961685
3 2320.02 958691
3 2320.32 958307
3 2320.63 954544
3 2324.25 1024490
3 2324.25 1017839
3 2324.25 1015865
3 2324.65 1009852
3 2324.65 1003648
3 2324.65 1002174
3 2325.05 996670
3 2325.05 994192
3 2325.05 992959
3 2338.3 1001567
3 2338.3 1000436
3 2338.3 994127
3 2338.3 983007
3 2338.3 962325
3 2338.75 960155
3 2338.75 955681
3 2338.75 953151
3 2338.75 947651
3 2339.44 947462
3 2339.44 945898
3 2352.07 1046770
3 2352.07 1027308
3 2352.07 1023099
3 2352.07 1022955
3 2352.07 1014814
3 2352.07 1013781
3 2352.07 1007149
3 2352.07 995913
3 2352.07 986467
3 2352.07 985722
3 2352.65 982376
3 2352.65 975327
3 2352.65 971272
3 2352.65 969090
3 2352.65 968625
3 2353.06 967041
3 2354.28 966693
3 2354.28 966484
3 2354.28 963150
3 2366.23 1076349
3 2366.23 1062069
3 2366.23 1042968
3 2366.23 1040861
3 2366.23 1025496
3 2366.23 1024581
3 2366.71 1023083
3 2366.71 1022912
3 2367.08 1012195
3 2367.08 1008739
3 2367.08 1005831
3 2367.08 1005708
3 2367.08 998809
3 2367.08 997063
3 2367.57 996997
3 2367.57 996670
3 2367.93 996252
3 2367.93 992959
3 2380.3 1030535
3 2380.3 1021407
3 2380.3 1018677
3 2380.3 1018149
3 2380.3 1011163
3 2380.72 1008436
3 2380.72 1002199
3 2394.1 1004104
3 2394.1 1003539
3 2394.1 1002408
3 2394.1 1000910
3 2394.82 994496
3 2394.82 992898
3 2394.82 987179
3 2396.9 983313
3 2408.22 1026197
3 2408.22 1024620
3 2408.22 1018311
1 2408.22 1017736
3 2408.22 1015048
3 2408.22 1009548
3 2408.22 1000333
3 2408.22 993682
3 2408.22 992688
3 2408.22 986451
3 2408.22 984948
3 2408.22 984916
3 2409.1 975479
3 2409.1 969959
3 2409.71 969746
3 2409.71 968197
3 2409.71 961350
3 2409.71 960785
3 2410.7 958436
3 2410.7 955370
3 2422.03 1016760
3 2422.03 1009095
3 2422.03 1007203
3 2422.03 1000966
3 2422.03 992620
3 2422.03 979143
3 2422.53 977473
3 2436.2 1058849
3 2436.2 1055471
3 2436.2 1025676
3 2436.2 1024447
3 2436.2 1018354
3 2436.2 1018150
3 2436.2 1002548
3 2436.68 1000212
3 2436.68 994107
3 2437.03 988778
3 2437.03 980911
3 2437.03 979256
3 2437.03 976355
3 2437.03 969373
3 2450.13 1030334
3 2450.13 1013205
3 2450.13 1012074
3 2450.13 999408
3 2450.13 998323
3 2450.13 992033
3 2450.13 983929
3 2450.13 981982
3 2450.13 981185
3 2450.66 979923
3 2450.66 978604
3 2450.66 977473
3 2464.13 1051820
3 2464.13 1050477
3 2464.13 1049912
3 2464.55 1043895
3 2464.55 1042352
3 2464.55 1033178
3 2464.55 1029016
3 2464.55 1026814
3 2464.55 1020353
3 2464.55 1010114
3 2464.55 1009549
3 2465.09 1003633
3 2465.09 1001779
3 2465.45 996119
3 2478.12 995927
3 2478.12 980562
3 2478.48 977100
3 2478.48 967733
3 2478.48 966798
3 2479.76 962988
3 2479.76 960332
3 2479.76 957449
3 2480.15 955879
3 2480.15 953151
3 2480.15 952311
3 2480.15 948279
3 2480.15 947651
1 2487.65 946444
3 2487.97 945313
3 2487.97 943039
3 2487.97 941539
3 2492.05 1031437
3 2492.05 1021405
3 2492.05 1015219
3 2492.05 987436
3 2492.05 982415
3 2492.05 982300
3 2492.05 980294
3 2492.05 975636
3 2492.05 973807
3 2492.05 970911
3 2492.05 969134
3 2492.05 959919
3 2492.05 956189
3 2492.58 955370
3 2506.03 1071705
3 2506.03 1067842
3 2506.03 1064040
3 2506.03 1057731
3 2506.03 1019788
3 2506.03 1011103
3 2506.03 1004739
3 2506.03 994707
3 2506.03 991739
3 2506.52 990749
3 2506.52 987371
3 2506.52 978496
3 2506.52 972245
3 2506.81 969720
3 2507.04 966114
3 2520.17 1075079
3 2520.17 1070787
3 2520.17 1052516
3 2520.17 1043967
3 2520.17 1037307
3 2520.17 1031070
3 2520.17 1024977
3 2520.17 1024595
3 2520.17 1023846
3 2520.17 1022205
3 2520.17 1017023
3 2520.17 1015442
3 2520.17 1010659
3 2520.76 1007777
3 2520.76 1007671
3 2520.76 1006385
3 2521.1 1003330
3 2521.1 1002199
3 2534.09 1028093
3 2534.09 1020986
3 2534.09 1016074
3 2534.09 1014943
3 2534.09 1011565
3 2534.09 1010806
3 2534.09 998999
3 2534.09 993939
3 2534.64 986827
3 2534.97 978337
3 2534.97 970823
3 2535.59 970504
3 2535.59 969373
3 2548.01 1069325
3 2548.01 1044394
3 2548.01 1042906
3 2548.01 1026415
3 2548.01 1025284
3 2548.01 1022699
3 2548.01 1015252
3 2548.01 1014762
3 2548.01 1008962
3 2548.01 1007248
3 2548.01 1003870
3 2548.45 998964
3 2548.45 992727
3 2548.45 991447
3 2548.45 991392
3 2548.74 991375
3 2548.95 986291
3 2548.95 983494
3 2548.95 980619
3 2548.95 980054
3 2548.95 977473
3 2562.05 1027103
3 2562.05 1026415
3 2562.05 1013578
3 2562.05 1012447
3 2562.05 1005621
3 2562.05 999978
3 2562.05 989946
3 2562.05 987160
3 2562.48 983782
1 2562.87 982652
3 2562.87 982025
3 2562.87 980313
3 2562.87 977753
3 2562.87 976622
3 2562.87 973385
3 2563.4 972461
3 2563.4 971716
3 2563.4 968044
3 2563.4 965065
3 2563.4 956982
3 2563.4 956243
3 2563.75 953242
3 2564.47 952356
3 2564.47 950858
3 2576.03 999979
3 2576.03 999825
3 2576.03 990068
3 2576.03 983985
3 2576.03 980607
3 2576.03 972682
3 2576.03 972523
3 2576.03 971958
3 2576.41 971893
3 2576.41 968535
3 2576.41 967037
3 2576.41 966336
3 2576.41 965906
3 2576.72 959602
3 2576.72 958543
3 2576.95 954259
3 2590.07 1101684
3 2590.07 1082583
3 2590.07 1058914
3 2590.07 1052677
3 2590.07 1032044
3 2590.07 1029393
3 2590.07 1028264
3 2590.07 1023300
3 2590.45 1014126
3 2590.45 1011154
3 2590.7 1011063
3 2590.7 1010532
3 2590.7 1010067
3 2590.7 1006461
3 2590.7 1001728
3 2590.7 999721
3 2591.05 993070
3 2604.15 990434
3 2604.15 981775
3 2604.15 981769
3 2604.15 978703
3 2604.15 972052
3 2604.15 971336
3 2604.15 970771
3 2604.15 967936
3 2604.15 967328
3 2604.15 965753
3 2604.15 964622
3 2604.15 961556
3 2607.3 958137
3 2607.3 957762
3 2607.3 954544
3 2607.3 952971
3 2618.16 1030213
3 2618.16 1022767
3 2618.16 1019389
3 2618.16 1012607
3 2618.16 1011875
3 2618.16 1011594
3 2618.16 1005782
3 2618.16 993019
3 2618.16 985354
3 2618.57 971737
3 2618.57 969733
3 2618.81 969373
3 2632.04 1037053
3 2632.04 1003455
3 2632.04 995790
3 2632.04 992234
3 2632.04 987596
3 2632.04 986098
3 2632.4 983152
3 2632.4 980260
3 2632.4 973336
3 2632.66 970823
1 2632.66 968925
3 2632.89 964806
3 2632.89 963308
3 2633.12 959545
3 2633.12 955370
3 2646.08 1026469
3 2646.08 1020969
3 2646.08 1007639
3 2646.08 999974
3 2646.08 982484
3 2646.08 976247
3 2646.08 962765
3 2646.08 957068
3 2646.08 956574
3 2646.47 956405
3 2646.47 955656
3 2646.47 952968
3 2648.05 952311
3 2648.05 951919
3 2648.05 950540
3 2648.05 945617
3 2648.34 944486
3 2648.34 943554
3 2648.34 941821
3 2660.11 1013567
3 2660.11 1012194
3 2660.11 1004529
3 2660.11 1000597
3 2660.11 991714
3 2660.11 989620
3 2660.11 986778
3 2660.46 986156
3 2660.69 976190
3 2660.69 975041
3 2660.92 973211
3 2661.13 967788
3 2661.34 967037
3 2661.34 965906
3 2661.93 960546
3 2662.48 958697
3 2662.48 957304
3 2662.85 955711
3 2674.01 1047868
3 2674.01 1038673
3 2674.01 1035644
3 2674.01 1013440
3 2674.01 1012767
3 2674.01 1005253
3 2674.01 1001875
3 2674.01 994210
3 2674.01 991135
3 2674.87 989138
3 2674.87 981699
3 2674.87 975610
3 2674.87 969373
3 2688.09 1056532
3 2688.09 1050295
3 2688.09 1042630
3 2688.09 1035116
3 2688.09 1033985
3 2688.09 1027676
3 2688.09 1024574
3 2688.09 1018388
3 2688.09 1009635
3 2688.09 1002690
3 2688.68 996453
3 2688.68 993075
3 2689.32 991186
3 2689.32 990288
3 2689.32 989669
3 2689.32 986883
3 2689.73 983505
3 2689.73 982994
3 2689.73 977473
3 2702.01 1057096
3 2702.01 1037995
3 2702.01 1022630
3 2702.01 1012598
3 2702.47 1004105
3 2702.47 1000856
3 2702.47 980660
3 2703.2 974009
3 2716.04 1050779
3 2716.04 1049648
3 2716.04 1041983
3 2716.04 1038605
3 2716.04 1027851
3 2716.04 1023080
3 2716.04 1022117
3 2716.04 1016843
3 2716.04 1012151
3 2716.04 1011033
3 2716.49 1005950
3 2716.49 1004051
3 2716.49 1001580
3 2716.49 988449
3 2716.49 973219
3 2716.86 972507
3 2716.86 972147
3 2716.86 969373
1 2717.33 963349
3 2717.54 961939
3 2717.54 961685
3 2717.77 958691
3 2717.77 958307
3 2719.91 956022
3 2719.91 953774
3 2719.91 952351
3 2720.17 952199
3 2720.17 951069
3 2730.21 1039778
3 2730.21 1033469
3 2730.21 1031408
3 2730.21 1025908
3 2730.21 1005845
3 2730.21 986698
3 2730.21 962693
3 2730.74 959287
3 2730.74 956574
3 2731.08 955972
3 2731.08 955088
3 2731.08 954522
3 2731.39 950502
3 2732.19 947462
3 2732.64 945898
3 2744.17 1026589
3 2744.17 1021132
3 2744.17 1020352
3 2744.17 1014823
3 2744.17 1012639
3 2744.17 1010320
3 2744.17 1003652
3 2744.17 1000274
3 2744.68 991544
3 2744.68 990413
3 2744.99 984082
3 2744.99 982849
3 2744.99 982308
3 2744.99 981329
3 2744.99 980198
3 2744.99 979097
3 2744.99 978553
3 2744.99 970664
3 2745.42 967487
3 2745.42 966404
3 2745.42 964714
3 2745.42 964548
3 2745.42 963195
3 2745.74 962112
3 2746.13 960409
3 2746.34 960365
3 2746.34 960003
3 2746.34 959234
3 2746.78 958225
3 2746.78 954259
3 2758.3 1049891
3 2758.3 1034826
3 2758.3 1015750
3 2758.3 1000148
3 2758.76 998800
3 2758.76 996038
3 2758.76 983334
3 2758.76 980513
3 2758.76 975610
3 2759.21 972295
3 2759.21 969373
1 2769.85 968941
3 2769.85 967150
3 2770.21 964847
3 2770.21 964551
3 2770.55 961711
3 2770.55 960323
3 2770.55 958178
3 2770.55 957433
3 2770.55 955935
3 2770.55 955498
3 2772.11 1075284
3 2772.11 1072281
3 2772.11 1054955
3 2772.11 1035854
3 2772.11 1034369
3 2772.11 1029203
3 2772.11 1014414
3 2772.11 998889
3 2772.11 995970
3 2772.11 995765
3 2772.64 989733
3 2772.64 984987
3 2772.98 983322
3 2772.98 981101
3 2773.33 978896
3 2773.33 978792
3 2773.33 977473
3 2786.12 1011925
3 2786.12 1005561
3 2786.12 994299
3 2786.12 990036
3 2786.12 989278
3 2786.62 986931
3 2786.95 985727
3 2786.95 985630
3 2786.95 982252
Score = 957003
