    Blocking waiting for file lock on package cache
    Blocking waiting for file lock on package cache
    Blocking waiting for file lock on package cache
    Blocking waiting for file lock on package cache
    Blocking waiting for file lock on build directory
    Finished release [optimized] target(s) in 0.07s
     Running `target/release/tester ../a.out 0022`
3 0.016 1023294
3 0.016 1013723
3 0.016 1013057
1 0.016 1012949
3 0.016 1005060
3 0.016 994974
3 0.016 994528
3 0.016 993705
3 0.016 988447
3 0.016 988149
3 0.427 980260
3 0.427 970911
3 0.427 969373
1 2.645 963350
3 2.645 962974
3 2.868 960629
3 2.868 960191
3 3.096 957203
3 7.022 954661
3 7.022 953024
3 7.022 950976
3 7.37 949478
3 14.095 1021178
3 14.095 1020827
3 14.095 1014299
3 14.095 1008799
3 14.095 1005887
3 14.095 1002435
3 14.095 997878
3 14.095 994086
3 14.351 991156
3 14.351 989228
3 14.351 988306
3 14.566 988102
3 14.566 987577
3 14.566 985965
3 14.566 982266
3 14.566 979274
3 15.547 978451
3 15.926 974902
1 16.227 974813
3 16.227 974659
3 16.227 973830
3 16.56 973802
3 16.56 973688
3 28.143 1031969
3 28.143 1020868
3 28.143 1013354
3 28.143 1009062
3 28.143 999967
3 28.143 993874
3 28.143 986133
3 28.143 979824
3 28.612 979062
3 28.612 970650
3 28.612 967432
3 28.612 966456
3 28.987 966178
3 28.987 962862
3 28.987 961678
3 29.429 960484
3 42.143 1036931
3 42.143 1030280
3 42.143 1010325
3 42.143 1005528
3 42.143 1003224
3 42.143 998188
3 42.523 995168
3 42.523 987373
3 42.523 986759
3 42.523 981259
3 42.873 979408
3 42.873 977812
3 42.873 977189
3 43.195 974746
3 43.195 972817
3 56.084 992533
3 56.084 986224
3 56.084 985911
3 56.084 983951
3 56.084 983177
3 56.084 977677
3 56.084 975374
3 56.084 974255
3 56.084 964576
3 56.452 961245
3 56.452 959807
3 56.452 958461
3 56.452 952152
3 56.952 950370
3 61.086 949159
3 70.221 982534
3 70.221 978242
3 70.221 975359
3 70.221 973986
3 70.221 969261
3 70.221 969063
3 70.221 964950
3 70.221 964385
3 70.221 964310
3 70.221 963179
3 70.673 959599
3 70.673 957907
3 70.673 952948
3 84.018 1025350
3 84.018 1013527
3 84.018 1011867
3 84.018 1005218
3 84.018 998864
3 84.018 992791
3 84.018 991372
3 84.018 988081
3 84.018 983709
3 84.446 983496
3 84.446 980027
3 84.446 979314
3 84.446 978183
3 84.446 976195
3 84.811 973817
3 85.111 973382
3 85.413 972817
3 98.153 1038622
3 98.153 1020411
3 98.153 1016180
3 98.153 1008666
3 98.153 1002090
3 98.153 1001949
3 98.153 992775
3 98.153 982743
3 98.153 974181
3 98.153 973566
3 98.571 966052
1 110.639 965242
3 110.817 964690
3 110.817 962020
3 110.817 957648
3 110.817 956027
3 110.817 955462
3 110.817 952948
3 112.106 1039172
3 112.106 1028981
3 112.106 1019228
3 112.106 1012577
3 112.106 1005063
3 112.106 997398
3 112.411 995292
3 112.411 988447
3 112.638 985260
3 112.638 981796
3 113.384 980802
3 113.384 979691
3 113.384 978664
3 113.384 977009
3 113.634 974647
3 113.634 971041
3 113.634 969373
1 123.271 961979
3 123.575 959258
3 123.575 957242
3 123.575 957203
3 125.725 953024
3 126.072 1054364
3 126.072 1038839
3 126.072 1034190
3 126.072 1032530
3 126.072 1012575
3 126.072 1009109
3 126.072 999813
3 126.072 998682
3 126.072 995746
3 126.393 994628
3 126.393 991927
3 126.393 987114
3 126.393 984788
3 126.393 980416
3 126.608 977038
3 126.915 976709
3 126.915 972110
3 126.915 969373
1 128.136 965344
3 128.442 964907
3 128.442 964658
3 128.799 956129
3 128.799 955576
3 129.391 955568
3 129.683 954070
3 129.982 953505
3 130.737 953063
3 130.957 953024
3 140.239 1044036
3 140.239 1036256
3 140.239 1032294
3 140.239 1020654
3 140.239 1014241
3 140.239 1004342
3 140.239 1004104
3 140.239 1001580
3 140.239 995271
3 140.665 994093
3 140.665 991893
3 141.337 982715
3 141.337 978849
3 141.581 976473
3 141.757 972817
3 154.106 1016922
3 154.106 1011302
3 154.106 1006141
3 154.106 1000397
3 154.106 998080
3 154.106 997173
3 154.106 991149
3 154.106 987748
3 154.376 986617
3 154.376 983363
3 154.376 982504
3 154.566 981730
3 154.566 978124
3 154.566 974746
3 154.566 972817
3 168.038 1035827
3 168.038 1016751
3 168.038 1015620
3 168.038 994198
3 168.038 983407
3 168.433 980029
3 168.433 975051
3 168.763 964652
3 168.763 963346
3 168.763 963254
3 168.763 955589
3 169.436 955136
3 169.436 952919
3 169.436 949617
3 169.7 947462
3 171.186 946415
3 182.207 1064542
3 182.207 1052800
3 182.207 1042768
3 182.207 1033190
3 182.207 1017837
3 182.207 996415
3 182.207 994442
3 182.207 985268
3 182.606 978920
3 182.798 977509
3 183.434 973020
3 183.434 971699
3 183.768 970504
3 183.768 969373
3 196.041 1011822
3 196.041 1006536
3 196.041 998871
3 196.041 994196
3 196.041 989824
3 196.041 983146
3 196.041 974957
3 196.041 964257
3 196.041 963692
3 196.041 963375
3 196.338 961291
3 210.075 1046464
3 210.075 995335
3 210.075 987516
3 210.075 977836
3 210.075 970179
3 210.322 963143
3 210.322 961678
3 211.543 961005
3 211.731 960484
3 224.255 1063447
3 224.255 1039101
3 224.255 1037970
3 224.255 1025643
3 224.255 1024644
3 224.255 1015393
3 224.255 1003625
3 224.255 1000319
3 224.255 999016
3 224.255 997316
3 224.698 996007
3 225.006 985185
3 225.006 984854
3 225.006 982039
3 225.006 981613
3 225.006 980996
3 225.006 979865
3 225.377 978352
3 225.681 974746
3 225.987 973382
3 225.987 972817
3 238.067 1025280
3 238.067 1009678
3 238.067 1007352
3 238.067 1000104
3 238.067 993453
3 238.067 988276
3 238.067 984898
3 238.067 983862
3 238.067 969490
3 238.067 969373
1 244.26 968270
3 244.26 964481
3 244.26 963350
3 244.616 960629
3 244.616 960605
3 244.616 960464
3 244.616 960040
3 245.89 959167
3 245.89 958348
3 245.89 952679
3 252.072 1044231
3 252.072 1016352
1 252.072 1012640
3 252.072 1007617
3 252.072 1006486
3 252.072 1002190
3 252.072 990884
3 252.341 990014
3 254.237 986842
3 254.237 982941
3 254.237 982376
3 254.576 977652
3 266.182 1070220
3 266.182 1062706
3 266.182 1060849
3 266.182 1051130
3 266.182 1050565
3 266.182 1049434
3 266.182 1019310
3 266.182 1017812
3 266.182 1011247
3 266.182 1004883
3 266.939 1002429
3 266.939 1000030
3 267.324 998292
3 267.324 998176
3 267.324 997313
3 267.679 996119
3 280.236 1042550
3 280.236 1023474
3 280.236 1020614
3 280.236 1019913
3 280.236 1013679
3 280.236 1011002
3 280.236 1003337
3 280.236 998303
3 280.236 994926
3 280.236 987230
3 280.236 984975
3 280.678 969373
1 292.073 963477
3 292.073 961979
3 292.531 960654
3 294.151 1050193
3 294.151 1026684
3 294.151 1024873
3 294.151 1004191
3 294.151 994512
3 294.151 993450
3 294.151 990014
3 294.151 988278
3 294.151 985876
3 294.151 980376
3 294.151 979117
3 294.151 978878
3 294.151 972753
3 308.142 1034524
3 308.142 1026859
3 308.142 1009043
1 308.142 1005437
3 308.142 988111
3 308.142 986887
3 308.142 983739
3 308.142 981387
3 308.142 970207
3 308.426 966984
3 308.426 962612
3 308.426 956661
3 308.426 953066
3 308.426 950612
3 308.426 949617
3 308.426 946415
3 322.156 1036784
3 322.156 1035961
3 322.156 1029652
3 322.156 1026274
3 322.156 1024232
3 322.156 1008630
3 322.156 999896
3 322.156 997566
3 322.156 997234
3 322.156 994889
3 322.465 987224
3 322.645 977731
3 322.823 973745
3 322.823 969373
1 324.927 961414
3 324.927 961301
3 324.927 959924
3 324.927 957203
3 326.732 955576
3 326.732 954889
3 326.967 954324
3 326.967 953505
3 329.809 953063
3 329.809 953024
3 336.005 1029450
3 336.005 1021785
3 336.005 1012032
3 336.005 992956
3 336.005 989578
3 336.005 989434
3 336.4 980260
3 336.4 980256
3 336.4 969373
1 339.715 965909
3 339.715 961979
3 339.715 960836
3 339.715 959258
3 339.962 958693
3 340.84 957203
3 341.037 955702
3 341.037 952753
3 341.389 950976
3 341.569 949478
3 350.136 1047112
3 350.136 1025690
3 350.136 1022312
3 350.136 1003236
3 350.136 995722
3 350.624 982338
3 350.624 980840
3 351.34 978184
3 351.34 975557
1 356.192 973828
3 356.192 967097
3 356.536 962398
3 356.536 957714
3 357.47 956681
3 357.47 955589
3 357.47 946415
3 364.184 1022924
3 364.184 1007399
3 364.184 1004398
3 364.184 1003833
3 364.184 1002702
3 364.184 993528
3 364.184 992030
3 364.538 991374
3 364.538 987996
3 364.742 986530
3 364.742 982227
3 364.742 978183
3 364.943 976195
3 364.943 972817
1 372.853 966441
3 374.294 965822
3 374.294 963003
3 374.294 962438
3 378.039 1037873
3 378.039 1034324
3 378.039 1026956
3 378.039 1012741
3 378.039 1009571
3 378.039 1002254
3 378.039 994616
3 378.039 990227
3 378.521 977117
3 378.521 975642
3 378.521 975077
3 378.864 972726
3 378.864 971699
3 379.183 969373
3 392.178 1007837
3 392.178 1002337
3 392.178 995686
3 392.178 991847
3 392.178 976539
3 392.579 976182
3 392.579 975051
3 392.915 965947
3 392.915 960633
3 393.922 956574
3 394.118 956054
3 394.118 955656
3 394.118 952968
3 394.333 950342
3 394.333 946415
3 394.333 944033
3 406.075 995500
3 406.075 993788
3 406.075 993746
3 406.075 993559
3 406.075 990239
3 406.075 981501
3 406.075 978971
3 406.075 978087
3 406.075 973406
3 406.075 972870
3 406.075 972591
3 406.075 971135
3 406.371 969168
3 406.68 968207
3 406.68 966921
3 406.68 965766
3 406.68 964805
3 407.023 964421
3 407.323 963222
3 407.605 959009
3 407.605 958691
3 407.605 958307
3 408.248 952971
3 408.477 952679
3 420.182 1038330
3 420.182 1030665
3 420.182 1020549
3 420.182 1004947
3 420.182 1003763
3 420.182 990621
3 420.182 987960
3 420.182 987159
3 420.182 981066
3 420.614 978598
3 420.614 977123
3 420.939 973745
3 421.139 971354
3 421.139 970911
3 421.139 969373
1 425.279 969203
3 425.279 961301
3 425.279 959924
3 425.279 957203
3 427.656 951115
3 427.989 950609
3 427.989 949478
3 434.039 1014345
3 434.039 1006680
3 434.039 993322
3 434.039 976829
3 434.039 975433
3 434.422 973115
3 434.736 972577
3 438.568 970181
3 438.568 964493
3 439.069 963362
3 448.068 986698
3 448.068 983092
3 448.068 976485
3 448.068 967367
3 448.068 965603
3 448.068 965333
3 448.312 963254
3 448.312 957036
3 448.312 954080
3 448.541 946415
3 462.095 1058239
3 462.095 1054861
3 462.095 1047347
3 462.095 1042975
3 462.095 1027712
3 462.095 1025651
3 462.095 1018914
3 462.095 1017016
3 462.095 1006984
3 462.366 1002106
3 462.366 999846
3 462.366 999379
3 462.366 997406
3 462.366 996878
3 462.585 993034
3 462.585 992964
3 462.585 990227
3 462.585 987224
3 462.806 984122
3 462.806 981796
3 463.164 978664
3 463.164 974647
3 463.357 973745
3 463.357 969373
3 476.236 1002380
3 476.236 995262
3 476.236 984172
3 476.236 982116
3 476.236 974451
3 476.236 967482
3 476.638 966917
3 476.638 965786
3 476.638 964077
3 476.963 962587
3 476.963 955159
3 476.963 954862
3 477.517 952199
3 477.517 951366
3 477.738 951115
3 490.079 1051585
3 490.079 1048236
3 490.079 1038557
1 490.079 1018593
3 490.47 1016704
3 490.827 1009378
3 490.827 1003792
3 490.827 996166
3 490.827 994933
3 504.16 1017960
3 504.16 1011416
3 504.16 999487
3 504.16 991598
3 504.16 989346
3 504.16 985673
3 504.16 979893
3 504.16 978745
3 504.16 978169
3 504.464 977038
3 504.637 974647
3 504.637 971041
3 504.82 970911
3 504.82 969373
3 518.161 1010821
3 518.161 1000094
3 518.161 995722
3 518.161 980120
1 518.385 979873
3 518.385 974373
3 518.385 969517
3 518.385 964150
3 518.599 954935
3 518.952 952152
3 519.128 950370
3 521.75 949159
3 532.133 996906
3 532.133 995523
3 532.133 991734
3 532.133 985928
3 532.133 985363
3 532.367 981629
3 532.367 978317
3 532.367 976609
3 532.576 976130
3 532.576 971758
3 546.032 1010239
3 546.032 1003930
3 546.032 999558
3 546.032 997202
3 546.032 995814
3 546.032 988149
3 546.474 980260
3 546.474 970823
3 546.474 969373
1 548.292 961301
3 548.292 961055
3 548.506 958334
3 548.506 957242
3 548.695 957203
3 548.982 953024
3 548.982 949478
3 560.022 1056082
3 560.022 1046908
3 560.022 1037471
3 560.022 1029806
3 560.022 1022292
3 560.022 1007847
3 560.022 1005360
3 560.022 993333
3 560.022 982634
3 560.022 982584
3 560.35 977731
3 560.35 971699
3 560.797 971080
3 560.989 969373
1 565.854 963350
3 566.046 960629
3 566.234 957203
3 573.659 951115
3 573.929 950609
3 574.231 1001960
3 574.231 998494
3 574.231 989279
3 574.231 986392
3 574.231 985261
3 574.605 980358
3 574.605 977596
3 588.13 1044991
3 588.13 1033075
3 588.13 1017767
3 588.13 1008552
3 588.13 996747
3 588.13 994423
3 588.13 993106
3 588.13 987772
3 588.895 983933
3 602.289 1044994
3 602.289 1034962
3 602.289 1010031
3 602.289 1008900
3 602.289 993905
3 602.289 987793
3 602.289 982798
3 602.289 980722
3 602.723 979408
3 602.723 977812
3 603.043 974746
3 603.57 973501
3 603.57 972817
3 616.037 973782
3 616.037 970144
3 616.037 966538
3 616.037 959024
3 616.972 958468
3 617.157 955550
3 617.838 951915
3 618.017 948593
3 618.017 946415
3 630.27 1052745
3 630.27 1033669
3 630.27 1026155
3 630.27 1018490
3 630.27 1016427
3 630.27 1002298
3 630.27 995934
3 630.27 992137
3 630.27 990730
3 630.726 989599
3 631.07 982948
3 631.07 979570
3 631.877 977596
3 644.115 1071859
3 644.115 1051663
3 644.115 1037218
3 644.115 1023089
3 644.115 1016996
3 644.115 1015865
3 644.86 1009453
3 644.86 1003672
3 644.86 1003076
3 644.86 1001945
3 644.86 999480
3 645.137 992959
3 658.182 1020586
3 658.182 1007558
3 658.182 1006427
3 658.182 1005661
3 658.182 1000379
3 658.182 999010
3 658.182 997923
3 658.593 991957
3 658.593 991345
3 658.931 989932
3 658.931 989118
3 659.26 986649
3 659.26 983120
3 659.26 978352
3 659.26 978193
3 659.6 973501
3 660.94 972817
3 672.147 1036111
3 672.147 1022427
3 672.147 1014762
3 672.147 999438
3 672.147 999160
3 672.147 998029
3 672.147 992383
3 672.147 991720
3 672.579 989528
3 672.579 982227
3 672.579 980727
3 672.9 980567
3 672.9 976473
3 672.9 976195
3 673.223 974795
3 673.223 973817
3 673.823 973382
3 673.823 972817
3 686.201 1026072
3 686.201 1019763
3 686.201 1005061
3 686.201 1002705
3 686.201 991649
3 686.201 987645
3 686.201 984279
3 686.201 983148
3 686.201 982520
3 686.201 978849
3 687.829 977509
3 687.829 973346
3 700.212 1035251
3 700.212 1005456
3 700.212 1003823
3 700.212 996158
3 700.212 986984
3 700.212 973190
3 700.496 969812
3 700.496 969168
3 700.496 965562
3 700.697 961723
3 700.697 959341
3 700.697 955817
3 700.697 955256
3 701.406 949343
3 701.406 946182
3 701.742 944033
1 714.12 1066414
3 714.12 1051106
3 714.12 1031151
3 714.12 1025765
3 714.12 995970
3 714.12 991598
3 714.12 989064
3 714.12 971377
3 714.12 971248
3 714.401 969007
3 714.401 965401
3 714.401 959731
3 714.401 955589
3 714.952 954902
3 715.132 951554
3 715.132 946415
3 728.067 1040390
3 728.067 1034081
3 728.067 1029709
1 728.067 1016562
3 728.067 1010198
3 728.067 998655
3 728.067 995277
3 728.455 994673
3 728.455 988497
3 728.455 986753
3 728.455 983862
3 728.455 979088
3 728.825 977957
1 734.242 976023
3 734.242 972382
3 735.245 969190
3 735.432 968625
3 742.068 1050893
3 742.068 1032355
3 742.068 1027084
3 742.068 1025991
3 742.068 1025953
3 742.068 1018439
3 742.068 996120
3 742.068 995142
3 742.625 990850
3 742.625 983336
3 742.625 973870
3 742.625 967298
3 742.625 963140
3 742.903 961678
3 745.173 961615
3 745.575 960484
3 756.012 1023022
3 756.012 1015357
3 756.012 999832
3 756.404 991971
3 756.404 991395
3 756.404 991147
3 756.983 987541
3 770.104 1020136
3 770.104 1004534
3 770.104 993132
3 770.104 985618
3 770.104 984334
3 770.444 982325
3 770.444 978025
3 770.444 977778
3 770.444 977225
3 770.444 976084
3 770.444 973406
3 771.233 968779
1 776.859 967423
3 776.859 966943
3 777.06 965906
3 777.06 964890
3 777.26 960623
3 777.439 960069
3 777.439 956691
3 777.628 954259
3 784.116 997996
3 784.116 996583
3 784.116 992793
3 784.116 991891
3 784.116 988342
3 784.499 985240
3 784.805 977873
3 785.118 973501
3 794.352 972817
3 798.081 1010225
3 798.081 1003916
3 798.081 1002535
3 798.081 1000538
3 798.081 993024
3 798.081 992503
3 798.081 991372
3 798.081 976927
3 798.527 976195
3 798.527 973501
3 798.707 972817
3 812.225 1052131
3 812.225 1048525
1 812.225 1036466
3 812.225 1032156
1 812.225 1030157
3 812.225 1024378
3 812.225 1022923
3 812.225 1015204
3 812.565 1010951
3 812.759 1008553
1 812.942 1006579
3 826.185 1051231
1 826.185 1045126
3 826.185 1041748
3 826.185 1038199
3 826.185 1035097
3 826.185 1025764
3 826.185 1023762
3 826.185 1022674
3 826.185 1015009
3 826.483 1013310
3 826.483 1009152
3 826.483 1006570
3 826.483 1005439
3 826.483 997925
3 826.746 996265
3 826.746 993749
3 826.936 993024
3 826.936 991893
3 826.936 991096
3 826.936 990191
3 827.149 984691
1 827.943 983236
3 827.943 976585
3 827.943 965538
3 827.943 959362
3 828.309 958137
3 828.309 955474
3 828.623 954390
3 828.623 952971
3 828.623 952679
3 840.086 1057976
3 840.086 1043847
3 840.086 1041550
3 840.086 1026310
3 840.086 1024291
3 840.086 1023160
3 840.086 1015646
3 840.086 1010734
3 840.505 1007558
3 840.505 1001569
3 840.505 989563
3 840.505 981898
3 840.855 978853
3 840.855 973353
3 841.166 968912
3 841.166 968287
3 841.166 960773
3 841.166 955760
3 843.037 952869
3 854.01 1003524
3 854.01 997215
3 854.01 993954
3 854.01 993922
3 854.01 992791
3 854.01 987552
3 854.406 983180
3 854.406 979354
3 854.731 977189
3 854.731 972817
3 868.109 1018350
3 868.109 1014867
3 868.109 995720
3 868.109 989247
3 868.109 977505
3 868.109 970621
3 868.109 967642
3 868.109 964023
3 868.398 962142
3 868.584 962086
3 868.584 959202
3 868.584 952968
3 869.635 951554
3 869.82 946415
3 869.82 946015
3 869.82 938583
3 869.82 938520
3 882.111 1025368
3 882.111 1020472
3 882.111 1006348
3 882.111 1005164
3 882.111 1001721
3 882.111 996218
3 882.111 987216
3 882.111 976644
3 882.111 969993
3 882.111 963629
3 882.586 963362
3 896.076 1057917
3 896.076 1007463
3 896.076 1000951
3 896.076 1000557
3 896.076 995057
3 896.435 994861
3 896.435 992659
3 896.682 991671
3 896.682 981639
3 896.682 980924
3 896.682 980333
3 896.937 972307
3 896.937 968825
3 897.346 968215
3 897.346 968067
3 897.346 966114
3 910.087 1019267
3 910.087 1013816
3 910.087 1012958
3 910.087 1012379
3 910.087 1003279
3 910.087 1002003
3 910.087 1001775
3 910.087 1001210
3 910.087 1000522
3 910.087 998867
3 910.087 984892
3 910.087 983394
3 910.087 982061
3 910.383 972433
3 910.383 968099
3 910.383 964263
3 910.383 962401
3 910.383 960574
3 910.603 959252
3 910.603 959023
3 910.603 958487
3 924.179 1021571
3 924.179 1016140
3 924.179 1009829
3 924.179 1008698
3 924.179 1004335
3 924.179 999963
3 924.622 996585
3 924.622 994008
3 924.622 984746
3 924.622 977509
3 925.033 973382
3 925.631 972817
3 938.074 1011837
3 938.074 997392
3 938.074 970298
3 938.074 967851
3 938.074 961200
3 938.309 960069
3 938.486 953910
3 938.486 951258
3 938.486 947601
3 938.905 946274
3 952.083 1009593
3 952.083 1007449
3 952.083 1004071
3 952.083 1001843
3 952.083 1000712
3 952.475 993198
3 952.475 992444
3 952.475 984072
3 952.475 983872
3 952.755 980266
3 952.755 977999
3 952.755 977596
3 966.114 1037079
3 966.114 1018003
3 966.114 1014859
3 966.114 1013990
3 966.114 1010127
3 966.114 1006516
3 966.114 1005018
3 966.114 996524
3 966.114 990215
3 966.114 984122
3 966.114 982927
3 966.114 981796
3 966.451 973745
3 966.451 969373
1 975.561 968270
3 975.561 967705
3 975.768 966917
3 975.768 966475
3 975.768 963315
3 975.768 960040
3 975.979 957830
3 976.191 956699
3 976.653 956571
3 976.653 953505
3 977.008 949478
3 980.095 1064350
3 980.095 1059978
3 980.095 1042652
3 980.095 1037890
3 980.095 1019927
3 980.095 1019362
3 980.095 998289
3 980.095 987625
3 980.38 986154
3 980.38 985306
1 980.38 984004
3 980.38 969559
3 980.38 969051
3 980.38 961848
3 980.38 960350
3 980.625 959937
3 980.625 959372
3 980.812 958753
3 981.968 956248
3 981.968 953465
3 982.509 952561
3 982.783 950878
3 994.061 1007477
3 994.061 999963
3 994.061 995788
3 994.061 995166
3 994.061 990477
3 994.061 989137
3 994.061 989118
3 994.061 987270
3 994.061 986086
3 994.414 985631
3 994.414 981259
3 994.648 979865
3 994.648 972817
3 1008.24 999113
3 1008.24 997982
3 1008.24 994287
3 1008.24 991528
3 1008.24 980148
3 1008.24 976961
3 1008.75 969296
3 1009.33 968524
3 1009.51 967393
3 1009.85 967021
3 1010.03 960730
3 1010.03 954079
3 1010.22 952948
3 1022.16 1025690
3 1022.16 1021318
3 1022.16 1016535
3 1022.16 1012386
3 1022.16 1010226
3 1022.16 1007072
3 1022.16 999558
3 1022.51 994253
3 1022.51 991893
3 1022.51 991039
3 1022.73 990169
3 1022.73 986174
3 1022.73 982504
3 1022.73 979810
3 1022.98 979126
3 1022.98 978352
3 1022.98 977189
3 1023.36 973346
3 1036.14 1039486
3 1036.14 1020339
3 1036.14 1013688
3 1036.14 1012149
3 1036.14 1002782
3 1036.14 996473
3 1036.14 975051
3 1036.14 969807
3 1036.14 965748
3 1036.14 964965
3 1036.56 960593
3 1036.76 956574
3 1036.76 953223
3 1036.76 952919
3 1036.99 948851
3 1038.75 947482
3 1038.98 947313
3 1039.15 946182
3 1039.15 944033
3 1050.02 1036714
3 1050.02 1030970
3 1050.02 1027592
3 1050.02 1020078
3 1050.02 1019513
3 1050.02 999558
3 1050.02 994183
3 1050.02 991893
3 1050.02 981064
3 1050.3 976195
3 1050.47 972817
3 1064.21 1030433
3 1064.21 1022010
3 1064.21 1015988
3 1064.21 1009548
3 1064.21 1002897
3 1064.21 996283
3 1064.21 989842
3 1064.62 984237
3 1064.62 983455
3 1064.62 981012
3 1064.62 979126
3 1064.87 978150
3 1065.09 977585
3 1065.09 976195
3 1065.31 973583
3 1065.62 973501
3 1065.62 972817
3 1078.14 1023973
3 1078.14 1015922
3 1078.14 1014693
3 1078.14 1013562
3 1078.14 1008374
3 1078.14 997625
3 1078.14 997325
3 1078.14 992402
3 1078.14 983496
3 1078.61 980482
3 1078.61 980181
3 1078.61 978352
3 1078.61 976473
3 1078.61 973817
3 1078.97 972817
3 1092.12 1019508
3 1092.12 1014816
3 1092.12 1007893
3 1092.12 1001286
3 1092.12 992071
3 1092.44 990437
3 1092.44 990202
3 1092.44 989824
3 1092.44 989637
3 1092.44 989115
3 1092.81 986571
3 1092.81 986006
3 1092.81 977955
3 1092.81 977189
3 1093.15 974487
3 1093.15 972817
3 1106.02 1068629
3 1106.02 1068064
3 1106.02 1053619
3 1106.02 1043064
3 1106.02 1039490
3 1106.02 1030569
3 1106.02 1029458
3 1106.02 1027960
3 1106.02 1008005
3 1106.29 1003633
3 1120.29 1027640
3 1120.29 1013195
3 1120.29 1011384
3 1120.29 1010253
3 1120.29 994651
3 1120.29 988342
3 1120.29 978849
3 1120.29 976927
3 1120.29 972817
3 1134.17 1053218
3 1134.17 1031796
3 1134.17 1025562
3 1134.17 1014974
3 1134.17 1005607
3 1134.17 990757
3 1134.17 990005
3 1134.17 988308
3 1134.17 983696
3 1134.69 965379
3 1134.69 961449
3 1134.69 959951
3 1134.69 959202
3 1134.91 953696
3 1134.91 953638
3 1135.11 949266
3 1135.11 947462
3 1135.47 944033
3 1148.07 1018099
3 1148.07 1010595
3 1148.07 1009464
3 1148.07 1005915
3 1148.07 992563
3 1148.07 985396
3 1148.07 977038
3 1148.07 975211
3 1148.07 973589
3 1148.07 969373
1 1149.93 964766
3 1149.93 963854
3 1149.93 959924
3 1150.13 957242
3 1150.3 957203
3 1151.26 953024
3 1151.45 952679
3 1162.06 1013959
3 1162.06 994443
3 1162.06 988209
3 1162.06 987263
3 1162.06 985955
3 1162.06 984928
3 1162.06 984511
3 1162.06 979220
3 1162.06 978529
3 1162.06 975175
3 1162.55 974044
3 1162.85 973878
3 1163.16 973717
3 1163.16 969523
3 1163.48 967393
3 1176.06 1018071
3 1176.06 1014522
3 1176.06 1007582
3 1176.06 1007017
3 1176.06 1002657
3 1176.06 999487
3 1176.06 993987
3 1176.06 981164
3 1176.06 980257
3 1176.44 979126
3 1178.16 978150
3 1178.16 977585
3 1178.16 972817
3 1190.15 1064396
3 1190.15 1060024
3 1190.15 1046208
3 1190.15 1040115
3 1190.15 1030941
3 1190.15 1027335
3 1190.15 1012890
3 1190.42 1005225
3 1190.42 999721
3 1190.42 995468
3 1190.63 993070
3 1204.21 1004922
3 1204.21 986362
3 1204.21 983500
3 1204.21 979166
3 1204.21 975330
3 1204.21 973113
3 1204.21 972932
3 1204.95 967439
3 1204.95 962255
3 1204.95 961124
3 1205.15 960885
3 1205.33 959298
3 1205.33 958487
3 1218.12 1041965
3 1218.12 1038587
3 1218.12 1030887
3 1218.12 1019511
3 1218.12 1015962
3 1218.12 1008297
3 1218.12 1002594
3 1218.12 999343
3 1218.46 995010
3 1218.46 994705
3 1218.46 993317
3 1218.68 987224
3 1218.68 983105
3 1218.68 971699
3 1218.89 971080
3 1219.07 970504
3 1219.07 969373
1 1225.76 967705
3 1225.76 960040
3 1226.44 959824
3 1226.44 958693
3 1226.81 957242
3 1226.81 957203
3 1228.27 952613
3 1228.27 951115
3 1228.27 949478
3 1232.12 1044744
3 1232.12 1041574
3 1232.12 1037202
3 1232.48 1028217
3 1232.48 1020963
3 1236.07 1017131
3 1236.07 1016566
3 1236.07 1015068
3 1236.28 1010858
3 1236.52 1001041
3 1236.52 996729
3 1246.14 1048982
3 1246.14 1046613
3 1246.14 1042774
3 1246.14 1032742
3 1246.14 1023063
3 1246.14 1017554
3 1246.14 1016423
3 1246.14 1008909
3 1246.14 1002258
3 1246.14 992833
3 1246.14 991702
3 1246.14 984972
3 1246.14 983788
3 1246.45 983518
3 1246.45 981771
3 1246.45 980640
3 1246.85 970516
3 1247.03 968329
3 1247.03 963140
3 1247.22 961678
3 1249.51 961615
3 1249.73 961005
3 1249.73 960484
3 1260.02 1026935
3 1260.02 1026731
3 1260.02 1019066
3 1260.02 1012961
3 1260.02 1007807
3 1260.02 1006676
3 1260.02 1002304
3 1260.02 987602
3 1260.3 985183
3 1260.3 984618
3 1260.3 983411
3 1260.3 980033
3 1260.3 978352
3 1260.3 977189
3 1260.53 974746
3 1260.53 972817
3 1274.14 994588
3 1274.14 992477
3 1274.14 988030
3 1274.14 987922
3 1274.14 987645
3 1274.14 979980
3 1274.39 978849
3 1274.6 977189
3 1274.6 976473
3 1274.79 976195
3 1274.79 972817
3 1288.08 1084104
3 1288.08 1064957
3 1288.08 1043535
3 1288.08 1033387
3 1288.08 1022353
3 1288.08 1017085
3 1288.08 1014886
3 1288.08 1010721
3 1288.45 1009924
3 1288.45 1003913
3 1288.45 995855
3 1288.45 994201
3 1288.82 993548
3 1289.15 993070
3 1302.16 1069141
3 1302.16 1039346
3 1302.16 1022640
3 1302.16 1022020
3 1302.16 1019359
3 1302.16 1018536
3 1302.16 1018458
3 1302.16 1010793
3 1302.16 992928
3 1302.16 990675
3 1302.62 986467
3 1302.62 984969
3 1302.94 982390
3 1302.94 981259
3 1302.94 979126
3 1303.28 973346
3 1316.39 1066428
3 1316.39 1058914
3 1316.39 1052605
3 1316.39 1037297
3 1316.39 1033691
3 1316.39 1030743
3 1316.39 1027583
3 1316.39 1017904
3 1316.39 1017078
3 1316.91 979135
3 1316.91 976479
3 1316.91 975960
3 1316.91 975911
3 1316.91 974763
3 1330.23 999425
3 1330.23 999104
3 1330.23 993915
3 1330.23 986360
3 1330.62 982626
3 1330.62 982061
3 1330.62 974438
3 1330.62 971928
3 1330.62 968174
3 1330.62 966773
3 1330.62 962401
3 1330.62 961865
3 1331.04 958487
3 1344.3 1006775
3 1344.3 1005644
3 1344.3 1005272
3 1344.3 1004872
3 1344.3 998621
3 1344.3 989270
3 1344.71 984898
3 1344.95 981796
3 1345.16 980260
3 1345.37 974876
3 1345.37 973745
3 1345.37 971850
3 1345.37 970400
3 1345.37 969373
3 1358.06 1022854
3 1358.06 1016749
3 1358.06 998287
3 1358.06 988601
3 1358.06 988218
3 1358.06 987477
3 1358.06 983105
3 1358.06 982591
3 1358.06 979213
3 1358.06 978018
3 1358.32 970504
3 1358.32 969373
1 1371.71 963350
3 1371.71 961979
3 1371.71 961414
3 1371.71 959924
3 1371.99 957242
3 1371.99 957203
3 1372.25 1027806
3 1372.25 1020469
3 1372.25 1016023
3 1372.25 1009659
3 1372.25 1008597
3 1372.25 1007466
3 1372.25 1002674
3 1372.25 993719
3 1372.25 982079
3 1372.25 981231
3 1372.69 978701
3 1372.69 977624
3 1373.16 976344
3 1373.16 973717
3 1373.16 973285
3 1373.16 967393
3 1380.75 966220
3 1380.75 958555
3 1380.75 956200
3 1380.75 954965
3 1380.75 952948
3 1386.06 1036309
3 1386.06 1027525
3 1386.06 1022126
3 1386.06 1013273
3 1386.29 1005510
3 1386.29 997996
3 1386.29 997406
3 1386.29 996172
3 1386.53 996168
3 1386.53 992714
3 1386.53 988342
3 1386.53 978849
3 1386.76 976927
3 1386.76 972817
3 1400.05 1018003
3 1400.05 1003852
3 1400.05 1002401
3 1400.05 998029
3 1400.05 995907
3 1400.05 994927
3 1400.05 991549
3 1400.45 991345
3 1400.45 979787
3 1400.78 977189
3 1400.78 972817
3 1414.05 1024297
3 1414.05 1014618
3 1414.05 1000173
3 1414.05 998549
3 1414.05 997051
3 1414.05 996486
3 1414.05 993809
3 1414.05 989437
3 1414.05 988306
3 1414.05 981997
3 1415.09 981809
3 1428.17 1015773
3 1428.17 1000248
3 1428.17 989127
3 1428.17 981613
3 1428.17 973948
3 1428.59 972817
3 1442.26 1028104
3 1442.26 1023553
3 1442.26 1018930
3 1442.26 1011416
3 1442.26 1005796
3 1442.26 1001645
3 1442.26 999487
3 1442.26 995507
3 1442.26 995439
3 1442.7 995144
3 1442.7 992246
3 1442.7 990946
3 1442.7 988954
3 1442.7 987479
3 1442.7 981170
3 1442.7 980887
3 1442.7 976552
3 1442.7 974226
3 1442.7 972751
3 1442.7 969373
1 1444.65 969203
3 1444.65 968129
3 1444.65 967705
3 1444.65 962545
3 1444.65 960040
3 1446.63 956129
3 1446.92 954204
3 1446.92 952753
3 1447.14 950976
3 1447.31 949478
3 1456.25 991131
3 1456.25 985172
3 1456.25 981957
3 1456.25 977585
3 1456.72 973770
3 1456.72 972650
3 1457.09 972430
3 1457.09 972283
3 1457.32 972085
3 1460.06 966301
3 1460.4 959937
3 1460.4 958753
3 1463.18 957295
3 1463.18 950878
3 1470.1 1021151
3 1470.1 1013486
3 1470.1 1009429
3 1470.1 1007212
3 1470.1 1005597
3 1470.1 1001955
3 1470.1 1000824
3 1470.1 992773
3 1470.1 990323
3 1470.1 988929
3 1470.1 986649
3 1470.54 985259
3 1470.54 982565
3 1470.54 977873
3 1470.54 973501
3 1471.98 972817
3 1484.17 981601
3 1484.17 976729
3 1484.17 969064
3 1484.39 961171
3 1484.39 959737
3 1484.39 958526
3 1484.39 954935
3 1484.61 951122
3 1484.61 950370
3 1486.12 949159
3 1498.07 1079454
3 1498.07 1072526
3 1498.07 1052571
3 1498.07 1048199
3 1498.07 1047068
3 1498.07 1045570
3 1498.07 1042253
3 1498.07 1039861
3 1498.07 1019665
3 1498.07 1018173
3 1498.56 1014230
3 1498.56 1012695
3 1498.56 1009433
3 1498.56 1005181
3 1498.77 1001333
3 1498.77 1000150
3 1498.77 998658
3 1499.17 998093
3 1512.34 1052970
3 1512.34 1030685
3 1512.34 1015160
3 1512.34 1006268
3 1512.34 1005649
3 1512.34 1005590
3 1512.34 1002987
3 1512.34 991245
3 1512.77 989892
3 1512.77 988232
3 1512.77 984553
3 1512.77 980567
3 1513.03 977189
3 1513.03 974746
3 1513.33 974632
3 1513.33 973948
3 1513.66 972817
3 1526.1 1029814
3 1526.1 1026436
3 1526.1 1026408
3 1526.1 1018743
3 1526.1 1014780
3 1526.1 1010088
3 1526.1 1003779
3 1526.1 1001844
3 1526.37 997925
3 1526.37 996265
3 1526.37 994232
3 1526.37 987868
3 1526.37 983496
3 1526.59 980331
1 1526.76 978183
3 1526.76 970812
3 1526.76 966301
3 1526.96 963260
3 1526.96 959937
3 1526.96 958753
3 1527.65 958052
3 1527.65 957487
3 1527.83 957404
3 1527.83 956021
3 1527.83 953692
3 1528.18 952561
3 1529.91 951196
3 1529.91 950878
3 1540.12 1033382
3 1540.12 1032251
3 1540.12 1024737
3 1540.12 1005590
3 1540.12 986514
3 1540.12 985014
3 1540.12 984854
3 1540.52 980482
3 1541.42 972817
3 1554.05 985866
3 1554.05 982260
3 1554.05 981991
3 1554.05 981014
3 1554.05 974477
3 1554.28 973346
3 1568.04 1005381
3 1568.04 1004250
3 1568.04 1000872
3 1568.04 997002
3 1568.28 995693
3 1568.28 994932
3 1568.28 994565
3 1568.28 992554
3 1568.28 990510
3 1568.56 990092
3 1568.56 982041
3 1568.56 980924
3 1568.56 979449
3 1568.77 977392
3 1568.77 976071
3 1568.77 973680
3 1568.97 971354
3 1568.97 969373
1 1575.64 963350
3 1575.64 962974
3 1575.64 960629
3 1576.29 960284
3 1576.67 959940
3 1576.67 959375
3 1577.56 958307
3 1577.81 952971
3 1577.81 952679
3 1582.13 1028457
3 1582.13 1025079
3 1582.13 1024256
3 1582.13 1017605
3 1582.13 998529
3 1582.13 993269
3 1582.13 980846
3 1582.57 974195
3 1582.57 973882
3 1582.57 970504
3 1582.57 969373
1 1589.7 967705
3 1589.93 966731
3 1589.93 965786
3 1589.93 965344
3 1590.12 964077
3 1590.32 962720
3 1590.32 958693
3 1591.93 957203
3 1596.07 993658
3 1596.07 987735
3 1596.07 982945
3 1596.07 981687
3 1596.07 978684
3 1596.44 978269
3 1596.44 974466
3 1596.44 973901
3 1596.44 973332
3 1596.44 972201
3 1596.67 959937
3 1597.01 959372
3 1597.35 958753
3 1597.86 958052
3 1597.86 956554
3 1597.86 954015
3 1598.05 953450
3 1598.05 952561
3 1598.05 950878
3 1610.18 1042977
3 1610.18 1029229
3 1610.18 1025851
3 1610.18 1018337
3 1610.18 1015619
3 1610.18 999261
3 1610.18 997219
3 1610.58 985396
3 1610.58 982541
3 1610.91 980714
3 1610.91 978254
3 1610.91 976622
3 1611.23 970504
3 1611.23 969373
1 1614.14 969203
3 1614.14 968366
3 1614.14 968129
3 1614.14 967705
3 1614.14 960040
3 1615.22 958693
3 1615.4 957242
3 1615.4 957203
3 1617.85 955576
3 1618.12 955003
3 1618.42 953063
3 1618.42 953024
3 1624.05 1063124
3 1624.05 1056306
3 1624.05 1048417
3 1624.05 1039243
3 1624.05 1036244
3 1624.05 1035739
3 1624.05 1034555
3 1624.05 1033142
3 1624.05 1028450
3 1624.05 1027432
3 1624.05 1019918
3 1624.05 1018389
3 1624.05 1013662
3 1624.05 1012141
3 1624.05 1010460
3 1624.05 1006676
3 1624.41 1004316
3 1624.41 993682
3 1624.65 981259
3 1625.01 979865
3 1625.01 976195
3 1625.21 972817
3 1638.06 1029041
3 1638.06 1020805
3 1638.06 1020522
3 1638.06 1013343
3 1638.06 1004997
3 1638.06 1000625
3 1638.06 993111
3 1638.31 988599
3 1638.31 985852
3 1638.31 985023
3 1638.31 978920
3 1638.52 977509
3 1640.05 973680
3 1640.05 972455
3 1640.24 971699
3 1640.45 970504
3 1640.45 969733
3 1640.64 969373
3 1652.08 1019818
3 1652.08 1017688
3 1652.08 1014082
3 1652.08 1008547
3 1652.08 995006
1 1652.08 992552
3 1652.08 983974
3 1652.08 982476
3 1652.08 973225
3 1652.08 972597
3 1652.08 968354
3 1652.08 967500
3 1652.4 962673
3 1652.4 962045
3 1652.4 955681
3 1652.4 955589
3 1652.4 955369
3 1652.61 953400
3 1652.79 946415
3 1659.86 944033
3 1660.28 944020
3 1660.28 938525
3 1660.28 938520
3 1666.06 1035951
3 1666.06 1025919
3 1666.06 1024788
3 1666.06 1022694
3 1666.06 1013479
3 1666.32 1010590
3 1666.32 1009159
3 1666.61 1004237
3 1666.61 1003672
3 1666.61 999985
3 1666.61 994457
3 1666.84 993902
3 1667.03 993524
3 1667.03 992959
3 1680.07 1043647
3 1680.07 1040477
3 1680.07 1038252
3 1680.07 1033478
3 1680.07 1032913
3 1680.07 1028102
3 1680.07 1025869
3 1680.42 1021515
3 1680.42 1017439
3 1680.42 1017223
3 1680.42 1012851
3 1680.42 1011908
3 1680.66 1007942
3 1680.84 1006811
3 1694.04 1048057
3 1694.04 1028983
3 1694.04 1021469
3 1694.04 1020549
3 1694.04 1005867
3 1694.04 998967
3 1694.04 998202
3 1694.46 992727
3 1694.46 986363
3 1694.46 983363
3 1694.46 982504
3 1694.81 981730
3 1694.81 978124
3 1694.81 976473
3 1694.81 973817
3 1695.36 972817
3 1708.02 1083110
3 1708.02 1039187
3 1708.02 1036789
3 1708.02 1024436
3 1708.02 1022462
3 1708.75 1014860
3 1722.29 1000675
3 1722.29 999606
3 1722.63 991457
3 1722.96 985148
3 1722.96 978184
3 1723.58 975557
3 1725.15 975216
3 1725.15 972698
3 1725.15 969332
3 1725.15 969115
3 1725.15 968550
3 1725.15 967702
3 1725.47 965549
3 1725.47 961102
3 1725.72 960885
3 1725.72 959023
3 1725.72 958487
3 1736.09 1067726
3 1736.09 1061075
3 1736.09 1041120
3 1736.09 1034811
3 1736.09 1020599
3 1736.09 1011667
3 1736.09 1001635
3 1736.09 999177
3 1736.09 998046
3 1736.67 986431
3 1736.67 983261
3 1736.67 982130
3 1736.67 979924
3 1736.67 979742
3 1736.67 976350
3 1736.67 975219
3 1736.67 970847
3 1737.19 969881
3 1750.05 1041000
3 1750.05 1039502
3 1750.05 1036576
3 1750.05 1034602
3 1750.05 1020157
3 1750.05 1019062
3 1750.46 1018665
3 1750.46 1017167
3 1750.46 1016996
3 1751.12 1015865
3 1752.37 999985
3 1752.37 998194
3 1752.61 994457
3 1752.79 993902
3 1752.98 992959
3 1764.22 1031348
3 1764.22 1012044
3 1764.22 1011539
3 1764.22 1003860
3 1764.22 996577
3 1764.22 995841
3 1764.22 994816
3 1764.22 993661
3 1764.22 992171
3 1764.22 991438
3 1764.22 986640
3 1764.66 979126
3 1765 974746
3 1765.17 974513
3 1765.17 973948
3 1765.17 972817
3 1778.05 1012228
3 1778.05 1012031
3 1778.05 1005667
3 1778.05 984245
3 1778.05 980070
3 1778.05 977611
3 1778.43 974233
3 1778.43 972107
3 1778.65 971673
3 1778.65 970820
3 1778.65 967214
3 1778.65 966649
3 1778.65 966114
3 1792.14 1062502
3 1792.14 1048504
3 1792.14 1047320
3 1792.14 1043771
3 1792.14 1037407
3 1792.14 1034625
3 1792.14 1034308
3 1792.14 1026087
3 1792.14 1025566
3 1792.14 1018262
3 1792.14 1017078
3 1792.47 1011269
3 1792.47 1009088
3 1792.47 1004716
3 1792.47 999901
3 1792.95 999235
3 1793.23 994928
3 1806.15 1011302
3 1806.15 1001623
3 1806.15 987494
3 1806.15 981750
3 1806.15 978623
3 1806.15 978058
3 1806.15 961481
3 1806.15 960350
3 1806.41 959937
3 1806.75 958753
3 1806.95 958552
3 1806.95 956978
3 1820.06 1046440
3 1820.06 1031738
3 1820.06 1025928
3 1820.06 1010326
3 1820.06 1009131
3 1820.06 1008000
3 1820.06 1000335
3 1820.06 995963
3 1820.06 991593
3 1820.06 985229
3 1820.39 983512
3 1820.39 977038
3 1820.39 976218
3 1820.39 975776
3 1820.39 972837
3 1820.39 972751
3 1820.68 969373
3 1834.14 1055199
3 1834.14 1039088
3 1834.14 1032779
3 1834.14 1015453
3 1834.14 1009360
3 1834.14 999328
3 1834.14 998287
3 1834.14 997092
3 1834.14 995961
3 1834.14 992138
3 1834.52 988589
3 1834.52 988276
3 1834.84 986879
3 1834.84 984898
3 1835.16 981796
3 1835.16 971041
3 1835.16 970504
3 1835.49 969373
3 1848.13 1003566
3 1848.13 999341
3 1848.13 993534
3 1848.13 990311
3 1848.13 989180
3 1848.13 980594
3 1848.13 975810
3 1848.13 975280
3 1848.13 974715
3 1848.83 973628
3 1849.02 971512
3 1849.02 970762
3 1849.02 969717
3 1849.02 969336
3 1849.23 968586
3 1862.23 1048369
3 1862.23 1040480
3 1862.23 1031133
3 1862.23 1012057
3 1862.23 1006775
3 1862.23 1005952
3 1862.23 999811
3 1862.23 996262
3 1862.23 987224
3 1862.62 986029
3 1862.62 978357
3 1862.62 972264
3 1862.62 970504
3 1862.84 969373
1 1872.32 967705
3 1872.32 967419
3 1872.32 966288
3 1872.65 965158
3 1872.96 960849
3 1872.96 960284
3 1874.81 957996
3 1874.81 951366
3 1874.98 951115
3 1876.08 1056127
3 1876.08 1049476
3 1876.08 1033874
3 1876.08 1029182
3 1876.08 1023365
3 1876.08 1019987
3 1876.08 1010162
3 1876.08 1004050
3 1876.08 1003519
3 1876.08 992905
3 1876.39 990268
3 1876.39 990008
3 1876.57 989373
3 1876.57 985240
3 1876.57 977189
3 1876.57 976927
3 1876.57 976195
3 1876.78 975415
3 1876.78 974148
3 1876.97 972817
3 1890.22 1008768
3 1890.22 1006630
3 1890.22 992185
3 1890.22 987113
3 1890.22 985534
3 1890.22 985444
3 1890.22 977190
3 1890.22 970135
3 1890.22 969094
3 1890.22 967077
3 1890.22 958555
3 1890.22 956200
3 1890.22 955069
3 1890.7 954965
3 1890.7 954079
3 1890.7 953164
3 1891.04 952948
3 1904.14 1045174
3 1904.14 1042194
3 1904.14 1038588
3 1904.14 1037782
3 1904.39 1025685
3 1904.39 1022958
3 1904.39 1018582
3 1904.39 1015212
3 1904.39 1014081
3 1905 1008577
3 1905 1004324
3 1905.2 1001926
3 1918.08 1059417
3 1918.08 1047675
3 1918.08 1042945
3 1918.08 1039396
3 1918.08 1038265
3 1918.08 1032468
3 1918.08 1022436
3 1918.08 1021024
3 1918.08 1014992
3 1918.08 1010419
3 1918.08 989346
3 1918.55 988470
3 1918.55 981402
3 1918.55 976071
3 1918.91 973745
3 1919.78 972264
3 1920.34 970504
3 1920.34 969373
3 1932.14 1002915
3 1932.14 981493
3 1932.14 973828
3 1932.14 965119
3 1932.42 962086
3 1932.42 958468
3 1932.61 957714
3 1932.78 953066
3 1933.23 952649
3 1933.23 946415
1 1943.56 944077
3 1943.74 941638
3 1943.91 940303
3 1946.02 1013285
3 1946.02 1005620
3 1946.02 1002406
3 1946.02 1001632
3 1946.02 1001468
3 1946.02 995933
3 1946.02 983322
3 1946.02 982757
3 1946.02 981259
3 1946.29 976724
3 1946.47 973346
3 1960.11 1025468
3 1960.11 1021096
3 1960.11 1011417
3 1960.11 995473
3 1960.11 991221
3 1960.11 979819
3 1960.11 975887
3 1960.36 973455
3 1960.36 972762
3 1960.56 971379
3 1960.56 968009
3 1960.75 967609
3 1960.75 965457
3 1960.95 963787
3 1960.95 963222
3 1960.95 962909
3 1961.15 960495
3 1974.1 1019518
3 1974.1 1012004
3 1974.1 1009759
3 1974.1 1008628
3 1974.1 1005541
3 1974.1 1004938
3 1974.1 993746
3 1974.1 993477
3 1974.1 987996
3 1974.1 987946
3 1974.4 985731
3 1974.4 982908
3 1974.4 982343
3 1974.4 980365
3 1974.73 980257
3 1974.73 979980
3 1975.05 977349
3 1975.36 977189
3 1975.36 974661
3 1975.69 972817
3 1988.17 1025621
3 1988.17 1018970
3 1988.17 1015323
3 1988.17 1014192
3 1988.17 1013627
3 1988.17 1005576
3 1988.42 1000076
3 1988.42 999643
3 1988.42 995271
3 1988.42 993799
3 1988.42 991893
3 1988.42 991372
3 1988.65 987946
3 1988.65 983716
3 1988.65 983709
3 1988.65 980331
3 1988.65 973501
3 1988.9 972817
3 2002.14 1016691
3 2002.14 1011537
3 2002.14 1010406
3 2002.14 1009841
3 2002.14 1001062
3 2002.14 1000626
3 2002.14 996254
3 2002.14 994496
3 2002.55 992267
3 2002.55 991083
3 2002.55 990357
3 2002.89 986878
3 2002.89 982692
3 2002.89 981378
3 2003.5 978484
3 2003.5 976384
3 2003.81 975106
3 2003.81 974902
1 2007.85 974455
3 2008.15 973880
3 2008.55 973830
3 2008.55 973626
1 2016.15 1112426
3 2016.15 1108820
3 2016.15 1078696
3 2016.15 1063171
3 2016.15 1056862
3 2016.15 1047647
3 2016.15 1022174
3 2016.15 1017420
3 2016.15 1015523
3 2016.64 1008553
3 2016.96 1003053
1 2018.22 992869
3 2018.22 986560
3 2018.22 975781
3 2018.57 968267
3 2018.57 961450
3 2018.57 960885
3 2018.57 959298
3 2018.96 958487
3 2030.08 1001577
3 2030.08 997205
3 2030.08 994092
3 2030.08 980951
3 2030.08 980612
3 2030.08 977190
3 2030.08 976884
3 2030.08 973506
3 2030.34 973490
3 2030.34 970475
3 2030.34 969192
3 2030.34 969094
3 2030.55 967041
3 2030.55 965726
3 2030.55 964538
3 2030.55 963542
3 2030.55 961748
3 2030.55 961613
3 2030.77 960292
3 2030.95 959106
3 2031.12 958140
3 2031.12 956566
3 2031.33 956401
3 2031.91 954639
3 2031.91 953673
3 2032.21 951764
3 2044.08 1023644
3 2044.08 1007533
3 2044.08 1004155
3 2044.08 996657
3 2044.08 996049
3 2044.08 986017
3 2044.35 979366
3 2044.35 977957
1 2050.5 975301
3 2050.5 974566
3 2050.72 972382
3 2050.72 971171
3 2050.72 970688
3 2050.72 969190
3 2050.99 968625
3 2058.07 1048792
3 2058.07 1039873
3 2058.07 1024078
3 2058.07 1005195
3 2058.07 997144
3 2058.07 988190
3 2058.32 981881
3 2058.32 977511
3 2058.32 977509
3 2058.98 974436
3 2058.98 973817
3 2059.18 972807
3 2059.18 971080
3 2059.37 969373
3 2072.05 1020878
3 2072.05 1019465
3 2072.05 1015659
3 2072.05 1010967
3 2072.05 998967
3 2072.05 995372
3 2072.05 993801
3 2072.05 993499
3 2072.05 992303
3 2072.05 989363
3 2072.62 988013
3 2072.62 986882
3 2072.62 981300
3 2073.27 980331
3 2073.27 979865
3 2073.5 974413
3 2073.5 973501
3 2073.73 972817
3 2086.25 1020762
3 2086.25 1009360
3 2086.25 994915
3 2086.25 993718
3 2086.25 990340
3 2086.25 987165
3 2086.25 987085
3 2086.25 985667
3 2086.25 985102
3 2086.69 979830
3 2087.01 977385
3 2087.34 977077
3 2087.34 970957
3 2087.68 968009
3 2087.68 965782
3 2087.68 962534
3 2087.68 961338
3 2087.68 960495
3 2100.2 1008692
3 2100.2 1001904
3 2100.2 1001850
3 2100.2 998333
3 2100.2 994427
3 2100.2 990668
3 2100.2 990573
3 2100.2 990008
3 2100.62 983478
3 2100.62 979246
3 2100.62 972882
3 2100.62 969421
3 2100.62 968405
3 2101 967036
3 2101 966152
3 2101.52 965479
3 2101.52 963996
3 2101.52 963246
3 2101.52 962681
3 2102.05 950858
3 2114 988979
3 2114 983147
3 2114 979069
3 2114 972625
3 2114 971494
3 2114.38 970424
3 2114.38 966052
1 2117.08 965242
3 2117.28 964696
3 2117.28 956027
3 2117.28 954529
3 2117.28 952948
3 2128.03 988659
3 2128.03 979485
3 2128.03 976463
3 2128.03 972857
3 2128.03 971089
3 2128.4 970569
3 2128.4 969550
3 2128.4 968504
3 2128.4 964955
3 2128.74 964658
3 2129.1 963606
3 2129.39 963567
3 2129.39 960756
3 2129.39 960629
3 2130.33 958691
3 2130.33 957242
3 2130.65 955576
3 2130.95 954467
3 2131.24 954324
3 2131.24 954155
3 2131.24 953063
3 2131.61 953024
3 2142.21 1029876
3 2142.21 1018898
3 2142.21 1016538
3 2142.21 1013071
3 2142.21 1011308
3 2142.21 1006641
3 2142.21 1001450
3 2142.21 999990
3 2142.21 999317
3 2142.21 998186
3 2142.21 987825
3 2142.21 986165
3 2142.21 984703
3 2142.83 977189
3 2143.13 976473
3 2143.13 976195
3 2143.45 973817
3 2143.45 972817
1 2149.56 966441
3 2151.08 962438
3 2156.04 1031549
3 2156.04 1011353
3 2156.04 985435
3 2156.04 983778
3 2156.04 978805
3 2156.04 976113
3 2156.04 973564
3 2156.04 972101
3 2156.04 969751
3 2156.35 966373
3 2156.35 964875
3 2156.35 964310
3 2156.35 962356
3 2156.35 959599
3 2156.35 957556
3 2156.65 956946
3 2156.65 955539
3 2156.65 952948
3 2170.07 1028991
3 2170.07 1028168
3 2170.07 1021517
3 2170.07 1020628
1 2170.07 1019751
3 2170.07 1013126
3 2170.07 998739
3 2170.07 995361
3 2170.07 993881
3 2170.51 987986
3 2170.51 983284
3 2184.12 1040795
3 2184.12 1027330
3 2184.12 1026350
3 2184.12 1018299
3 2184.12 1017168
3 2184.12 1006831
3 2184.12 1001685
3 2184.12 993967
3 2184.12 987240
3 2184.12 983307
3 2184.12 982742
3 2184.12 975077
3 2184.5 973882
3 2184.5 973426
3 2184.5 972751
3 2184.5 970400
3 2184.71 969373
3 2198.04 1029941
3 2198.04 1026563
3 2198.04 1025432
3 2198.04 1022934
3 2198.04 1007332
3 2198.04 999818
1 2198.04 995070
3 2198.04 992484
3 2198.04 988808
3 2198.04 978355
3 2198.04 967783
3 2198.04 960910
3 2198.36 957295
3 2198.36 955746
3 2198.36 953465
3 2198.72 950878
3 2212.13 1022617
3 2212.13 1007284
3 2212.13 1002592
3 2212.13 996283
3 2212.13 993682
3 2212.13 981259
3 2212.45 979865
3 2212.45 973501
3 2212.77 972817
3 2226.08 1012619
3 2226.08 1005105
3 2226.08 986029
3 2226.4 983320
3 2240.22 1017859
3 2240.22 1015592
3 2240.22 1013509
3 2240.22 1010189
3 2240.22 1009137
3 2240.22 1007689
3 2240.22 1006276
3 2240.22 1000861
3 2240.64 998980
3 2240.64 998515
3 2240.64 998415
3 2240.64 995482
3 2240.64 991110
3 2240.64 987490
3 2240.64 985174
3 2241.05 980482
3 2241.66 976927
3 2241.96 976195
3 2241.96 972817
3 2254.15 1017413
3 2254.15 1010239
3 2254.15 1009524
3 2254.15 1005867
3 2254.15 998202
3 2254.15 997925
3 2254.15 991893
3 2254.15 979354
3 2254.15 972817
3 2268.25 1020512
3 2268.25 1012998
3 2268.25 1008626
3 2268.25 1002535
3 2268.25 1001404
3 2268.25 994310
3 2268.25 991372
3 2268.25 977189
3 2268.68 976927
3 2268.68 974746
3 2268.89 974513
3 2268.89 973948
3 2269.09 972817
3 2282.22 1032535
3 2282.22 1029759
3 2282.22 1020419
3 2282.22 1013768
3 2282.22 1012637
3 2282.22 1006669
3 2282.22 1002298
3 2282.66 997481
3 2282.66 988266
3 2282.66 979052
3 2283.01 974760
3 2296.19 1015555
3 2296.19 1009246
3 2296.19 1007595
3 2296.19 994682
3 2296.19 993911
3 2296.19 973956
3 2296.19 973539
3 2296.19 969933
3 2296.19 965258
3 2296.64 959024
3 2297.27 956034
3 2297.27 951915
3 2297.27 946415
3 2310.3 1043626
3 2310.3 1036975
3 2310.3 1036326
3 2310.3 1021564
3 2310.3 1016617
1 2310.3 1015154
3 2310.3 1008593
3 2310.3 1005215
3 2310.3 990475
3 2310.3 987864
3 2310.72 986285
3 2310.72 982961
3 2311.04 981326
3 2311.04 978589
3 2324.18 1034296
3 2324.18 1012874
3 2324.18 1010216
3 2324.18 1005209
3 2324.18 977852
3 2324.18 975085
3 2324.18 971759
3 2324.18 969585
3 2324.57 968104
3 2324.57 958072
3 2324.57 957295
3 2324.9 956135
3 2324.9 954195
3 2325.22 952894
3 2325.52 951763
3 2338.03 973227
3 2338.03 969603
3 2338.03 960314
3 2338.03 953013
3 2338.03 952649
3 2338.41 946415
3 2341.46 946015
3 2341.46 945245
3 2341.46 945193
3 2341.46 938937
3 2352.01 1022907
3 2352.01 1008230
3 2352.01 1006845
3 2352.01 992143
3 2352.01 991993
3 2352.01 984629
3 2352.01 979980
3 2352.33 977368
3 2352.33 973948
3 2352.33 972817
3 2366.25 1018203
3 2366.25 1017072
3 2366.25 1010421
3 2366.25 1008615
3 2366.25 1000726
3 2366.25 997925
3 2366.54 988808
3 2366.54 978849
3 2366.72 978183
3 2366.91 976195
3 2366.91 972817
3 2380.16 994165
3 2380.16 993034
3 2380.16 978111
3 2380.16 977509
3 2380.89 976552
3 2380.89 976170
3 2380.89 974672
3 2380.89 971699
3 2381.96 969373
1 2382.84 969203
3 2382.84 962912
3 2382.84 961301
3 2382.84 959924
3 2383.06 955745
3 2383.23 955576
3 2383.4 955555
3 2383.4 954889
3 2383.58 954467
3 2383.58 954324
3 2383.58 953505
3 2383.93 953063
3 2383.93 953024
3 2394.06 1057654
3 2394.06 1050539
3 2394.06 1046247
3 2394.06 1045697
3 2394.06 1031417
3 2394.06 1024113
3 2394.06 1009984
3 2394.06 1008577
3 2394.33 1001926
3 2408.02 1098307
3 2408.02 1091998
3 2408.02 1074182
3 2408.02 1051305
3 2408.02 1047699
3 2408.02 1038484
3 2408.02 1031566
3 2408.02 1016864
1 2408.02 1007497
3 2408.02 999832
3 2410.02 995055
3 2410.02 987541
3 2422.25 1046295
3 2422.25 1038340
3 2422.25 1036017
3 2422.25 1012618
3 2422.25 1012550
3 2422.25 1011563
3 2422.25 1004049
3 2422.25 998303
3 2422.25 989578
3 2422.25 982927
3 2422.6 981796
3 2422.6 980802
3 2422.6 979691
3 2422.6 973940
3 2422.6 973745
3 2422.81 971041
3 2422.99 970911
3 2422.99 969373
1 2430.79 968266
3 2430.79 967705
3 2430.98 962545
3 2430.98 961414
3 2430.98 960040
3 2431.74 958693
3 2431.74 957203
3 2435.7 955576
3 2435.7 955555
3 2436.03 1036994
3 2436.03 1030685
3 2436.03 1015160
3 2436.03 996084
3 2436.03 993954
3 2436.03 990348
3 2436.03 988419
3 2436.75 982018
3 2436.75 979865
3 2437.07 978124
3 2437.07 977344
3 2437.42 974746
3 2437.72 973382
3 2438.31 972817
3 2450.11 1029413
3 2450.11 1025590
3 2450.11 1023662
3 2450.11 1022531
3 2450.11 1014866
3 2450.11 1007352
3 2450.11 997069
3 2450.37 996186
3 2450.37 987625
3 2450.37 987555
3 2450.37 984411
3 2450.37 975776
3 2450.37 971100
3 2450.77 969373
3 2464.07 1017570
3 2464.07 1015276
3 2464.07 1005012
3 2464.07 998361
3 2464.07 992802
3 2464.07 991671
3 2464.07 990173
3 2464.07 987198
3 2464.43 972753
3 2478.14 1025031
3 2478.14 1020339
1 2478.14 1013570
3 2478.14 1012067
3 2478.14 1002893
3 2478.14 1001762
3 2478.14 999915
3 2478.14 993678
3 2478.14 992855
3 2478.14 992290
3 2478.61 977214
3 2478.61 974959
3 2478.61 973828
3 2478.61 970762
3 2478.61 968772
3 2478.61 962121
3 2479 961853
3 2479 961556
3 2479.31 958137
3 2479.31 954862
3 2479.93 953505
3 2480.22 951115
3 2480.22 949478
3 2492.06 1041672
3 2492.06 1021717
3 2492.06 1021185
3 2492.06 1015283
3 2492.06 1015066
3 2492.06 1008221
3 2492.06 1006097
3 2492.06 995919
3 2492.49 984932
3 2492.82 981836
3 2492.82 971804
3 2492.82 969148
3 2492.82 965970
3 2493.05 963250
3 2493.05 961678
3 2495.09 961615
3 2495.09 961081
3 2495.09 960484
3 2506.18 1002365
3 2506.18 990623
3 2506.18 975970
3 2506.18 969319
3 2506.18 969189
3 2506.18 966127
3 2506.18 965651
3 2506.18 964965
3 2506.66 964690
3 2506.66 963559
3 2506.66 962630
3 2506.66 962061
3 2506.92 959024
3 2507.43 958468
3 2507.78 956681
3 2507.78 955550
3 2507.78 952968
3 2508.34 949617
3 2508.34 948593
3 2508.53 947462
3 2508.71 946415
3 2520.05 1030720
3 2520.05 1026471
3 2520.05 1025873
3 2520.05 1018481
3 2520.05 1015743
3 2520.05 1010421
3 2520.05 991274
3 2520.33 977763
3 2534.1 1028642
3 2534.1 1028077
3 2534.1 1018862
3 2534.1 1014490
3 2534.1 1006825
3 2534.1 1000516
3 2534.59 997839
3 2534.59 995016
3 2548.15 1033593
3 2548.15 998207
3 2548.15 992480
3 2548.15 989805
3 2548.15 983496
3 2548.15 976829
3 2548.15 974586
3 2548.15 968050
3 2548.15 966797
3 2548.48 963013
3 2548.66 962425
3 2562.19 1022414
3 2562.19 1012382
3 2562.19 1007773
3 2562.19 1006642
3 2562.19 992799
3 2562.19 992412
3 2562.19 984898
3 2562.58 980802
3 2562.58 971699
3 2562.9 970504
3 2563.21 969373
1 2570.51 965344
3 2570.51 961414
3 2570.51 958693
3 2570.51 957242
3 2570.51 957203
3 2570.89 951541
3 2571.06 950043
3 2571.06 949478
3 2576.12 1043901
3 2576.12 1029772
3 2576.12 1012446
3 2576.12 998001
3 2576.12 991350
3 2576.12 983448
3 2576.12 981318
3 2576.12 973863
3 2576.12 973506
3 2576.12 973160
3 2577.24 972144
3 2590.09 1028776
3 2590.09 1027645
3 2590.09 1006223
3 2590.09 998580
3 2590.09 994609
3 2590.09 994549
3 2590.09 985475
3 2590.09 981408
3 2590.09 973743
3 2590.09 959298
3 2590.48 958487
3 2604.28 1023324
3 2604.28 1011841
3 2604.28 1005508
3 2604.28 1005360
3 2604.28 1004229
3 2604.28 1003173
3 2604.28 1001293
3 2604.28 1000162
3 2604.71 996784
3 2604.71 995673
3 2604.71 995240
3 2604.71 989270
3 2604.71 981836
3 2604.71 975472
3 2604.71 973745
3 2605.53 971354
1 2605.88 970661
3 2606.05 970218
3 2606.05 963567
3 2606.05 960629
3 2606.05 958691
3 2606.05 957242
3 2606.05 957203
3 2609.61 949478
3 2618.16 1019253
3 2618.16 1011219
3 2618.16 1004910
3 2618.16 1001501
3 2618.16 1000936
3 2618.16 994467
3 2618.16 994285
3 2618.16 990526
3 2618.16 986154
3 2618.16 985111
3 2618.16 978550
3 2618.45 978462
3 2618.45 977509
3 2618.45 972817
3 2632.01 1018323
3 2632.01 1012754
3 2632.01 1012014
3 2632.01 1008636
3 2632.01 1005239
3 2632.01 993317
3 2632.01 991955
3 2632.01 990866
3 2632.01 985414
3 2632.01 983818
3 2632.36 980033
3 2632.36 979126
3 2632.36 978849
3 2632.36 978352
3 2632.36 972817
3 2646.13 1010517
3 2646.13 1004208
3 2646.13 992791
3 2646.13 991887
3 2646.53 989550
3 2646.53 988419
3 2646.53 982018
3 2646.53 981300
3 2646.53 980482
3 2647.5 979865
3 2647.81 974148
3 2647.81 973770
3 2647.81 973501
3 2649.6 972817
3 2660.01 1026209
3 2660.01 1020195
3 2660.01 1012681
3 2660.01 1009303
3 2660.01 1005433
3 2660.01 990227
3 2660.01 988149
3 2660.01 981796
3 2660.01 969373
1 2668.91 967705
3 2669.29 966301
3 2669.29 953465
3 2669.65 950878
3 2674.18 1046503
3 2674.18 1042131
3 2674.18 1032099
3 2674.18 1029947
3 2674.18 1014046
3 2674.18 1004220
3 2674.18 996169
3 2674.58 993235
3 2674.58 992791
3 2674.58 987170
3 2674.92 982520
3 2674.92 981881
3 2674.92 978849
3 2676.06 977189
3 2676.25 976473
3 2676.25 972817
3 2688.14 1008554
3 2688.14 993317
3 2688.14 993034
3 2688.58 987081
3 2688.58 980717
3 2688.97 977492
3 2688.97 976585
3 2688.97 976417
3 2688.97 970053
3 2688.97 966588
3 2689.41 963744
3 2689.41 962028
3 2689.41 959372
3 2691.26 958753
3 2691.26 957487
3 2691.26 955989
3 2691.58 955474
3 2691.58 953944
3 2691.58 952561
3 2692.23 951196
3 2692.23 950878
3 2702.23 987305
3 2702.23 981805
3 2702.44 980581
3 2702.44 979788
3 2702.44 977213
3 2702.44 974230
3 2702.44 964198
3 2702.66 963395
3 2702.66 962383
3 2702.66 959985
3 2702.66 959023
3 2703.05 958487
3 2716.08 1046573
3 2716.08 1039922
3 2716.08 1020846
3 2716.08 1007933
3 2716.08 1001699
3 2716.08 993042
3 2716.08 986097
3 2716.08 976203
3 2716.08 975628
3 2716.08 967629
3 2716.51 964023
3 2716.51 957714
3 2716.51 955244
3 2716.84 952850
3 2717.16 951915
3 2718.69 948806
3 2718.69 947388
3 2718.69 946415
3 2730.09 1054565
3 2730.09 1034610
3 2730.09 1026945
3 2730.09 1021763
3 2730.09 1021198
3 2730.09 1015698
3 2732.36 1014419
3 2732.36 1014417
3 2732.36 1006903
3 2744.12 1013688
3 2744.12 1007037
3 2744.12 1005186
3 2744.12 1004288
3 2744.12 1004137
3 2744.12 1001193
3 2744.51 996821
3 2744.51 995935
3 2744.51 990014
3 2745.76 988915
3 2746.07 981956
3 2746.37 981401
3 2747.54 978384
3 2758.03 1022243
3 2758.03 1021653
3 2758.03 1006051
3 2758.03 1002446
3 2758.03 1001679
3 2758.03 994165
3 2758.03 993317
3 2758.36 989473
3 2758.36 988342
3 2758.59 979849
3 2758.59 973817
3 2759.17 972817
3 2772.11 977713
3 2772.11 975169
3 2772.11 968518
3 2772.11 965562
3 2772.4 961751
3 2772.4 960620
3 2772.4 959607
3 2772.4 958962
3 2772.4 958521
3 2772.4 956661
3 2772.4 955163
3 2772.64 953066
3 2772.86 949617
3 2772.86 946520
3 2773.06 946415
3 2786.09 1002498
3 2786.09 993904
3 2786.09 991795
3 2786.09 989678
3 2786.09 989583
3 2786.09 987423
3 2786.09 982069
3 2786.09 981881
3 2786.37 977392
3 2786.37 976827
3 2786.37 972455
3 2786.37 971699
3 2786.37 970504
3 2786.59 969373
1 2796.2 966842
3 2796.2 965819
3 2796.2 964907
3 2796.56 963854
3 2796.56 961301
3 2796.75 960756
3 2796.94 960191
3 2796.94 957203
3 2796.94 954661
3 2797.13 953024
3 2797.13 950976
3 2797.13 949478
query_times: 26
Score = 956441
