    Blocking waiting for file lock on package cache
    Blocking waiting for file lock on package cache
    Blocking waiting for file lock on package cache
    Blocking waiting for file lock on build directory
    Finished release [optimized] target(s) in 0.06s
     Running `target/release/tester ../a.out 0023`
3 6.792 1438260
3 6.792 1429964
3 6.792 1416869
3 6.792 1380303
3 6.792 1374713
3 6.792 1353785
3 6.792 1351265
3 6.792 1344623
3 7.858 1344522
3 7.858 1340883
3 7.858 1340260
3 8.723 1333676
3 8.723 1333322
3 8.723 1324528
3 8.723 1322833
3 8.723 1317057
3 8.723 1313179
3 9.481 1299915
3 9.481 1289018
3 9.481 1284679
3 9.481 1282404
3 9.481 1278412
3 9.481 1274776
3 9.481 1270705
3 10.199 1266753
3 11.765 1264189
3 13.908 1261147
3 13.908 1258238
3 14.465 1402720
3 14.465 1389069
2 14.465 1380202
3 14.465 1375054
3 14.465 1374574
2 14.465 1372011
3 14.465 1361752
3 14.465 1354564
2 14.465 1349732
1 15.134 1340936
3 15.134 1339472
3 15.134 1337240
3 15.134 1333508
3 15.134 1332277
3 15.134 1325083
3 15.754 1317918
3 15.754 1316868
3 15.754 1316177
3 16.444 1314639
3 16.444 1312270
3 16.444 1311533
3 16.444 1299765
3 17.349 1297729
3 17.349 1295827
3 17.349 1291797
2 18.938 1289167
3 19.472 1284523
3 21.028 1282455
3 22.022 1278080
3 22.022 1274235
3 22.986 1270225
3 26.433 1265343
3 26.963 1265291
3 26.963 1261013
3 28.093 1388361
3 28.093 1360742
3 28.093 1357747
3 28.093 1350126
3 28.093 1345902
3 28.093 1335709
3 28.093 1329097
3 28.093 1328626
3 28.744 1323104
3 28.744 1322975
3 28.744 1314804
3 28.744 1307214
3 28.744 1306361
3 29.321 1302292
3 29.321 1300152
3 29.321 1299080
3 29.929 1294436
3 29.929 1294016
3 29.929 1290157
3 30.698 1288520
3 30.698 1287804
3 31.591 1285721
3 31.591 1281681
3 32.472 1280927
3 33.358 1276746
3 33.358 1273755
3 33.358 1272633
3 33.358 1271729
3 34.194 1271700
3 34.194 1269724
3 41.121 1269261
3 41.121 1267356
3 42.807 1382631
3 42.807 1382421
3 42.807 1371575
3 42.807 1365813
3 42.807 1352722
3 42.807 1341165
3 42.807 1338170
3 42.807 1331524
3 42.807 1315432
3 42.807 1307865
3 42.807 1305036
3 42.807 1304248
3 43.504 1302763
3 43.504 1296077
3 43.504 1291211
3 43.504 1287783
3 43.504 1279842
3 43.504 1269825
3 44.166 1260349
3 49.508 1260041
3 50.029 1249729
3 51.057 1248093
3 51.057 1243449
3 51.057 1243178
3 53.52 1240909
3 53.52 1238533
3 53.52 1238085
3 56.144 1618546
3 56.144 1597291
3 56.144 1554599
3 56.144 1551731
3 56.144 1520776
3 56.144 1509818
3 56.144 1444625
3 56.144 1394267
3 56.144 1391455
3 56.144 1384586
3 57.246 1375655
3 57.246 1372815
3 57.246 1364977
3 58.162 1360772
3 59.086 1359711
3 59.086 1356716
3 59.086 1343284
3 61.62 1318959
3 61.62 1318670
2 62.207 1316443
3 62.207 1312958
3 63.413 1309114
3 63.413 1306282
3 63.413 1305027
3 63.413 1293862
3 64.082 1285723
3 64.082 1283553
3 64.082 1281035
3 64.082 1278512
3 64.082 1275767
3 64.757 1273868
3 65.984 1273150
3 65.984 1267964
3 70.616 1495324
3 70.616 1455947
3 70.616 1439135
2 70.616 1399707
3 70.616 1393126
3 70.616 1381213
3 70.616 1380499
3 70.616 1370134
3 70.616 1364358
3 71.648 1362709
3 71.648 1356727
3 72.338 1346118
3 72.338 1340595
3 72.338 1307966
3 72.338 1305553
3 72.338 1304944
3 73.218 1302925
3 73.218 1297832
3 73.218 1297647
3 74.1 1289545
3 74.1 1286636
3 74.1 1281894
3 74.1 1273026
3 74.1 1265552
3 74.1 1264954
3 74.7 1257842
3 75.504 1256573
3 76.209 1256027
2 81.341 1255808
3 83.321 1255640
3 83.842 1254964
3 84.372 1367212
3 84.372 1366100
3 84.372 1358807
3 84.372 1354824
3 84.372 1335025
3 84.372 1317613
3 85.001 1313918
3 85.001 1308901
3 85.001 1304070
3 85.001 1295845
3 85.001 1291262
3 85.001 1286927
2 85.598 1284422
3 85.598 1281278
3 85.598 1276518
3 89.994 1275705
3 89.994 1274994
3 90.566 1274951
3 91.107 1271960
3 91.66 1268512
3 91.66 1268009
3 92.204 1267370
2 92.918 1267139
3 92.918 1265044
3 93.835 1264106
3 94.739 1262952
3 94.739 1260950
3 95.525 1258290
3 98.382 1527313
3 98.382 1450158
3 98.382 1416748
3 98.382 1395116
3 98.382 1394025
3 98.382 1387985
3 98.382 1374130
3 99.047 1373606
3 99.047 1358394
3 99.047 1356275
3 99.047 1344213
3 99.047 1342272
3 99.047 1335627
3 99.047 1332095
3 99.672 1328515
3 99.672 1319785
3 99.672 1310416
3 100.252 1307552
3 100.252 1306920
3 100.867 1297972
3 101.938 1289560
2 102.491 1287712
3 103.048 1287311
3 103.661 1284898
3 105.949 1284573
3 107.047 1283961
2 107.047 1274966
3 107.047 1273059
3 107.616 1265124
3 107.616 1257695
3 107.616 1256501
3 107.616 1256282
3 108.184 1254815
3 112.875 1405834
3 112.875 1378211
3 112.875 1374616
3 112.875 1363690
3 112.875 1356144
3 112.875 1346946
3 113.865 1343330
3 113.865 1327837
3 114.622 1327641
3 114.622 1323916
3 114.622 1323517
3 114.622 1318823
3 115.706 1318352
3 115.706 1314147
2 115.706 1307877
3 115.706 1303857
3 115.706 1299870
3 116.654 1279277
3 117.537 1277816
3 117.537 1272591
3 119.289 1265672
2 120.163 1263353
3 120.163 1258099
3 121.043 1254285
3 121.043 1247104
3 121.929 1245627
3 126.488 1464346
3 126.488 1431535
3 126.488 1431234
3 126.488 1420388
1 126.488 1401227
3 126.488 1401102
3 126.488 1392081
3 127.54 1382124
3 127.54 1374539
3 127.54 1372976
3 127.54 1366888
3 127.54 1360309
3 127.54 1356710
3 127.54 1345282
3 128.599 1343689
3 128.599 1341284
3 128.599 1337399
3 128.599 1333307
3 128.599 1314460
3 128.599 1312780
3 128.599 1311762
3 129.588 1305161
3 129.588 1301548
3 130.854 1297832
3 131.388 1295644
3 131.388 1291206
3 131.388 1290457
3 131.388 1281723
3 131.965 1279310
3 131.965 1277826
3 131.965 1273535
3 132.508 1271007
2 133.039 1265015
3 133.543 1264967
3 134.046 1259874
3 140.1 1403405
3 140.1 1377638
3 140.1 1373263
3 140.1 1354863
3 140.1 1350172
3 140.1 1342497
3 141.624 1339483
3 141.624 1336574
3 141.624 1335299
2 141.624 1331527
3 141.624 1319522
3 141.624 1300890
3 142.712 1300788
3 142.712 1293314
3 142.712 1290873
3 142.712 1288794
3 142.712 1284150
2 144.178 1282439
3 144.178 1278064
3 144.787 1276125
3 144.787 1275751
3 145.444 1262160
3 146.262 1260073
3 147.006 1259987
3 147.006 1259065
3 147.006 1257592
3 149.588 1257078
3 152.698 1256601
3 153.247 1248218
3 153.786 1245204
3 154.425 1382187
3 154.425 1353327
3 154.425 1330825
3 154.425 1324109
3 154.425 1322637
3 154.425 1322066
1 154.425 1293733
3 154.425 1291332
3 155.53 1287198
3 155.53 1286239
3 155.53 1277635
3 156.63 1277436
3 156.63 1277246
3 159.454 1276194
3 160.123 1272649
3 160.123 1271868
3 160.123 1266269
3 160.674 1261761
3 160.674 1260732
3 160.674 1258976
3 161.595 1256722
2 161.595 1256170
3 162.46 1251966
3 163.371 1250958
3 164.214 1248412
3 165.061 1248411
3 167.604 1243890
3 168.194 1405345
3 168.194 1391699
3 168.194 1380483
3 168.194 1380031
3 168.194 1377036
3 168.194 1349700
3 168.194 1345155
3 168.194 1336529
3 168.194 1322912
3 168.929 1313127
3 168.929 1301965
3 168.929 1296579
3 168.929 1295380
3 169.833 1295233
3 171.131 1291726
3 171.131 1290438
3 172.713 1285847
3 172.713 1285487
3 172.713 1285345
3 174.348 1285317
3 174.348 1270528
3 176.001 1269167
3 177.241 1268578
3 181.082 1268309
3 182.165 1356863
3 182.165 1356569
3 182.165 1351760
3 182.165 1340526
3 182.165 1339284
3 182.165 1337353
3 182.165 1321407
3 182.974 1316795
3 182.974 1313192
3 182.974 1310079
3 182.974 1306642
3 182.974 1296701
3 183.566 1293706
3 183.566 1293125
3 184.11 1280573
3 184.11 1279497
3 184.637 1277054
3 184.637 1263735
3 184.637 1260911
3 184.637 1258870
3 185.69 1256889
3 185.69 1251925
3 185.69 1249897
3 190.378 1243667
3 190.378 1241603
3 196.633 1420160
3 196.633 1370391
3 196.633 1358273
3 196.633 1353180
3 196.633 1336794
3 196.633 1326905
3 196.633 1303019
3 196.633 1301815
3 196.633 1300525
3 197.412 1296118
3 197.412 1290954
3 197.412 1290471
3 197.412 1274690
3 197.971 1271534
2 197.971 1270798
3 198.833 1265203
3 198.833 1261129
3 198.833 1252343
3 199.751 1248082
3 199.751 1247250
3 203.594 1244008
3 210.551 1433634
3 210.551 1431844
3 210.551 1405158
3 210.551 1397539
3 210.551 1397179
3 210.551 1396012
3 210.551 1395996
3 210.551 1395846
3 210.551 1395366
3 211.482 1389810
3 211.482 1388278
3 211.482 1383937
3 211.482 1378703
3 212.379 1362230
3 212.379 1350487
3 213.319 1347194
3 213.319 1336348
3 213.319 1335877
3 214.228 1326073
3 214.228 1323369
3 214.228 1318442
3 214.228 1317564
3 215.134 1288427
3 215.134 1286014
3 215.134 1278758
3 215.134 1275763
3 215.134 1270541
3 215.134 1268874
3 215.134 1266490
2 216.126 1260655
3 216.126 1257701
3 216.126 1251818
3 216.126 1250589
3 216.126 1250150
3 216.126 1247647
3 224.356 1369630
3 224.356 1364569
3 224.356 1362796
3 224.356 1359801
3 224.356 1337247
3 225.031 1335010
3 225.031 1325846
3 225.974 1310033
3 225.974 1308443
3 226.981 1305320
3 227.665 1298829
2 227.665 1286419
3 227.665 1282530
3 228.242 1282083
1 228.821 1278364
3 228.821 1277203
3 228.821 1274974
3 228.821 1274037
2 228.821 1273232
3 229.385 1268623
3 230.011 1266267
3 230.011 1264244
3 230.011 1263853
3 230.766 1260734
3 231.276 1255840
3 231.276 1252026
3 231.276 1251827
3 231.276 1248013
3 231.276 1247183
3 232.477 1246674
3 232.477 1242398
3 233.02 1241210
3 233.02 1239709
3 238.506 1376311
3 238.506 1372224
3 238.506 1368278
3 238.506 1365978
3 238.506 1364435
3 238.506 1360209
3 238.506 1340900
3 238.506 1327091
2 238.506 1309677
3 239.367 1307169
2 239.367 1301525
3 239.367 1301274
3 239.367 1298283
3 239.367 1294273
3 240.289 1293310
3 240.289 1292215
2 240.289 1281632
3 240.289 1271650
3 241.196 1267561
3 241.196 1266177
3 242.856 1263921
3 243.428 1262502
3 243.428 1259593
3 245.827 1259176
2 249.709 1254434
3 252.262 1355344
3 252.262 1337075
3 252.262 1323471
3 253.255 1315997
3 254.613 1313409
3 255.188 1310771
3 255.188 1299348
3 255.188 1288437
3 255.76 1287776
3 255.76 1285663
3 255.76 1285303
3 255.76 1279991
3 258.324 1278078
3 258.862 1276993
3 260.733 1275169
3 263.274 1270964
3 263.274 1268805
2 263.274 1265871
3 266.333 1501408
2 266.333 1416824
3 266.333 1397447
2 266.333 1392500
3 266.333 1380291
3 266.333 1371143
3 266.333 1362670
3 267.103 1343096
3 267.103 1339940
3 267.103 1327126
3 267.103 1324794
3 267.853 1321195
3 267.853 1319018
3 267.853 1311161
3 268.861 1308513
3 268.861 1305996
3 269.789 1305952
3 270.415 1301638
3 270.415 1300272
3 270.986 1295670
3 270.986 1295255
3 271.543 1294075
3 272.085 1291166
3 273.166 1289448
3 273.706 1286792
3 273.706 1283883
3 273.706 1275268
3 273.706 1272359
3 273.706 1269004
3 273.706 1266675
3 273.706 1266589
3 274.294 1264799
3 275.34 1259842
3 275.34 1257515
3 276.396 1256686
3 279.751 1246637
3 279.751 1243872
3 280.443 1422476
3 280.443 1395932
3 280.443 1382312
3 280.443 1378787
3 280.443 1373557
3 280.443 1363578
3 280.443 1359373
3 280.443 1354081
3 280.443 1341371
3 280.443 1324121
3 281.19 1322860
3 281.19 1321215
3 281.19 1318820
3 281.19 1314060
3 281.757 1309416
3 282.292 1308135
2 282.842 1307931
3 283.399 1304936
3 283.399 1294546
3 283.399 1292416
3 283.399 1282042
3 283.968 1276949
3 283.968 1269450
3 284.778 1257767
3 285.532 1257243
3 286.188 1254653
3 286.188 1251041
3 288.587 1250759
3 290.287 1246218
3 294.526 1373826
3 294.526 1369513
3 294.526 1364869
3 294.526 1364175
3 294.526 1360957
3 294.526 1340974
3 295.508 1331789
3 295.508 1321572
3 295.508 1318373
3 295.508 1317941
3 295.508 1317777
3 295.508 1317237
3 295.508 1310990
3 295.508 1309131
3 295.508 1304231
3 297.198 1297666
3 297.198 1294757
3 297.198 1293170
3 297.762 1292672
3 297.762 1292421
3 297.762 1285679
3 301.257 1279721
3 307.443 1276896
3 308.006 1444294
3 308.006 1436912
3 308.006 1409081
2 308.006 1408257
3 308.006 1403346
3 308.006 1376010
3 308.006 1348840
3 308.747 1342092
3 308.747 1341125
3 308.747 1333163
3 309.309 1328323
3 310.142 1328318
3 310.142 1328066
3 310.142 1320592
2 310.142 1318338
2 310.142 1316809
3 310.142 1311072
3 310.142 1303873
3 311.123 1303513
3 311.123 1299252
3 312.921 1299010
3 315.639 1296117
3 315.639 1293529
3 316.38 1292042
3 317.779 1287060
3 317.779 1279382
3 317.779 1278575
3 318.469 1277135
3 319.031 1276485
3 319.549 1275823
3 320.924 1271360
3 320.924 1265989
3 322.088 1341752
3 322.088 1338808
3 322.088 1333190
3 322.088 1327414
3 322.088 1324419
3 322.088 1323962
3 322.088 1319436
2 322.758 1306252
3 322.758 1304285
3 322.758 1291945
3 322.758 1287740
3 323.358 1285327
3 323.358 1280683
3 323.89 1280120
3 324.67 1269744
3 324.67 1268476
3 325.786 1267477
3 326.313 1261636
3 326.86 1261364
3 326.86 1261356
3 326.86 1260155
3 326.86 1258254
3 327.977 1255511
3 327.977 1254548
3 329.575 1250769
3 330.454 1249435
3 335.574 1247606
3 336.512 1365689
3 336.512 1364728
3 336.512 1345200
3 336.512 1343355
3 336.512 1341331
3 336.512 1336064
2 336.512 1319578
3 337.386 1310580
3 337.386 1306375
3 337.386 1304123
3 338.315 1302384
3 339.934 1301026
3 339.934 1300546
3 339.934 1299491
3 339.934 1287875
3 339.934 1277615
3 340.756 1277173
3 340.756 1262468
3 340.756 1258210
3 341.944 1250659
3 343.561 1248760
3 343.561 1245433
3 343.561 1244673
3 344.101 1242998
3 345.346 1238880
3 346.09 1238568
3 346.615 1237174
3 346.615 1234761
3 350.692 1495605
3 350.692 1440118
3 350.692 1431228
3 350.692 1419888
3 350.692 1397420
3 350.692 1397349
3 350.692 1368097
3 351.73 1366591
3 351.73 1362673
3 351.73 1350090
3 351.73 1331455
3 351.73 1331030
3 351.73 1330956
3 351.73 1318318
3 352.702 1309565
3 352.702 1303608
3 352.702 1301681
3 352.702 1294035
3 352.702 1293860
3 353.658 1290831
3 353.658 1289845
3 353.658 1287451
3 354.569 1286845
3 354.569 1284700
3 354.569 1284038
3 355.405 1281179
3 355.405 1274586
3 356.25 1271422
3 356.25 1269283
3 358.467 1268726
2 358.467 1268491
3 358.467 1267956
3 359.528 1267020
3 359.528 1266083
3 359.528 1266034
3 360.263 1263207
3 360.93 1260212
3 364.423 1446679
3 364.423 1435553
3 364.423 1410706
3 364.423 1409311
3 364.423 1381335
3 364.423 1370464
3 364.423 1366517
3 364.423 1361687
3 364.423 1347443
3 364.423 1335053
3 364.423 1329529
3 365.183 1326240
3 365.183 1319678
3 365.183 1316522
3 365.183 1309770
3 365.183 1293987
3 365.763 1291759
3 365.763 1285086
3 365.763 1284584
3 365.763 1280047
3 365.763 1279082
3 367.373 1277837
3 367.373 1268871
3 368.027 1268689
3 368.027 1260577
3 368.598 1256184
3 368.598 1254380
3 368.598 1251915
3 368.598 1246139
3 369.149 1245837
3 373.648 1243988
3 373.648 1243719
3 374.552 1242599
3 374.552 1240613
3 378.158 1384412
3 378.158 1368092
3 378.158 1340889
3 378.158 1338658
3 378.158 1323165
2 378.158 1322064
3 378.158 1315351
3 378.793 1306974
3 378.793 1302537
3 378.793 1298351
3 379.361 1287138
3 379.361 1286011
3 379.361 1284579
3 379.924 1282641
3 381.558 1281652
3 381.558 1277640
3 381.558 1269461
3 382.441 1262752
3 382.441 1262406
3 383.325 1260757
3 383.325 1260602
3 383.325 1260183
3 383.325 1254271
3 384.218 1253911
3 384.218 1250548
3 385.077 1249815
3 392.212 1588895
3 392.212 1574627
3 392.212 1569603
3 392.212 1526911
3 392.212 1491667
2 392.212 1447622
3 392.212 1430804
3 392.212 1390542
3 392.212 1390142
3 393.069 1375982
3 393.069 1336544
3 393.069 1335670
3 393.069 1332514
3 393.069 1330378
3 393.069 1329315
3 393.069 1303483
3 394.031 1291780
3 395.758 1287653
3 396.636 1286004
3 396.636 1285494
3 396.636 1283341
3 396.636 1280790
3 397.672 1279091
3 397.672 1277800
3 398.792 1276096
3 399.871 1273827
3 400.752 1269740
3 404.279 1264417
3 404.279 1258894
3 406.153 1348889
3 406.153 1346654
3 406.153 1323603
3 406.727 1311673
3 406.727 1306150
3 406.727 1299674
3 407.33 1299147
3 407.33 1297366
3 408.018 1296736
3 408.018 1292627
3 408.018 1279848
3 409.156 1276901
3 409.156 1276638
3 409.156 1271994
3 409.156 1266934
3 409.156 1265858
3 410.099 1262440
3 410.734 1260982
3 412.183 1259967
3 413.994 1258741
3 414.87 1257198
3 414.87 1256838
3 416.241 1255733
3 416.241 1250715
3 417.156 1249367
3 417.156 1248151
3 417.761 1246271
3 420.585 1455363
3 420.585 1410048
3 420.585 1399433
3 420.585 1389981
3 420.585 1382664
3 420.585 1372667
3 420.585 1361618
3 420.585 1347583
3 420.585 1345354
3 421.632 1343838
3 421.632 1336529
3 421.632 1335741
3 421.632 1312988
3 421.632 1302050
3 422.601 1301690
3 422.601 1293475
3 422.601 1289508
3 422.601 1288184
3 422.601 1283508
3 422.601 1281696
3 422.601 1281095
2 422.601 1279230
3 425.372 1276817
3 426.929 1271381
3 426.929 1268472
3 430.117 1262940
3 432.834 1261661
3 433.379 1256403
3 434.027 1439554
3 434.027 1385058
3 434.027 1381098
3 434.027 1366657
3 434.027 1365210
3 434.756 1362570
3 434.756 1347977
3 434.756 1343059
3 434.756 1334940
3 434.756 1331975
3 434.756 1328979
3 435.403 1322271
3 435.403 1316749
3 435.403 1313679
3 435.403 1310396
3 435.958 1309725
3 435.958 1304620
3 435.958 1302043
3 435.958 1301109
3 435.958 1293504
3 436.569 1293240
3 437.104 1290937
3 437.104 1288307
3 437.104 1286238
3 437.671 1277740
3 437.671 1272647
3 437.671 1270706
3 437.671 1268923
3 440.315 1268518
3 440.843 1267249
3 440.843 1266812
3 448.337 1381191
3 448.337 1376282
3 448.337 1372933
3 448.337 1372803
3 448.337 1364588
3 448.337 1360659
3 448.337 1354403
3 448.337 1351408
3 448.337 1344803
3 448.337 1339531
3 448.337 1338632
3 449.183 1327470
3 449.183 1326569
3 449.183 1321476
3 449.183 1315954
3 449.183 1311310
3 449.183 1309101
3 450.151 1308290
3 450.836 1303197
3 450.836 1299602
3 451.477 1297189
3 451.477 1289715
2 452.786 1286804
3 452.786 1283895
3 453.689 1278386
3 453.689 1273289
3 453.689 1272210
3 455.217 1267470
3 456.855 1266066
3 460.529 1258773
3 460.529 1256620
3 461.116 1254840
3 461.637 1254758
3 461.637 1254323
3 462.302 1412700
3 462.302 1409705
3 462.302 1397755
3 462.302 1373955
2 462.302 1368552
3 462.302 1366607
3 462.302 1362520
2 463.129 1360734
3 463.129 1352519
3 463.129 1345045
3 463.129 1343909
3 463.129 1340231
3 463.717 1334298
3 463.717 1333280
3 463.717 1331885
3 463.717 1315373
3 463.717 1312464
3 464.32 1308259
3 464.933 1305939
3 465.625 1302252
3 465.625 1298863
3 465.625 1298192
3 465.625 1298141
3 466.267 1297912
3 466.267 1295595
2 466.267 1288014
3 466.267 1287801
3 466.942 1286024
3 466.942 1285878
3 466.942 1285611
3 468.12 1282595
3 468.12 1275005
3 471.118 1274199
3 471.118 1273986
3 471.678 1272876
3 476.609 1476326
3 476.609 1434718
3 476.609 1405156
3 476.609 1372760
3 476.609 1359946
3 476.609 1333972
3 476.609 1325855
3 476.609 1325201
3 477.932 1324841
3 478.824 1323681
3 479.72 1321222
3 480.599 1291383
3 480.599 1290966
3 480.599 1289423
3 480.599 1288388
3 480.599 1283315
3 482.399 1280758
3 483.32 1277249
3 484.219 1275073
3 488.618 1274713
3 490.397 1427882
3 490.397 1399927
3 490.397 1395638
3 490.397 1389290
3 490.397 1337145
3 491.121 1308396
3 491.121 1302591
3 491.121 1302131
3 491.121 1295976
3 491.742 1293143
3 491.742 1292059
3 491.742 1291872
3 491.742 1286436
3 491.742 1278980
3 492.33 1271506
3 492.889 1269809
3 492.889 1266653
3 492.889 1259293
3 493.442 1258098
3 493.442 1257504
3 494.254 1253200
3 494.94 1248860
3 494.94 1248644
3 496.699 1248107
3 497.584 1248102
3 498.467 1245649
3 504.463 1441113
3 504.463 1402831
3 504.463 1401514
3 504.463 1393864
3 504.463 1378064
3 504.463 1377167
3 504.463 1360192
3 504.463 1353013
3 505.498 1349306
3 505.498 1346694
3 505.498 1345797
2 505.498 1342472
3 506.342 1339316
3 506.342 1338528
3 506.342 1334028
3 506.342 1333613
3 507.133 1325831
3 507.133 1316287
3 507.133 1309758
3 507.133 1305125
3 507.133 1302548
3 507.133 1301242
3 507.891 1299227
3 508.596 1297415
3 508.596 1293328
2 508.596 1291759
3 508.596 1285516
3 509.987 1283699
3 510.53 1272302
3 510.53 1271898
3 512.468 1268989
3 513.316 1266933
3 513.316 1266577
3 514.199 1264399
3 514.199 1247445
3 517.705 1246874
3 518.532 1453223
3 518.532 1446229
3 518.532 1425610
3 518.532 1409926
3 518.532 1398258
3 518.532 1385444
3 518.532 1377970
3 518.532 1355335
2 518.532 1340106
3 518.532 1325406
3 518.532 1320541
3 518.532 1316336
3 519.554 1315305
3 519.554 1310936
3 519.554 1305372
3 520.429 1304584
3 520.429 1302161
3 520.429 1302006
3 521.313 1296913
3 521.313 1293583
3 521.313 1290616
3 521.313 1290334
3 521.313 1289889
3 522.227 1285241
3 524.769 1282415
3 527.377 1265112
3 528.35 1262471
3 528.35 1256695
3 528.35 1253539
3 528.35 1252500
3 529.92 1252315
3 530.453 1249065
3 530.971 1244779
3 532.289 1374274
3 532.289 1359439
3 532.289 1356530
3 532.289 1347368
3 532.289 1340050
3 532.289 1338947
3 533.288 1338229
3 533.288 1332428
3 533.288 1325485
3 534.009 1324539
3 534.009 1312433
3 534.009 1305670
3 534.753 1301660
3 534.753 1294632
3 534.753 1290257
3 534.753 1289508
3 535.473 1273576
3 543.565 1273071
3 545.97 1273039
3 546.8 1431670
3 546.8 1393611
3 546.8 1376869
3 546.8 1368405
3 546.8 1368127
3 546.8 1362095
3 546.8 1338990
3 548.66 1338393
3 549.495 1332479
3 549.495 1326935
3 549.495 1326619
3 549.495 1310632
3 549.495 1309482
3 550.255 1305497
3 550.255 1300804
3 550.255 1298143
3 550.255 1296997
3 550.828 1290216
3 551.36 1288797
3 551.36 1286384
3 551.36 1284018
3 552.078 1278242
3 553.813 1277629
3 553.813 1276199
3 555.519 1275684
3 555.519 1271484
3 557.214 1268990
3 557.214 1265995
3 557.214 1261440
3 558.081 1261351
3 558.081 1257169
3 558.081 1254851
3 560.62 1448632
3 560.62 1445637
3 560.62 1432312
3 560.62 1413197
3 560.62 1405723
3 560.62 1393850
3 560.62 1391321
3 561.496 1386548
3 561.496 1381961
3 561.496 1381041
3 561.496 1366683
3 561.496 1349373
3 561.496 1345960
3 562.233 1345718
3 562.233 1341607
3 562.233 1334329
3 562.233 1332690
3 562.979 1318222
3 562.979 1315888
3 562.979 1311244
3 562.979 1309103
3 562.979 1308151
3 563.905 1298595
3 563.905 1286850
3 563.905 1285766
3 563.905 1284459
3 563.905 1281426
3 564.728 1281391
3 565.289 1279227
3 567.905 1273373
3 569.14 1269693
3 571.235 1269194
3 572.345 1269168
3 572.345 1266038
3 572.345 1259632
3 573.946 1259096
3 574.491 1424312
3 574.491 1413466
3 574.491 1386130
3 574.491 1353705
3 574.491 1346593
3 574.491 1338558
3 574.491 1320939
3 575.104 1310075
3 575.104 1309262
3 575.104 1306176
3 575.104 1298595
2 575.104 1287512
3 575.946 1286360
3 576.726 1286247
3 577.291 1283945
3 577.291 1275641
1 578.92 1273386
3 581.4 1271303
3 581.4 1264841
3 581.4 1261685
3 582.666 1258572
3 588.399 1361395
3 588.399 1349321
3 588.399 1345116
3 588.399 1335691
3 588.399 1332547
3 588.399 1329552
3 589.044 1328510
3 589.044 1327172
3 589.044 1320362
3 590.125 1317920
3 590.125 1310446
3 590.685 1307075
3 590.685 1303261
3 591.29 1297588
3 591.29 1289365
3 591.29 1284910
3 591.867 1280650
3 591.867 1279644
3 592.401 1269546
3 592.401 1267440
3 592.401 1264934
3 592.401 1264275
3 592.401 1263746
3 593.027 1263119
3 593.546 1262610
3 593.546 1261467
2 596.925 1258068
3 596.925 1257024
3 599.948 1256947
3 602.157 1431650
3 602.157 1425530
3 602.157 1423748
3 602.157 1415427
3 602.157 1372964
3 602.157 1367587
2 602.157 1366320
3 602.157 1344438
3 602.157 1341934
3 603.136 1339512
3 603.136 1333623
3 604.023 1333433
3 604.023 1331902
2 604.023 1307744
3 604.023 1302318
3 604.969 1300632
3 605.521 1292702
3 605.521 1290270
3 606.069 1289432
3 606.601 1285580
3 608.274 1282314
3 608.274 1279241
3 608.826 1278094
3 608.826 1277221
3 609.366 1277105
3 609.888 1273763
3 610.422 1273628
3 612.141 1273547
3 612.141 1270954
3 613.09 1269589
3 614.831 1260348
3 616.617 1481828
2 616.617 1449522
3 616.617 1430999
3 616.617 1398361
3 616.617 1342836
3 616.617 1335820
3 616.617 1324444
3 616.617 1323558
3 617.287 1320563
3 617.287 1308509
3 617.287 1299502
3 617.859 1290354
3 617.859 1286761
3 618.391 1281761
3 618.391 1279666
3 618.391 1279132
3 619.268 1277829
3 624.31 1274758
3 625.194 1274681
3 625.194 1273874
3 625.194 1266810
3 625.194 1266762
3 626.112 1265404
3 630.411 1447750
3 630.411 1444755
3 630.411 1443464
3 630.411 1432984
3 630.411 1411593
3 630.411 1402703
3 630.411 1402590
3 630.411 1398978
3 630.411 1389560
3 630.411 1373596
3 630.411 1364858
3 630.411 1357384
3 631.519 1354558
3 631.519 1349036
3 631.519 1347388
3 631.519 1346649
3 631.519 1342444
3 632.368 1333299
3 632.368 1309561
3 632.368 1300603
3 632.368 1296261
3 633.321 1291455
3 634.203 1290139
3 634.203 1288383
3 634.909 1285542
3 635.426 1281337
3 636.014 1277537
2 636.014 1275561
3 636.715 1271270
3 639.962 1270245
3 639.962 1267801
3 643.117 1261151
3 644.151 1346942
3 644.151 1339468
3 644.151 1331666
3 644.151 1326758
3 644.151 1320905
3 644.866 1319102
3 644.866 1311503
3 644.866 1311396
3 644.866 1310288
3 644.866 1300985
3 646.462 1296209
3 646.462 1287404
3 646.462 1286201
3 647.021 1284996
3 647.021 1283497
3 647.021 1268792
3 650.763 1268674
3 651.292 1267048
3 655.505 1265760
3 655.505 1263352
3 655.505 1262691
3 656.442 1260351
3 657.001 1255925
3 657.001 1250832
3 657.572 1250655
3 658.104 1462618
3 658.104 1456385
3 658.104 1449725
3 658.104 1410204
3 658.104 1407506
3 658.104 1405105
3 658.104 1400391
3 659.056 1367995
3 659.056 1364839
2 659.056 1350056
3 659.056 1335351
3 659.056 1332428
3 659.93 1332137
3 659.93 1328380
3 659.93 1322279
3 659.93 1305809
3 660.537 1300043
3 661.183 1293523
3 661.725 1284528
3 661.725 1283069
3 662.37 1277641
3 662.37 1265992
3 662.37 1264816
3 662.37 1259836
3 663.148 1252082
3 664.857 1252063
3 672.301 1332201
3 672.301 1330270
3 672.301 1329206
1 672.301 1323817
3 672.301 1314448
3 672.301 1310328
3 672.938 1303000
3 672.938 1299294
3 672.938 1297255
3 672.938 1286072
3 672.938 1281939
3 673.721 1280432
3 673.721 1280012
3 673.721 1279955
3 674.624 1277482
3 674.624 1276249
3 674.624 1275689
3 675.56 1273093
3 678.926 1268965
3 679.782 1266193
3 680.533 1265319
3 680.533 1264662
3 680.533 1263198
3 681.576 1263129
3 681.576 1261550
2 682.095 1260840
3 682.675 1260704
3 685.938 1245994
3 686.66 1459919
3 686.66 1427523
3 686.66 1397713
3 686.66 1396468
3 686.66 1390593
3 686.66 1372020
3 686.66 1370764
3 687.587 1369047
2 687.587 1343647
3 687.587 1341058
2 687.587 1324251
3 687.587 1322701
3 687.587 1322592
3 688.578 1313874
3 688.578 1307012
3 690.289 1300936
3 691.985 1296616
3 692.678 1295166
3 692.678 1292310
3 692.678 1291957
3 693.909 1287752
3 694.436 1285710
3 694.436 1284887
3 694.984 1284754
3 694.984 1282801
3 695.513 1274808
3 695.513 1274496
3 696.089 1271724
3 696.709 1265319
3 696.709 1264343
3 696.709 1261845
3 696.709 1261118
3 697.264 1260756
3 697.264 1260255
3 697.264 1260003
3 697.956 1258412
3 697.956 1257339
3 697.956 1256222
3 700.437 1394728
3 700.437 1388521
3 700.437 1364609
3 700.437 1352866
3 700.437 1344651
3 701.094 1337390
3 701.094 1331035
3 701.094 1323143
3 701.094 1322741
3 701.094 1317648
3 701.094 1290025
3 702.216 1286613
3 702.216 1279179
3 702.91 1273391
3 704.224 1266429
3 704.224 1255583
3 704.224 1249295
3 704.224 1249142
3 705.842 1248109
3 706.646 1246969
3 706.646 1244347
2 708.868 1243465
3 714.761 1442982
3 714.761 1421163
3 714.761 1381750
3 714.761 1345295
3 714.761 1341465
3 714.761 1326921
3 714.761 1321352
3 714.761 1316259
2 715.77 1315064
3 715.77 1315013
3 715.77 1310926
3 715.77 1301867
3 715.77 1297910
3 715.77 1286486
3 716.721 1286397
3 716.721 1277337
3 716.721 1272174
3 718.47 1271760
3 718.47 1268244
3 719.345 1266581
3 719.345 1265030
2 727.906 1261030
3 728.562 1416034
3 728.562 1399490
3 728.562 1399138
3 728.562 1389990
3 728.562 1381152
2 728.562 1357374
3 728.562 1332597
3 728.562 1331786
3 728.562 1319768
3 728.562 1312265
3 729.225 1311259
3 729.225 1307770
3 729.225 1301399
3 729.225 1300499
3 729.786 1296829
3 729.786 1296261
3 729.786 1290739
3 730.508 1290066
3 730.508 1284734
3 731.028 1282445
3 731.028 1276788
3 731.607 1271499
3 731.607 1267338
3 732.186 1267335
3 732.186 1266550
3 733.071 1259969
3 733.071 1259897
3 735.621 1259864
3 742.299 1424039
3 742.299 1404714
3 742.299 1388944
3 742.299 1379796
3 742.299 1377493
3 742.299 1366887
3 742.299 1356120
3 742.299 1351420
3 742.299 1350963
3 742.299 1350254
3 742.299 1339986
3 742.299 1323533
3 743.031 1319351
3 743.031 1318796
3 743.031 1316376
3 743.031 1316283
3 743.031 1315492
3 743.616 1313609
3 743.616 1300393
3 743.616 1299120
3 743.616 1294548
3 743.616 1287862
3 744.6 1287131
3 747.004 1282315
3 747.004 1279894
3 747.004 1274118
3 747.004 1273770
3 747.004 1272116
3 747.658 1268253
3 748.198 1267687
3 749.327 1267055
3 749.327 1264642
3 756.299 1378745
3 756.299 1375836
3 756.299 1373891
2 756.299 1333269
3 757.246 1330461
3 757.246 1326340
3 757.246 1319177
3 757.246 1313209
3 757.246 1308405
1 758.037 1302124
3 758.037 1301993
3 758.037 1300034
3 758.037 1297039
3 758.606 1295632
3 758.606 1292395
3 758.606 1288125
3 759.445 1286808
3 760.358 1285877
3 760.923 1281233
3 762.533 1280896
3 763.429 1274212
3 764.3 1260055
3 764.3 1259507
3 767.605 1258402
3 770.162 1447739
2 770.162 1434062
3 770.162 1432222
3 770.162 1399697
3 770.162 1387359
3 770.162 1380302
3 771.181 1372008
3 771.181 1367092
3 771.181 1363146
3 771.181 1360472
2 772.107 1347421
3 772.107 1339947
3 772.107 1338111
3 772.107 1329348
3 773.056 1325143
3 773.056 1316644
3 773.056 1315265
3 773.634 1310801
1 774.185 1308206
3 774.724 1306944
3 774.724 1296680
2 774.724 1287572
3 775.285 1286765
3 775.285 1282280
3 775.844 1281672
3 784.663 1333264
3 784.663 1331894
3 784.663 1330783
3 784.663 1325834
3 785.347 1311241
3 785.347 1307427
3 785.347 1306499
3 786.288 1300774
3 786.288 1299643
3 786.288 1298664
3 786.288 1298190
3 787.212 1287344
3 787.212 1281568
3 787.904 1271913
3 787.904 1271528
3 787.904 1270959
3 787.904 1268533
3 788.815 1264719
3 790.54 1263233
3 790.54 1255117
3 790.54 1254757
3 790.54 1249664
3 790.54 1246088
3 791.354 1243216
3 792.559 1241823
3 793.881 1237862
3 793.881 1236365
3 797.648 1235137
3 798.545 1372942
3 798.545 1362536
3 798.545 1358248
3 798.545 1351446
3 798.545 1338525
3 798.545 1324720
3 799.43 1320451
3 799.43 1312821
3 799.43 1304720
3 799.43 1297130
3 799.43 1288134
3 799.43 1286806
3 800.059 1283593
3 800.059 1283079
3 800.739 1281109
3 800.739 1280771
3 800.739 1275061
3 801.631 1274127
3 802.502 1271961
3 802.502 1270752
3 803.681 1268607
3 804.546 1267756
3 805.384 1266295
2 805.907 1263031
3 805.907 1250406
3 805.907 1248321
3 806.615 1247250
3 807.51 1246916
3 807.51 1244503
2 809.228 1239486
3 810.885 1238635
3 811.924 1237344
3 812.465 1369738
3 812.465 1369094
3 812.465 1353366
3 812.465 1349008
3 812.465 1341534
3 812.465 1340444
3 812.465 1337794
3 812.465 1336002
3 812.465 1334022
3 812.465 1314513
3 812.465 1298779
3 813.191 1291923
3 813.191 1291795
3 814.302 1287879
3 814.867 1287590
3 814.867 1285558
3 814.867 1284070
3 815.411 1283998
3 815.411 1283674
3 816.022 1283107
3 816.022 1281400
3 819.695 1280041
3 819.695 1273866
3 819.695 1271906
3 820.8 1271747
3 821.956 1268592
3 821.956 1266506
3 826.368 1432301
3 826.368 1393815
2 826.368 1369957
3 826.368 1368757
3 826.368 1365834
3 826.368 1362678
3 826.368 1354463
3 826.368 1340182
3 826.368 1328411
3 827.369 1304555
3 827.369 1304231
3 828.295 1303311
3 828.295 1300937
3 828.295 1299708
3 828.295 1298126
3 828.295 1293921
3 828.295 1291508
3 828.295 1289621
3 828.295 1280746
3 829.256 1280557
3 829.256 1279129
3 831.9 1275117
3 831.9 1274890
3 833.733 1273160
3 833.733 1271783
3 833.733 1265879
3 834.428 1262884
3 834.428 1262347
3 836.098 1258853
3 836.735 1257664
3 840.253 1451495
3 840.253 1446877
3 840.253 1444001
3 840.253 1396533
3 840.253 1384203
3 840.253 1382015
3 840.253 1381588
3 840.253 1369778
3 841.162 1329816
3 841.162 1322471
2 841.162 1321683
3 841.162 1313468
3 841.162 1307748
3 842.118 1302544
3 843.064 1300380
2 843.064 1299534
3 843.995 1294031
3 844.773 1292102
3 844.773 1291978
3 845.909 1281850
3 845.909 1273388
3 847.612 1259026
3 847.612 1256823
3 848.191 1256570
3 854.551 1438482
3 854.551 1434421
3 854.551 1427520
2 854.551 1417638
3 854.551 1392796
3 854.551 1390383
3 854.551 1383404
3 855.599 1381217
3 855.599 1375991
3 855.599 1374159
3 855.599 1345022
3 856.555 1330305
3 856.555 1319058
3 857.139 1318080
3 857.683 1316304
3 857.683 1308830
3 857.683 1302919
3 858.338 1294120
3 858.338 1292723
3 858.338 1285443
3 859.059 1278211
3 859.059 1277460
3 859.059 1274555
3 860.793 1266340
3 861.528 1261061
3 862.054 1258501
3 862.054 1253116
3 862.054 1253054
3 862.054 1248429
3 862.932 1247961
3 864.571 1245303
3 868.297 1451395
3 868.297 1412810
3 868.297 1397241
2 868.297 1392632
3 868.297 1388354
3 868.297 1381603
3 868.984 1370441
3 868.984 1366165
3 868.984 1352230
3 868.984 1346840
3 868.984 1335037
3 868.984 1330832
3 869.952 1319789
3 869.952 1314013
3 869.952 1309193
3 870.941 1307341
3 870.941 1306208
3 871.904 1303795
3 871.904 1303410
3 871.904 1301032
3 872.825 1294816
3 872.825 1294184
3 874.722 1292716
3 874.722 1291323
3 874.722 1287118
3 875.627 1282546
3 875.627 1282527
3 878.955 1278251
3 879.824 1277707
3 882.222 1375797
3 882.222 1367984
3 882.222 1361124
2 882.222 1355204
3 882.222 1350287
3 882.222 1343374
3 882.222 1339129
2 882.222 1334953
3 882.881 1315477
3 882.881 1309798
3 883.413 1299984
3 883.413 1295518
3 883.413 1294208
3 883.998 1289115
3 883.998 1286586
3 884.548 1284173
3 885.094 1280251
3 885.094 1279471
3 885.094 1276957
3 885.094 1272582
3 885.735 1271040
3 887.84 1270635
3 888.945 1264036
3 896.407 1436356
3 896.407 1395316
3 896.407 1370044
3 896.407 1369034
3 896.407 1359613
3 896.407 1348616
3 896.407 1335075
3 896.407 1333383
3 896.407 1331814
3 896.407 1328862
3 897.199 1316452
3 897.199 1316308
3 897.739 1313457
3 897.739 1306031
3 897.739 1305983
3 897.739 1297753
3 897.739 1293573
3 898.373 1289784
3 898.373 1285409
3 898.373 1285163
3 898.925 1281751
3 898.925 1281401
3 899.478 1272624
3 900.007 1271535
3 900.007 1268537
3 900.549 1268203
3 900.549 1267896
3 901.154 1265487
3 901.154 1265208
3 901.7 1262549
3 903.269 1256075
3 903.269 1256011
3 903.269 1254514
3 903.269 1253016
3 903.857 1252270
3 905.831 1251988
3 906.349 1245319
3 906.882 1245158
3 907.401 1242410
3 910.471 1438542
2 910.471 1423157
3 910.471 1388712
3 910.471 1385630
2 910.471 1365448
3 910.471 1351801
3 910.471 1342681
3 911.506 1326966
3 911.506 1313846
3 911.506 1304536
3 911.506 1303541
3 911.506 1302242
3 911.506 1297419
3 912.492 1285036
3 912.492 1282041
3 912.492 1276948
3 912.492 1276064
3 912.492 1273435
3 912.492 1273183
3 913.466 1271840
3 913.466 1269509
3 913.466 1269149
3 913.466 1268090
3 916.281 1264417
3 916.281 1264318
3 916.281 1262953
3 917.68 1262196
2 918.56 1259588
3 918.56 1258725
3 918.56 1251786
3 918.56 1249387
3 919.217 1249059
3 919.217 1248300
3 920.012 1240838
3 920.012 1240265
3 920.96 1237843
3 920.96 1234543
3 922.254 1226897
3 924.202 1376882
3 924.202 1373683
3 924.202 1362203
3 924.202 1359208
3 924.202 1349347
3 924.202 1346898
3 924.202 1315696
3 924.202 1310577
2 924.878 1308724
3 924.878 1297878
3 925.438 1296252
3 925.438 1288683
3 925.981 1286447
3 926.609 1285318
3 926.609 1282924
3 926.609 1281897
3 926.609 1280211
3 926.609 1275567
3 928.028 1265422
3 928.028 1262723
3 928.028 1257797
3 928.901 1255344
3 929.974 1254092
3 929.974 1253153
3 938.786 1377775
3 938.786 1374866
3 938.786 1369023
3 938.786 1364337
3 938.786 1349017
3 938.786 1335632
3 939.763 1325063
3 939.763 1323660
3 939.763 1323199
3 940.672 1322810
3 940.672 1314984
3 940.672 1312712
3 941.326 1309750
3 943.437 1309367
3 943.437 1301254
3 943.437 1285846
3 952.072 1399394
2 952.072 1393611
3 952.072 1377304
3 952.072 1374395
3 952.072 1372375
3 952.072 1370735
3 952.072 1359576
3 952.072 1356420
3 952.072 1352367
3 953.08 1347998
3 953.08 1330621
3 953.08 1318186
3 953.08 1316488
3 953.08 1316289
3 953.08 1314631
3 953.08 1313391
3 953.08 1311535
3 954.115 1308487
3 954.997 1297682
3 954.997 1293972
3 955.909 1293034
3 955.909 1292084
3 955.909 1283020
3 955.909 1278815
2 955.909 1274004
3 955.909 1271083
3 955.909 1262068
3 957.793 1259201
3 958.663 1254692
3 959.541 1252881
3 960.063 1250636
3 960.063 1247873
3 966.495 1432132
3 966.495 1409797
3 966.495 1370922
3 966.495 1364516
3 966.495 1324436
3 966.495 1316998
3 966.495 1314256
3 967.529 1311682
3 967.529 1311236
3 967.529 1302705
3 967.529 1296920
3 967.529 1295237
3 967.529 1293778
3 968.5 1291875
3 968.5 1289808
3 968.5 1289397
3 968.5 1289377
3 970.243 1289003
3 971.29 1285149
3 971.811 1280762
3 971.811 1280374
3 971.811 1277512
3 972.5 1276133
3 973.41 1273307
3 973.41 1273138
3 979.404 1270975
3 979.404 1268281
3 979.965 1263957
2 980.83 1356944
3 980.83 1346098
3 980.83 1338835
3 980.83 1335493
3 980.83 1331003
3 980.83 1330215
3 980.83 1322000
3 980.83 1310520
3 981.795 1297942
3 981.795 1291602
3 982.679 1283232
3 983.509 1282455
3 984.353 1281677
3 984.353 1276314
3 984.353 1275849
3 984.353 1271474
3 985.232 1265093
3 986.057 1264733
3 987.908 1260352
3 988.989 1258554
3 994.099 1434428
3 994.099 1416639
3 994.099 1384649
3 994.099 1373368
3 994.099 1368275
3 994.099 1343590
3 994.099 1341546
3 994.099 1333770
3 994.099 1330706
3 994.099 1330346
3 994.099 1326769
3 995.175 1321713
3 995.175 1321414
3 996.048 1316589
3 996.048 1314176
3 996.048 1309971
3 997.001 1307318
3 997.001 1298926
3 997.001 1295623
3 997.001 1295160
3 997.932 1287880
3 998.837 1287408
3 999.719 1285034
3 1001.06 1284931
3 1001.06 1280738
3 1003.28 1262480
3 1003.84 1260158
3 1003.84 1257451
3 1005.87 1256824
3 1008.21 1392807
3 1008.21 1391147
3 1008.21 1335348
3 1008.21 1332935
3 1008.21 1329965
3 1008.21 1319119
3 1008.9 1314226
3 1008.9 1312962
3 1008.9 1310185
3 1008.9 1309255
3 1008.9 1308444
3 1009.9 1306673
3 1009.9 1302838
3 1009.9 1291045
3 1009.9 1286815
3 1010.84 1285363
3 1010.84 1279282
3 1010.84 1271326
3 1010.84 1265500
3 1011.64 1261686
3 1011.64 1261150
3 1012.43 1260790
3 1016.72 1260103
3 1022.42 1339204
3 1022.42 1336750
3 1022.42 1335796
3 1022.42 1324034
3 1022.42 1322371
3 1022.42 1319462
3 1022.42 1315304
3 1022.42 1313313
3 1022.42 1303523
3 1022.42 1295308
3 1023.11 1293757
3 1023.11 1292794
3 1023.11 1289799
3 1023.11 1289670
3 1023.69 1287927
3 1023.69 1278312
3 1023.69 1271476
3 1023.69 1269075
3 1023.69 1259482
3 1023.69 1257340
3 1023.69 1256797
3 1025.31 1253886
2 1025.97 1250349
3 1025.97 1243919
3 1025.97 1241277
3 1026.7 1240453
3 1027.29 1239888
3 1029.44 1238246
3 1031.13 1238118
3 1032.03 1237917
3 1033.81 1228281
3 1033.81 1225772
1 1036.49 1491342
2 1036.49 1450618
3 1036.49 1446876
3 1036.49 1437498
3 1036.49 1421449
3 1036.49 1410690
3 1036.49 1408309
3 1036.49 1397147
3 1036.49 1390036
3 1036.49 1378493
3 1037.16 1374824
3 1037.16 1373805
3 1037.16 1366068
3 1037.16 1362443
3 1037.16 1353398
3 1037.77 1347012
3 1037.77 1318267
3 1037.77 1316822
3 1037.77 1315375
3 1038.33 1313176
3 1038.33 1310181
3 1038.33 1310068
3 1038.33 1309986
3 1038.33 1301470
3 1038.33 1301063
3 1040.02 1298668
3 1040.02 1297221
3 1040.57 1290374
3 1040.57 1289901
3 1042.65 1289468
3 1042.65 1287055
3 1044.76 1284515
3 1045.4 1280701
3 1050.21 1369124
3 1050.21 1353240
2 1050.21 1350097
3 1050.21 1340565
3 1050.21 1339008
3 1050.21 1335302
2 1050.21 1318477
3 1051.25 1316307
3 1051.25 1315654
3 1051.25 1314707
3 1051.25 1313125
3 1051.25 1308463
3 1051.25 1306609
3 1052.2 1304198
1 1052.2 1297172
3 1052.2 1278237
3 1053.15 1277063
3 1053.15 1267665
3 1053.15 1263021
3 1053.15 1260124
3 1054.07 1255580
3 1054.07 1252941
3 1054.07 1248279
3 1054.07 1245866
3 1055.88 1242930
3 1055.88 1240909
3 1056.73 1238392
2 1059.23 1238048
3 1059.23 1233604
3 1059.23 1233244
3 1064.28 1450575
2 1064.28 1441421
3 1064.28 1428819
3 1064.28 1420828
3 1064.28 1378136
3 1064.28 1368273
3 1065.32 1356987
3 1065.32 1350083
3 1065.32 1332273
3 1065.32 1322548
3 1066.31 1320135
3 1066.31 1311591
3 1066.31 1310124
3 1067.27 1303295
3 1067.27 1300001
3 1069.95 1296873
3 1069.95 1296267
3 1069.95 1291891
3 1069.95 1287853
3 1070.84 1285548
3 1070.84 1277374
3 1070.84 1273747
3 1071.54 1273313
3 1071.54 1272665
3 1072.38 1272059
3 1074.21 1271846
3 1074.79 1270899
3 1075.34 1268851
3 1075.88 1261735
3 1076.4 1257843
2 1076.93 1253177
3 1077.97 1252892
3 1078.5 1319049
3 1078.5 1298792
3 1078.5 1297191
3 1079.07 1295164
1 1079.07 1294282
3 1079.6 1290100
3 1079.6 1281812
3 1080.29 1278324
3 1080.29 1277854
3 1080.29 1277222
3 1081.45 1274967
3 1082.32 1272313
3 1082.32 1270723
3 1082.32 1269211
3 1084.52 1268378
3 1085.81 1265729
3 1085.81 1253986
3 1087.04 1252026
3 1088.84 1251788
3 1089.74 1251346
3 1089.74 1250380
3 1092.04 1474697
3 1092.04 1465549
3 1092.04 1429716
3 1092.04 1379407
3 1092.04 1375116
3 1092.04 1329673
3 1092.04 1327268
3 1092.04 1321610
3 1092.04 1320519
3 1092.04 1320159
3 1092.7 1317610
3 1092.7 1315488
3 1092.7 1312332
3 1092.7 1307689
3 1092.7 1307239
3 1093.8 1302252
3 1093.8 1297536
3 1093.8 1270583
3 1094.88 1270320
3 1095.94 1268478
3 1099.74 1247158
3 1099.74 1246282
3 1101.98 1243359
3 1101.98 1241189
3 1102.54 1239106
3 1103.06 1238561
3 1103.92 1237667
3 1103.92 1236302
3 1105.44 1235415
3 1106.13 1415090
3 1106.13 1373842
3 1106.13 1372216
3 1106.13 1368011
1 1106.13 1360583
3 1106.13 1359963
3 1106.13 1358823
3 1106.13 1356736
3 1106.13 1349361
3 1106.77 1347477
3 1106.77 1343893
3 1106.77 1340079
3 1107.31 1338682
3 1107.31 1336518
3 1107.31 1319700
3 1107.31 1319649
3 1107.87 1317088
3 1107.87 1308897
3 1107.87 1305798
3 1107.87 1305416
3 1108.55 1301848
3 1108.55 1299560
3 1109.1 1295654
3 1109.1 1294422
3 1109.1 1292809
3 1109.87 1291512
3 1109.87 1290269
3 1110.6 1287360
3 1113.2 1285322
3 1113.2 1283763
3 1113.2 1279639
3 1113.2 1278961
2 1115.93 1276049
3 1115.93 1275999
3 1116.62 1274947
3 1116.62 1273918
3 1116.62 1271765
3 1117.78 1270618
3 1117.78 1265974
3 1117.78 1265787
3 1118.51 1265437
3 1118.51 1261691
3 1118.51 1259933
3 1119.14 1259278
2 1120.18 1446746
3 1120.18 1436140
3 1120.18 1405573
3 1120.18 1379755
3 1120.18 1375634
3 1120.18 1373087
3 1120.18 1369095
3 1120.18 1368396
3 1120.18 1353691
3 1120.18 1352118
3 1120.18 1351779
3 1120.18 1349484
3 1121.04 1345593
3 1121.04 1338119
3 1121.04 1331125
3 1121.8 1330130
3 1121.8 1316169
3 1121.8 1314722
3 1122.72 1312361
3 1122.72 1301104
3 1122.72 1298195
3 1122.72 1294381
3 1123.61 1291968
3 1123.61 1289594
3 1123.61 1286114
3 1124.18 1279892
3 1124.81 1272661
3 1124.81 1271456
3 1126.82 1269666
3 1126.82 1264794
3 1127.77 1264434
3 1132.76 1264163
3 1132.76 1261168
3 1133.97 1260357
3 1134.51 1412080
3 1134.51 1400802
3 1134.51 1399365
3 1134.51 1391715
3 1134.51 1391604
3 1134.51 1374786
3 1134.51 1362331
3 1135.19 1341742
3 1135.19 1338457
3 1135.19 1325329
3 1135.19 1318561
3 1135.19 1313643
3 1135.77 1309043
2 1136.53 1305678
3 1136.53 1303696
3 1138.01 1302522
3 1138.01 1298193
3 1138.01 1296664
2 1138.01 1287773
3 1138.71 1287362
3 1138.71 1284222
3 1138.71 1280386
3 1139.38 1279242
3 1139.38 1269199
3 1141.18 1266290
3 1141.18 1266089
3 1142.08 1259691
3 1142.08 1259141
3 1143.31 1257800
2 1148.83 1565089
3 1148.83 1547054
3 1148.83 1526981
3 1148.83 1509926
3 1148.83 1504150
3 1148.83 1491996
3 1148.83 1484522
3 1148.83 1461804
3 1148.83 1451195
3 1148.83 1445329
3 1148.83 1441515
3 1148.83 1436422
3 1148.83 1418934
3 1148.83 1383100
3 1150 1379882
3 1150 1374885
3 1150 1369696
3 1150 1347967
3 1150.96 1344972
3 1150.96 1341859
3 1150.96 1335088
3 1150.96 1332167
3 1151.59 1329155
3 1151.59 1316955
3 1151.59 1297086
3 1152.24 1295632
3 1152.24 1288865
3 1153.14 1285709
3 1153.14 1281534
3 1154.01 1278999
3 1154.01 1276911
3 1154.01 1273315
3 1154.01 1270310
3 1154.9 1266429
3 1154.9 1262419
3 1155.76 1260879
3 1158.25 1252824
3 1159.09 1249717
3 1162.02 1466560
3 1162.02 1437299
3 1162.02 1435459
3 1162.02 1401594
3 1162.02 1366024
3 1162.02 1356876
3 1162.02 1351982
3 1162.73 1347117
3 1162.73 1335740
3 1163.62 1328266
3 1163.62 1328252
3 1163.62 1327586
3 1163.62 1321602
2 1163.62 1320250
3 1163.62 1317989
3 1164.94 1313699
3 1164.94 1309782
2 1164.94 1309544
3 1165.8 1306671
3 1166.57 1305486
3 1166.57 1304564
3 1167.16 1302065
3 1167.72 1300554
3 1167.72 1299131
3 1168.99 1298761
3 1168.99 1290183
3 1168.99 1288396
3 1169.96 1287932
3 1169.96 1282839
3 1170.85 1282435
3 1170.85 1279683
3 1170.85 1277550
3 1171.74 1274906
2 1172.48 1272196
3 1172.48 1270684
3 1173.02 1269600
3 1174.04 1268109
3 1175.08 1266691
3 1175.08 1266479
3 1175.08 1264066
3 1176.18 1386987
3 1176.18 1378529
3 1176.18 1375851
2 1176.18 1362163
3 1176.18 1358781
3 1176.18 1354100
3 1176.18 1349965
3 1176.9 1349663
3 1176.9 1347491
3 1177.6 1330651
3 1177.6 1328822
3 1177.6 1326159
3 1178.26 1325531
3 1178.26 1324324
3 1178.26 1310273
3 1178.26 1304040
3 1178.26 1287830
3 1179.01 1284903
3 1179.01 1280267
3 1179.7 1278442
3 1179.7 1277210
3 1179.7 1267176
3 1180.39 1266418
3 1180.39 1264026
3 1181.97 1260880
3 1183.26 1259964
3 1183.26 1259257
3 1184.2 1258296
3 1184.2 1257768
3 1185.97 1257456
3 1185.97 1256585
3 1185.97 1254629
3 1186.87 1251972
3 1188.58 1249976
3 1188.58 1249737
3 1189.35 1246023
3 1190.4 1420232
3 1190.4 1417616
3 1190.4 1396602
3 1190.4 1377160
3 1190.4 1372200
3 1190.4 1344432
3 1190.4 1336332
3 1190.4 1321120
3 1191.03 1315953
3 1191.03 1315108
3 1191.03 1312113
3 1191.03 1309270
3 1191.03 1305313
3 1191.03 1303460
3 1191.03 1300976
3 1191.63 1299894
3 1191.63 1298532
3 1191.63 1290948
3 1191.63 1287923
3 1191.63 1282147
3 1192.2 1274902
3 1192.2 1272374
3 1192.91 1271359
3 1204.56 1362651
3 1204.56 1352624
3 1204.56 1345794
3 1204.56 1341707
3 1204.56 1337313
3 1204.56 1336984
3 1205.56 1334524
3 1205.56 1333240
3 1205.56 1330152
3 1205.56 1328969
3 1205.56 1328485
3 1205.56 1325974
3 1205.56 1309274
3 1205.56 1304987
3 1206.58 1304592
3 1206.58 1303533
3 1207.48 1296817
3 1207.48 1295320
3 1207.48 1291115
3 1207.48 1289617
3 1208.46 1287922
3 1209.35 1286548
3 1209.35 1283327
3 1210.03 1283094
3 1210.03 1282473
3 1210.03 1276983
3 1210.74 1265736
3 1210.74 1265410
3 1210.74 1263323
3 1210.74 1262415
3 1211.56 1259483
3 1212.46 1258579
3 1213.35 1258386
3 1213.35 1258161
3 1214.25 1257609
3 1215.15 1255523
3 1215.15 1254511
3 1215.15 1252058
3 1215.87 1251195
3 1217.87 1249063
3 1218.43 1425936
3 1218.43 1377312
3 1218.43 1365752
3 1218.43 1360659
3 1218.43 1357710
3 1218.43 1356454
3 1218.43 1332527
3 1219.18 1332415
3 1219.18 1331004
3 1219.18 1330991
3 1219.74 1330457
3 1219.74 1328861
3 1219.74 1328776
3 1219.74 1325531
2 1220.46 1317353
3 1220.46 1316162
3 1221.37 1315937
3 1221.37 1306559
3 1221.37 1305875
3 1221.37 1304944
3 1221.37 1295158
3 1224.05 1293988
3 1224.05 1293471
3 1227.57 1290057
3 1227.57 1289636
3 1228.44 1289171
3 1231.63 1285211
3 1232.23 1363612
3 1232.23 1360426
3 1232.23 1339421
3 1232.23 1337748
3 1232.23 1333899
3 1232.23 1331493
3 1232.23 1331062
3 1232.23 1325786
3 1233.56 1312063
3 1233.56 1309650
3 1234.46 1309189
3 1234.46 1299041
3 1234.46 1298343
3 1234.46 1294070
3 1234.46 1289983
3 1235.4 1282169
3 1235.4 1280970
3 1236.31 1277454
3 1236.31 1276246
3 1237.23 1274545
3 1237.23 1273423
3 1240.12 1269688
3 1240.12 1261167
3 1246.53 1431488
3 1246.53 1426755
3 1246.53 1411485
3 1246.53 1386618
3 1246.53 1383785
3 1246.53 1376505
3 1246.53 1356627
3 1246.53 1349977
3 1246.53 1346069
3 1246.53 1332996
3 1246.53 1324240
3 1246.53 1305698
3 1247.35 1291532
3 1247.35 1290993
3 1247.35 1287496
3 1247.35 1284242
3 1248.3 1283264
3 1254.76 1277560
3 1258.5 1276843
3 1259.04 1275395
3 1259.58 1273493
3 1259.58 1269406
3 1259.58 1267106
3 1259.58 1264498
3 1259.58 1262749
3 1260.4 1372833
3 1260.4 1368338
3 1260.4 1363921
3 1260.4 1353823
3 1260.4 1346754
3 1260.4 1333320
3 1260.4 1323789
3 1260.4 1323180
3 1260.4 1315677
3 1260.4 1311401
3 1261.42 1307390
3 1261.42 1292178
3 1261.42 1288760
3 1262.33 1288193
3 1263.22 1286971
3 1264.09 1284137
3 1266.06 1282776
3 1272.35 1272016
3 1272.35 1271340
3 1274.17 1424453
3 1274.17 1416906
3 1274.17 1382566
3 1274.17 1368784
3 1274.17 1362885
3 1274.17 1359280
3 1274.17 1354136
3 1274.17 1352607
3 1274.17 1352538
3 1274.91 1337096
3 1274.91 1330494
3 1274.91 1317552
3 1274.91 1314771
3 1274.91 1295722
3 1275.49 1290629
3 1275.49 1287473
3 1275.49 1285127
3 1276.07 1277356
3 1276.61 1276840
3 1276.61 1276541
3 1276.61 1275475
3 1276.61 1273062
3 1276.61 1271869
3 1277.19 1270832
3 1277.19 1270363
3 1277.19 1263590
3 1277.19 1263320
3 1278.23 1261953
3 1280.67 1258744
3 1281.56 1254213
3 1282.12 1253642
3 1282.64 1251584
3 1287.03 1250022
3 1288.78 1422514
3 1288.78 1413169
3 1288.78 1412269
3 1288.78 1398034
2 1288.78 1374929
3 1288.78 1365058
3 1288.78 1360480
3 1289.76 1359731
3 1289.76 1333757
3 1290.47 1330601
3 1290.47 1308479
3 1290.47 1305484
3 1290.47 1298256
3 1291.07 1295849
3 1291.07 1291916
3 1291.07 1286806
3 1291.07 1285649
3 1291.07 1284405
3 1291.65 1284078
3 1291.65 1277219
3 1291.65 1276279
3 1291.65 1271199
3 1294.34 1269368
3 1294.87 1266459
3 1295.92 1266078
3 1295.92 1264990
3 1295.92 1262245
3 1297.27 1259509
3 1297.27 1251320
3 1297.92 1249112
3 1297.92 1248612
3 1300.02 1244812
3 1302.25 1337046
3 1302.25 1327366
3 1302.25 1323541
3 1302.25 1320398
3 1302.25 1315167
3 1302.25 1314546
3 1302.25 1309393
3 1302.25 1305557
3 1302.25 1305446
3 1302.25 1297257
3 1302.25 1287415
3 1303.17 1285007
3 1303.17 1282688
3 1304.1 1282217
3 1304.1 1278594
3 1304.1 1276287
3 1304.1 1274002
3 1304.1 1271924
3 1305.05 1271842
3 1305.05 1265986
3 1305.05 1263827
3 1305.7 1258014
3 1305.7 1255944
3 1305.7 1254514
3 1305.7 1253862
3 1307.35 1252106
3 1308.99 1249413
3 1310.66 1248308
3 1312.33 1248281
3 1316.5 1367638
2 1316.5 1351745
3 1316.5 1349648
3 1316.5 1338802
3 1316.5 1328196
3 1317.09 1327299
3 1317.09 1313351
3 1317.09 1307418
3 1317.09 1304144
3 1317.09 1302774
3 1317.68 1297389
3 1317.68 1291612
3 1318.57 1279869
3 1324.81 1268637
2 1325.67 1268202
3 1325.67 1267780
3 1325.67 1264367
3 1326.33 1259194
3 1326.87 1258183
2 1326.87 1254221
3 1327.41 1251947
3 1327.41 1249577
3 1330.14 1381316
3 1330.14 1375332
3 1330.14 1359265
3 1330.14 1353619
3 1330.14 1351205
3 1330.14 1345319
3 1330.14 1344079
3 1330.14 1341347
3 1330.14 1327678
3 1330.79 1325965
3 1330.79 1313535
3 1330.79 1309146
3 1331.35 1308468
3 1331.35 1300647
3 1331.35 1300074
3 1331.35 1297165
3 1331.35 1281987
3 1333.49 1281359
3 1334.16 1280176
3 1334.16 1279078
3 1344.51 1441675
3 1344.51 1415623
3 1344.51 1411536
3 1344.51 1403287
3 1344.51 1401758
3 1344.51 1370657
3 1345.52 1359811
3 1345.52 1324544
3 1345.52 1308217
3 1345.52 1305770
3 1345.52 1305595
3 1346.49 1303194
3 1347.38 1301682
3 1348.27 1294264
3 1349.16 1292049
3 1349.16 1289991
2 1349.16 1289457
3 1350.1 1284763
3 1350.1 1280558
3 1351.01 1275723
3 1351.9 1273508
3 1351.9 1268864
3 1353.64 1262946
3 1354.31 1261331
3 1355.63 1260324
3 1355.63 1257188
3 1355.63 1252426
3 1355.63 1251262
3 1355.63 1247982
3 1356.59 1247782
3 1358.3 1418527
3 1358.3 1415310
3 1358.3 1411181
3 1358.3 1398521
3 1358.3 1393424
3 1358.3 1392458
3 1358.3 1387814
3 1358.3 1382721
3 1358.3 1375382
3 1358.96 1355523
3 1358.96 1347782
3 1358.96 1341287
3 1358.96 1339244
3 1358.96 1317497
3 1359.63 1316712
3 1359.63 1313740
3 1359.63 1312520
3 1360.17 1297749
3 1361.96 1295789
3 1361.96 1284309
3 1361.96 1275929
3 1361.96 1265083
3 1362.54 1262177
3 1363.21 1260912
3 1363.21 1259352
3 1363.21 1256983
3 1372.17 1374946
3 1372.17 1351661
2 1372.17 1346139
3 1372.17 1332444
3 1372.17 1330560
3 1372.17 1327565
3 1372.17 1317798
3 1372.17 1309583
3 1372.17 1290784
3 1372.94 1290238
3 1372.94 1285265
3 1372.94 1274103
3 1374.05 1269211
3 1375.21 1268394
3 1375.21 1265867
3 1375.21 1265812
3 1380.64 1265445
3 1382.37 1264732
3 1382.37 1262433
3 1384.17 1256404
3 1385.04 1255991
3 1385.04 1254890
2 1386.79 1293509
3 1387.65 1292685
3 1389.38 1286864
3 1389.38 1283448
3 1390.82 1279841
3 1391.36 1277032
3 1391.36 1275197
3 1391.36 1274123
3 1391.92 1272145
3 1392.46 1269532
3 1392.46 1269097
3 1393.05 1266663
3 1394.12 1265889
3 1394.69 1260204
3 1395.45 1259683
3 1396.15 1257743
3 1397.53 1257495
3 1398.12 1257124
3 1398.68 1253537
3 1399.2 1251521
3 1399.2 1251161
3 1399.2 1251107
3 1399.81 1250968
3 1399.81 1248969
3 1399.81 1247293
3 1400.46 1342620
3 1400.46 1332666
3 1400.46 1330780
3 1400.46 1330304
3 1400.46 1326770
3 1401.14 1312065
2 1401.14 1311925
3 1401.14 1307877
3 1401.7 1304006
3 1401.7 1297433
3 1401.7 1291331
2 1401.7 1287250
3 1402.99 1284223
3 1404.75 1283412
3 1404.75 1282597
3 1404.75 1280827
3 1405.67 1276549
3 1406.53 1275410
2 1408.7 1269089
3 1408.7 1267019
3 1409.26 1263462
2 1409.79 1262182
3 1409.79 1259408
3 1410.51 1259269
3 1411.27 1253340
3 1414.19 1336839
3 1414.19 1327473
3 1414.19 1325250
3 1414.19 1313326
3 1414.19 1309044
3 1414.83 1305230
3 1414.83 1299063
2 1414.83 1284242
3 1414.83 1280944
3 1414.83 1270690
3 1414.83 1261542
3 1414.83 1258929
3 1414.83 1255526
3 1415.44 1255051
3 1415.44 1253186
3 1416.1 1251279
3 1416.1 1249880
3 1416.88 1249714
3 1428.02 1509427
3 1428.02 1494215
3 1428.02 1430853
3 1428.02 1409178
3 1428.02 1392360
3 1429.11 1391451
3 1429.11 1383236
3 1429.11 1377920
3 1429.11 1372612
3 1430.27 1371824
3 1430.27 1368815
3 1430.27 1368791
3 1430.27 1358206
3 1430.27 1352430
3 1430.27 1333646
3 1430.27 1332062
3 1431.31 1317749
3 1431.31 1312656
3 1432.22 1311864
3 1432.22 1307220
3 1432.82 1304064
3 1432.82 1295868
3 1433.35 1295816
3 1433.35 1295139
3 1433.35 1289682
3 1433.35 1289482
3 1433.35 1286771
3 1433.35 1286468
3 1434.14 1283862
3 1435.46 1283035
3 1435.46 1277942
3 1436.18 1276946
3 1436.83 1276170
3 1437.53 1275733
3 1442.35 1393912
3 1442.35 1388913
3 1442.35 1372309
3 1442.35 1365633
3 1442.35 1359144
3 1442.35 1343410
3 1442.35 1321677
3 1442.35 1310831
3 1442.35 1310494
3 1442.35 1305401
3 1443.4 1302367
3 1444.04 1294152
2 1444.04 1292593
3 1444.6 1287535
3 1445.15 1282827
3 1445.15 1281222
3 1445.71 1280388
3 1446.29 1278920
3 1446.29 1274715
3 1446.83 1269435
3 1446.83 1268862
3 1446.83 1267805
3 1446.83 1264810
3 1446.83 1259034
3 1446.83 1258093
3 1447.85 1252830
3 1447.85 1247484
3 1456.76 1425933
3 1456.76 1421558
3 1456.76 1401713
3 1456.76 1396467
3 1456.76 1394318
3 1456.76 1393192
3 1456.76 1386792
3 1456.76 1385193
3 1456.76 1345398
3 1457.57 1343253
3 1457.57 1338427
3 1457.57 1332918
3 1457.57 1314890
3 1457.57 1311499
3 1457.57 1300522
3 1458.19 1291755
3 1460.62 1286367
3 1460.62 1282643
3 1460.62 1282339
3 1461.2 1278596
3 1461.2 1277550
2 1461.2 1275432
2 1462.39 1272051
3 1462.97 1269063
3 1462.97 1264285
3 1468.17 1263040
3 1468.17 1260918
3 1468.17 1256129
3 1468.17 1254164
2 1470.57 1445275
3 1470.57 1441619
3 1470.57 1394443
3 1470.57 1388788
3 1470.57 1367747
3 1470.57 1342941
3 1470.57 1340508
3 1470.57 1315545
3 1471.22 1310504
3 1471.22 1309755
3 1471.22 1308591
3 1471.78 1301870
3 1471.78 1298204
3 1471.78 1280570
3 1473.69 1278967
3 1474.27 1278607
3 1474.27 1278060
3 1474.27 1275703
3 1481.18 1275402
3 1482.07 1274688
3 1482.95 1273929
3 1482.95 1269595
3 1484.48 1465311
3 1484.48 1440249
3 1484.48 1437836
3 1484.48 1425843
3 1484.48 1382144
3 1484.48 1370470
3 1484.48 1343134
3 1484.48 1340387
3 1484.48 1334599
3 1485.41 1330187
3 1485.41 1325543
3 1485.41 1318987
3 1486.04 1307375
3 1486.04 1300063
3 1486.04 1297154
3 1486.04 1291955
3 1487.31 1291342
3 1487.31 1276938
3 1487.31 1269228
3 1487.31 1268659
3 1488.06 1268586
3 1493.03 1267421
3 1493.03 1265008
3 1493.79 1260637
3 1494.65 1259530
3 1498.38 1394504
3 1498.38 1387030
3 1498.38 1382253
3 1498.38 1374038
3 1498.38 1362678
3 1498.38 1362509
3 1498.38 1355035
3 1498.38 1343188
3 1499.21 1324790
3 1499.21 1322986
3 1499.21 1319114
3 1499.21 1315213
3 1499.21 1314048
3 1501.84 1311647
3 1501.84 1311151
3 1501.84 1310097
3 1501.84 1308652
3 1501.84 1304134
3 1502.7 1301441
3 1502.7 1293953
3 1502.7 1286151
2 1509.85 1285938
3 1509.85 1283029
3 1509.85 1278942
3 1510.5 1269111
3 1510.5 1266799
2 1511.06 1266377
3 1511.59 1265914
3 1512.12 1375569
3 1512.12 1364655
3 1512.12 1350685
3 1512.12 1346409
3 1512.12 1346362
3 1512.77 1328426
3 1512.77 1318302
3 1512.77 1314611
3 1512.77 1313607
3 1512.77 1304862
3 1512.77 1302672
3 1512.77 1297311
3 1512.77 1289664
3 1513.39 1288971
3 1513.92 1288163
3 1516.86 1286450
3 1517.74 1285053
3 1518.61 1280493
3 1518.61 1276856
3 1519.73 1274447
3 1520.68 1271345
3 1522.4 1265725
3 1522.4 1262598
3 1522.4 1259603
3 1523.19 1255946
3 1523.19 1255377
3 1524.69 1252286
3 1526.49 1339443
3 1526.49 1320690
3 1526.49 1311914
3 1526.49 1307659
3 1526.49 1307539
3 1526.49 1298784
3 1527.62 1285127
3 1527.62 1280144
3 1528.68 1280034
3 1528.68 1279440
3 1529.59 1277565
3 1529.59 1272490
3 1532.11 1269635
3 1538.56 1269495
3 1539.45 1267942
3 1540.32 1390368
3 1540.32 1384667
3 1540.32 1371853
3 1540.32 1362844
3 1540.32 1358211
2 1540.32 1333471
3 1540.32 1326580
3 1540.32 1322157
3 1540.32 1321599
3 1541.06 1303884
3 1541.57 1301545
3 1543.2 1282440
3 1543.2 1272098
3 1543.2 1266726
3 1543.2 1262782
3 1543.2 1255733
3 1543.2 1254245
3 1544.16 1252716
3 1546.83 1251416
3 1549.07 1246376
3 1549.07 1241899
3 1549.81 1240999
3 1549.81 1238011
3 1554.25 1358452
3 1554.25 1353808
3 1554.25 1343712
3 1554.25 1339917
3 1554.25 1325527
3 1554.25 1324001
3 1554.25 1320338
3 1554.96 1316780
3 1555.5 1307802
3 1556.07 1305777
3 1556.07 1301223
3 1556.67 1298506
3 1557.2 1294025
3 1557.2 1291565
3 1558.36 1290432
3 1558.36 1288409
3 1558.36 1287259
3 1559.31 1283316
3 1568.17 1468321
3 1568.17 1452790
3 1568.17 1447661
3 1568.17 1430349
3 1568.17 1430314
3 1568.17 1426513
3 1568.17 1416090
3 1568.17 1404928
3 1568.17 1394024
3 1568.86 1383213
3 1568.86 1375933
3 1568.86 1371508
3 1568.86 1365850
3 1568.86 1363025
3 1568.86 1358938
3 1568.86 1354708
3 1570.42 1354127
3 1570.42 1349665
3 1570.42 1338185
3 1571.37 1323814
3 1572.27 1314389
3 1572.27 1310014
3 1572.27 1298852
3 1573.18 1295857
3 1574.9 1290192
3 1574.9 1284338
3 1576.31 1284044
3 1577.56 1280753
3 1577.56 1277202
3 1580.86 1272273
2 1580.86 1271149
3 1580.86 1266505
3 1580.86 1255028
3 1580.86 1254734
3 1581.53 1251578
3 1582.06 1444911
3 1582.06 1440754
3 1582.06 1416363
3 1582.06 1405811
3 1582.06 1397852
3 1582.06 1376976
3 1582.06 1365814
3 1582.06 1352479
3 1582.06 1336564
3 1582.73 1335544
3 1582.73 1324012
3 1582.73 1319368
3 1583.3 1286646
2 1583.3 1286639
3 1583.3 1282594
3 1584.09 1275576
3 1584.09 1274881
3 1584.09 1267108
3 1584.09 1266697
3 1584.89 1259221
3 1586.25 1255093
3 1586.9 1248923
3 1596.03 1376467
3 1596.03 1361762
2 1596.03 1359595
3 1596.71 1339162
3 1596.71 1334809
3 1596.71 1329446
3 1596.71 1322628
3 1596.71 1311677
3 1597.31 1309627
3 1597.31 1289613
2 1597.31 1288668
3 1597.31 1283055
3 1597.31 1276786
3 1597.31 1275302
3 1597.9 1266286
3 1597.9 1265584
3 1597.9 1265189
2 1599.49 1261787
3 1599.49 1260431
3 1600.07 1258018
3 1601.19 1253813
2 1604.38 1248188
3 1608.12 1246883
3 1608.12 1242772
3 1609.18 1240773
3 1609.18 1240593
3 1609.8 1239844
3 1610.7 1462108
3 1610.7 1415895
2 1610.7 1403311
2 1610.7 1386482
3 1610.7 1383573
3 1610.7 1362475
3 1610.7 1360530
2 1611.83 1358129
3 1611.83 1356716
3 1611.83 1354725
3 1611.83 1354476
3 1611.83 1347208
3 1611.83 1333720
3 1611.83 1315685
3 1611.83 1310569
3 1611.83 1310341
2 1611.83 1310230
3 1613.04 1303079
3 1613.04 1291917
3 1613.04 1284199
3 1613.59 1282580
3 1613.59 1280595
3 1614.13 1280247
3 1614.13 1276220
3 1614.13 1274782
3 1614.7 1273543
3 1614.7 1272764
3 1614.7 1271130
2 1617.52 1267118
3 1618.18 1260604
3 1618.18 1257772
3 1621.23 1254567
3 1621.77 1254431
3 1624.38 1440966
3 1624.38 1426621
3 1624.38 1422416
3 1624.38 1420698
3 1624.38 1384570
3 1624.38 1373961
3 1624.38 1367275
3 1624.38 1346461
3 1624.38 1342530
3 1625.05 1317688
3 1625.05 1317672
3 1625.05 1313028
3 1625.05 1305160
3 1625.05 1304082
3 1625.63 1302464
3 1625.63 1298306
3 1628.33 1296555
3 1628.33 1288757
3 1629.25 1284830
3 1629.97 1284093
3 1630.75 1279530
3 1630.75 1276535
3 1631.29 1275654
3 1631.81 1274776
3 1632.9 1266561
3 1632.9 1263369
3 1638.18 1466751
3 1638.18 1430828
3 1638.18 1413449
3 1638.18 1409426
3 1638.18 1398820
3 1638.18 1397291
3 1638.18 1368386
3 1638.18 1342804
2 1638.18 1332444
3 1638.84 1323596
3 1638.84 1295240
3 1638.84 1294461
3 1638.84 1294032
3 1638.84 1282870
3 1638.84 1281626
3 1638.84 1278226
3 1638.84 1277796
3 1639.45 1268399
3 1639.45 1262377
3 1639.98 1262185
3 1639.98 1260625
3 1643.55 1258175
3 1647.82 1254977
3 1651.33 1251647
3 1652.18 1445088
3 1652.18 1418204
3 1652.18 1415104
3 1652.18 1399892
3 1652.18 1394116
3 1653.17 1385705
3 1653.17 1380811
3 1653.17 1360817
3 1653.17 1353940
3 1654.14 1334226
2 1654.14 1329321
2 1654.14 1328501
3 1654.14 1325592
3 1655.23 1314890
3 1655.23 1305887
3 1655.23 1296975
3 1655.23 1296626
3 1656.16 1292526
3 1656.16 1289370
3 1656.16 1289365
3 1656.16 1289246
3 1656.87 1280375
3 1656.87 1275146
3 1656.87 1274935
3 1656.87 1270925
3 1657.58 1264649
3 1658.26 1261111
3 1658.26 1258542
3 1658.26 1257190
3 1658.26 1256467
2 1662.33 1256232
3 1662.33 1253767
3 1662.33 1250858
3 1662.91 1250663
3 1663.94 1242571
3 1663.94 1238366
3 1664.46 1231910
3 1664.97 1230645
3 1666.29 1471506
3 1666.29 1467268
1 1666.29 1381707
3 1666.29 1356789
3 1666.29 1347366
3 1666.29 1345446
3 1666.92 1317020
3 1666.92 1310552
3 1666.92 1300387
3 1666.92 1297970
2 1666.92 1296564
3 1666.92 1295386
3 1667.5 1294108
3 1667.5 1287648
3 1671.45 1282266
3 1671.45 1282116
3 1676.11 1280201
3 1676.74 1277148
3 1676.74 1277014
3 1677.4 1275408
3 1677.4 1269861
3 1678.89 1268125
3 1679.75 1266814
3 1680.61 1449650
3 1680.61 1406958
3 1680.61 1351627
3 1680.61 1339678
3 1680.61 1338866
3 1680.61 1332903
2 1680.61 1332757
3 1680.61 1331194
3 1681.62 1316952
3 1681.62 1316779
2 1681.62 1313910
3 1681.62 1308558
3 1681.62 1283491
3 1681.62 1270677
3 1682.57 1265024
3 1682.57 1263324
3 1682.57 1257620
3 1683.49 1256809
3 1683.49 1253814
3 1683.49 1252733
3 1683.49 1249039
3 1685.8 1246893
3 1686.88 1244811
3 1686.88 1241987
3 1687.78 1237021
3 1694.01 1454022
3 1694.01 1442098
3 1694.01 1416757
3 1694.01 1402047
3 1694.01 1394828
3 1694.01 1391833
3 1694.01 1388070
3 1694.01 1376192
3 1694.01 1373197
3 1694.01 1361022
3 1694.01 1358919
3 1694.01 1356078
3 1694.84 1351398
3 1694.84 1323375
3 1694.84 1323252
3 1694.84 1320813
3 1695.41 1318532
3 1695.41 1313964
3 1695.41 1305856
3 1695.41 1299400
3 1695.41 1294617
3 1696.03 1292089
3 1696.03 1286633
3 1696.03 1284398
3 1696.03 1282452
3 1696.03 1281788
3 1696.71 1280727
3 1696.71 1279754
3 1696.71 1273850
3 1698.4 1269480
3 1698.4 1266934
3 1699.17 1266514
3 1699.72 1266376
3 1701.83 1266329
3 1702.88 1263420
3 1706.77 1260494
3 1707.3 1257338
3 1708.4 1327735
3 1708.4 1321919
3 1708.4 1318924
3 1708.4 1308274
3 1708.4 1296113
3 1708.4 1291469
3 1709 1279457
3 1709 1276652
3 1709 1276299
3 1709 1275859
3 1709 1272580
3 1709.66 1269532
3 1712 1268004
3 1713.47 1265157
3 1722.03 1514213
3 1722.03 1485076
3 1722.03 1465351
3 1722.03 1450641
3 1722.03 1444470
3 1722.03 1422010
3 1722.03 1414193
3 1722.03 1413120
3 1722.71 1395396
3 1722.71 1388273
3 1722.71 1369509
3 1722.71 1368417
3 1722.71 1364416
3 1722.71 1357714
3 1722.71 1347108
3 1723.33 1304498
3 1725.03 1303749
3 1725.59 1299970
3 1725.59 1288703
3 1725.59 1284774
3 1726.15 1281075
3 1726.15 1279426
3 1726.74 1278699
3 1726.74 1274755
3 1727.64 1260630
3 1728.66 1258572
2 1729.77 1257457
3 1729.77 1252668
3 1734.57 1250900
3 1735.11 1247003
3 1735.11 1245807
3 1736.84 1351327
3 1736.84 1346382
3 1736.84 1343934
3 1736.84 1333467
3 1736.84 1324603
3 1736.84 1322027
3 1736.84 1318268
3 1736.84 1312874
2 1738.7 1312132
3 1738.7 1303444
3 1738.7 1298288
3 1739.67 1296964
3 1739.67 1296099
3 1739.67 1282683
3 1739.67 1280161
3 1740.74 1274040
3 1740.74 1273680
3 1741.84 1261261
3 1745.38 1256617
3 1748 1247330
3 1748.89 1245771
3 1750.63 1434854
1 1750.63 1407142
3 1750.63 1405128
2 1750.63 1394796
3 1750.63 1390152
3 1751.78 1388154
3 1751.78 1382067
3 1751.78 1379913
3 1752.66 1376974
3 1752.66 1357905
3 1752.66 1356093
3 1753.81 1331995
3 1754.89 1328470
3 1754.89 1328127
3 1754.89 1320956
3 1754.89 1317644
3 1754.89 1314795
3 1756.09 1312662
3 1756.09 1310179
3 1757.08 1306349
3 1757.08 1298280
3 1757.08 1293926
3 1757.98 1292346
2 1757.98 1291989
3 1758.69 1288364
2 1764.29 1492853
2 1764.29 1490584
3 1764.29 1396986
3 1764.29 1389314
3 1764.29 1388410
2 1764.29 1321515
3 1764.29 1319784
3 1765.02 1319424
3 1765.02 1311279
3 1765.02 1309232
3 1765.63 1308962
3 1765.63 1306466
3 1765.63 1305222
3 1765.63 1299886
3 1765.63 1295325
3 1765.63 1290883
3 1766.26 1290448
3 1766.26 1289291
3 1766.26 1287650
3 1766.26 1286370
3 1767.23 1278155
3 1767.23 1277996
3 1767.87 1269656
2 1767.87 1267718
3 1768.48 1265133
3 1768.48 1264415
3 1772.8 1263301
3 1773.66 1256830
3 1776.22 1255939
3 1777.08 1252783
3 1778.52 1395561
3 1778.52 1391272
3 1778.52 1360506
3 1778.52 1359050
3 1778.52 1346236
3 1778.52 1344134
3 1779.12 1343484
3 1780.19 1335190
3 1780.75 1332176
3 1781.3 1328170
3 1781.3 1306362
3 1781.85 1293024
3 1781.85 1292934
3 1781.85 1287841
3 1781.85 1285541
3 1782.73 1282934
3 1782.73 1277867
3 1782.73 1273223
3 1783.65 1271598
3 1792.47 1375387
3 1792.47 1363448
3 1792.47 1355250
3 1792.47 1347943
3 1793.37 1345145
3 1793.37 1337154
3 1793.37 1327785
3 1793.37 1317741
3 1794.3 1311523
3 1794.3 1309526
2 1795.21 1309367
3 1795.21 1298205
3 1796.1 1296271
3 1796.1 1295013
3 1796.1 1294179
3 1797.42 1288063
3 1798.13 1287893
3 1798.13 1277307
3 1798.13 1270124
3 1798.88 1268402
3 1798.88 1266156
3 1798.88 1265124
3 1800.51 1264448
3 1801.05 1262020
3 1801.05 1260685
3 1801.05 1256781
3 1801.05 1256205
3 1802.14 1254836
3 1802.67 1246986
3 1802.67 1238811
2 1802.67 1238440
3 1803.41 1237535
3 1804.78 1237516
3 1806.51 1389043
3 1806.51 1381052
3 1806.51 1366103
3 1806.51 1357213
3 1806.51 1342684
3 1806.51 1340395
3 1806.51 1336142
3 1807.48 1331745
3 1807.48 1321288
3 1807.48 1320899
3 1807.48 1303482
3 1807.48 1296831
3 1808.25 1294625
3 1808.82 1294106
3 1808.82 1290144
3 1809.36 1287235
3 1809.36 1278771
3 1809.9 1269733
3 1809.9 1265071
3 1811.12 1258656
3 1811.12 1256158
3 1815.82 1254471
3 1815.82 1249294
3 1816.36 1247461
3 1816.36 1242980
3 1816.93 1242850
3 1818.48 1239824
3 1818.48 1238190
3 1818.48 1229257
3 1819.05 1229042
3 1819.59 1228309
3 1819.59 1227800
3 1820.22 1392009
3 1820.22 1388813
3 1820.22 1382097
3 1820.22 1376984
3 1820.22 1357933
3 1820.22 1356639
3 1821.02 1354003
3 1821.02 1351608
3 1821.02 1348064
3 1821.02 1341435
3 1821.02 1336169
3 1821.74 1335012
3 1821.74 1333117
3 1821.74 1332757
3 1821.74 1321550
3 1822.49 1297518
3 1822.49 1295479
3 1822.49 1291484
3 1822.49 1285327
3 1823.25 1279828
3 1823.25 1279451
3 1824.57 1279433
3 1825.15 1271959
2 1825.15 1269627
3 1825.15 1267261
3 1825.15 1263923
3 1825.73 1263303
3 1825.73 1260689
3 1825.73 1253907
3 1825.73 1251542
3 1825.73 1249574
3 1825.73 1249263
3 1826.88 1243239
3 1827.41 1235090
3 1834.46 1422166
3 1834.46 1415210
3 1834.46 1406175
3 1834.46 1399847
3 1835.04 1394180
3 1835.04 1393862
3 1835.04 1382099
3 1835.04 1379991
3 1835.04 1375294
3 1835.04 1372385
3 1835.65 1367129
3 1836.18 1359647
3 1836.72 1359292
3 1836.72 1356178
3 1837.37 1355159
3 1838.27 1344553
3 1839.17 1333666
3 1839.17 1333559
3 1839.17 1327431
3 1839.17 1321605
3 1839.91 1317595
3 1840.44 1316943
3 1840.44 1314337
3 1840.98 1313220
3 1843.01 1313177
3 1843.65 1310346
3 1844.63 1309693
3 1844.63 1308361
3 1844.63 1304952
3 1846.39 1304592
3 1848.47 1384356
3 1848.47 1381700
3 1848.47 1368886
3 1848.47 1347495
3 1849.46 1339335
3 1849.46 1318742
3 1850.33 1318672
3 1850.33 1307289
3 1850.88 1304037
3 1850.88 1303656
2 1850.88 1303008
3 1850.88 1297875
2 1851.5 1294264
3 1851.5 1292924
3 1852.86 1292501
3 1852.86 1284286
2 1862.15 1443771
3 1862.15 1405045
3 1862.15 1399369
3 1862.15 1355129
3 1862.15 1353781
3 1862.15 1352191
3 1862.15 1351135
3 1862.15 1349196
3 1862.15 1342840
3 1863.12 1328830
3 1863.12 1308007
3 1863.12 1301323
3 1863.12 1300220
3 1863.12 1296679
3 1864.92 1285517
3 1864.92 1285219
3 1864.92 1276496
3 1865.85 1272281
3 1865.85 1272011
3 1866.75 1270971
3 1867.55 1269016
3 1868.22 1265851
3 1870.86 1264372
3 1876.57 1323141
3 1876.57 1320717
3 1876.57 1317722
3 1876.57 1315667
2 1877.49 1315057
2 1877.49 1314613
3 1879.21 1307291
3 1879.21 1303577
3 1879.21 1302560
3 1880.23 1301007
3 1880.96 1296997
3 1880.96 1286297
3 1881.54 1281973
3 1882.07 1279373
3 1882.07 1279149
3 1882.07 1276464
3 1882.07 1273490
3 1882.64 1271820
3 1883.4 1264346
3 1884.42 1262929
3 1885.33 1261293
3 1890.49 1499209
3 1890.49 1476886
3 1890.49 1474547
3 1890.49 1452348
3 1890.49 1402579
3 1890.49 1389128
3 1890.49 1386133
3 1890.49 1377016
3 1891.55 1376177
3 1891.55 1371119
3 1891.55 1353161
3 1891.55 1345871
3 1891.55 1327106
3 1892.77 1288891
3 1893.44 1285257
1 1893.44 1282857
3 1893.44 1282387
3 1893.44 1281231
3 1893.44 1278271
3 1894.07 1273627
3 1894.07 1273052
3 1894.07 1271299
3 1894.64 1266206
3 1896.81 1263129
3 1897.42 1260605
3 1897.94 1260491
3 1898.54 1258732
2 1898.54 1257203
3 1899.06 1256594
3 1899.6 1246216
3 1904.3 1387152
3 1904.3 1386708
3 1904.3 1375107
3 1904.3 1372635
3 1904.3 1368629
3 1904.3 1367633
3 1904.3 1353826
3 1905.29 1350801
3 1905.29 1349279
3 1905.29 1340294
3 1905.29 1332583
3 1905.29 1301093
3 1905.89 1297885
3 1905.89 1290587
3 1906.66 1290247
2 1906.66 1284213
3 1906.66 1282118
3 1907.24 1274147
3 1907.24 1273356
3 1907.81 1267582
3 1908.37 1259808
3 1908.93 1257230
3 1909.53 1255753
2 1909.53 1255562
3 1909.53 1252567
3 1910.12 1249978
3 1910.69 1243044
3 1911.91 1242530
3 1913.14 1239388
3 1913.14 1238047
3 1913.68 1227443
3 1913.68 1227149
3 1913.68 1224729
3 1914.22 1219717
3 1918.4 1459663
3 1918.4 1447188
3 1918.4 1443178
3 1918.4 1438803
2 1918.4 1428148
3 1918.4 1421462
3 1918.4 1391548
3 1918.4 1375849
3 1918.4 1374730
3 1918.4 1372248
1 1918.4 1371433
1 1918.4 1370719
3 1919.34 1367563
3 1919.34 1362197
3 1919.34 1351570
3 1919.34 1347064
3 1919.34 1341971
3 1919.34 1329810
2 1919.34 1327638
3 1919.34 1317152
3 1920.36 1297993
3 1920.36 1295758
3 1920.36 1275720
3 1920.36 1272232
3 1921.28 1268222
3 1921.9 1264656
3 1921.9 1260639
3 1922.44 1256552
3 1922.44 1251543
3 1922.44 1249962
3 1923.02 1249404
3 1923.02 1248956
3 1923.02 1248389
3 1923.56 1245975
3 1924.34 1242850
3 1932.22 1432030
2 1932.22 1407569
3 1932.22 1393595
3 1932.22 1368727
3 1932.22 1368446
3 1932.22 1365783
3 1932.22 1352594
3 1932.22 1348633
3 1932.22 1339704
3 1932.89 1336795
3 1932.89 1326613
3 1932.89 1321098
3 1932.89 1319798
3 1933.47 1319158
3 1934.53 1316909
2 1934.53 1313561
3 1934.53 1309382
3 1934.53 1306387
1 1935.11 1303612
3 1936.2 1301211
3 1936.2 1293964
3 1936.93 1293405
3 1936.93 1292109
3 1936.93 1288396
3 1938.08 1282441
3 1938.08 1279285
2 1938.08 1277234
3 1938.08 1270002
3 1939.2 1267368
3 1940.19 1261592
3 1942.34 1257109
3 1944.36 1256372
3 1945.02 1253377
3 1946.41 1484374
3 1946.41 1479999
3 1946.41 1456948
3 1946.41 1451426
3 1946.41 1424814
3 1946.41 1424014
3 1946.41 1423644
3 1946.41 1412092
3 1946.41 1384780
3 1946.41 1381624
2 1946.41 1350879
3 1947.15 1347718
3 1952.92 1346969
2 1953.99 1331180
3 1954.53 1326597
3 1956.14 1321248
3 1956.7 1313976
3 1956.7 1313962
3 1956.7 1309407
3 1956.7 1309127
3 1957.61 1303661
3 1958.22 1302482
3 1958.74 1301943
3 1960.34 1448806
3 1960.34 1446320
3 1960.34 1445830
3 1960.34 1428753
3 1960.34 1392986
3 1960.34 1364091
3 1960.34 1363360
3 1960.99 1351589
3 1960.99 1319193
3 1960.99 1316037
3 1960.99 1294646
3 1960.99 1292261
3 1960.99 1287617
3 1960.99 1283609
3 1961.64 1275990
3 1961.64 1272447
3 1962.19 1264457
3 1962.76 1257206
3 1965.99 1254817
3 1966.52 1252490
3 1966.52 1248331
3 1968.05 1247318
3 1974.01 1409670
3 1974.01 1350360
3 1974.01 1343291
3 1974.01 1341633
3 1974.01 1335446
3 1974.01 1333592
3 1974.01 1328948
3 1974.01 1326826
3 1975.04 1323253
3 1975.04 1310843
3 1975.04 1309063
3 1975.97 1308554
3 1975.97 1306857
3 1975.97 1302705
3 1975.97 1300292
3 1975.97 1298563
3 1976.76 1291827
3 1977.33 1284815
3 1977.33 1284455
3 1977.33 1282066
3 1978.22 1279511
3 1979.98 1279181
3 1981.69 1276272
3 1983.61 1265426
3 1984.96 1264515
3 1984.96 1262102
3 1984.96 1262078
3 1985.84 1259708
3 1985.84 1259464
3 1986.75 1257758
3 1987.37 1254820
3 1987.37 1253932
3 1988.45 1389724
3 1988.45 1386017
3 1988.45 1380095
3 1988.45 1379033
3 1988.45 1368187
3 1988.45 1351716
3 1988.45 1329273
3 1988.45 1329257
3 1989.12 1325813
3 1989.12 1319741
3 1989.12 1314787
3 1989.67 1314333
3 1990.21 1307021
3 1990.21 1306920
3 1990.76 1302276
3 1992.33 1301445
3 1992.87 1293533
3 1993.42 1292894
3 1993.42 1289899
3 1993.95 1289719
3 1993.95 1288906
3 1993.95 1285930
3 1993.95 1283813
3 1994.92 1281845
3 1999.44 1280407
3 1999.44 1280047
3 2001.05 1277052
3 2001.79 1273494
3 2002.35 1499546
2 2002.35 1498433
3 2002.35 1466037
3 2002.35 1458250
3 2002.35 1450436
3 2002.35 1447441
3 2002.35 1435670
3 2002.35 1393448
3 2002.35 1391552
3 2002.35 1387622
3 2002.35 1375629
3 2002.35 1351785
3 2003.23 1337034
3 2003.23 1336346
3 2003.23 1334158
3 2003.23 1332433
3 2003.23 1329709
3 2003.23 1328361
3 2003.82 1312868
2 2003.82 1310451
3 2003.82 1307261
3 2003.82 1299061
3 2004.45 1294426
3 2004.45 1289090
3 2004.45 1277610
3 2005.07 1277437
3 2009.57 1275757
3 2009.57 1268289
3 2016.22 1378267
3 2016.22 1375057
3 2016.22 1345929
3 2016.22 1345294
3 2016.22 1333054
3 2016.22 1331620
3 2016.22 1319142
3 2017.1 1308449
3 2017.1 1306942
3 2017.1 1306708
3 2017.8 1306348
3 2020.02 1302724
3 2020.93 1294605
3 2021.83 1294229
3 2021.83 1291166
3 2022.74 1289854
3 2024.9 1281740
3 2024.9 1280283
3 2024.9 1277388
3 2024.9 1270561
3 2025.92 1262543
3 2025.92 1261413
3 2026.84 1260156
3 2028.61 1257479
3 2029.53 1253588
3 2030.44 1417352
3 2030.44 1391906
3 2030.44 1379744
3 2030.44 1376415
3 2030.44 1370540
3 2030.44 1366453
3 2030.44 1364192
3 2030.44 1358288
3 2030.44 1345473
3 2031.48 1345150
3 2031.48 1341626
3 2031.48 1341056
3 2031.48 1314873
3 2031.48 1311964
3 2032.54 1310186
3 2032.54 1309035
3 2032.54 1305360
3 2033.49 1293209
3 2033.49 1289627
3 2033.49 1288170
3 2033.49 1288091
3 2033.49 1286907
3 2033.49 1286752
3 2034.47 1283684
3 2034.47 1282925
3 2034.47 1280726
3 2035.37 1278568
3 2035.91 1274279
3 2037.48 1272959
3 2038.24 1272846
3 2038.24 1272302
3 2038.92 1266907
3 2038.92 1266526
3 2038.92 1264971
1 2039.62 1259711
3 2039.62 1255528
3 2040.43 1254510
3 2040.95 1249452
3 2043.04 1244636
3 2044.06 1411649
2 2044.06 1385108
3 2044.06 1378322
3 2044.06 1367945
3 2044.06 1367045
2 2044.06 1344369
3 2044.06 1343964
3 2044.06 1343215
3 2044.68 1340000
3 2044.68 1335913
3 2044.68 1335428
3 2044.68 1331459
3 2045.3 1331184
3 2045.3 1328464
3 2045.3 1326286
3 2045.3 1314074
3 2046.39 1304903
3 2046.39 1303654
3 2046.39 1303174
3 2046.39 1301176
3 2046.97 1300627
3 2047.5 1299949
3 2048.03 1296229
3 2048.03 1295480
3 2048.58 1294856
3 2050.11 1278941
3 2050.11 1278502
3 2050.11 1277637
3 2050.11 1276390
3 2050.11 1273050
3 2050.11 1271297
3 2050.7 1270621
3 2050.7 1269952
3 2050.7 1269225
3 2052.29 1268650
3 2052.84 1264132
3 2058.39 1549556
3 2058.39 1511552
3 2058.39 1472191
3 2058.39 1423066
3 2058.39 1413538
3 2058.39 1403993
3 2058.39 1394963
3 2058.39 1390876
3 2058.39 1380227
3 2058.39 1371079
3 2058.39 1368622
1 2059.41 1358038
3 2059.41 1352893
3 2059.41 1352528
3 2059.41 1350227
3 2059.41 1345593
3 2059.41 1327717
3 2059.41 1325204
3 2059.41 1320222
3 2059.41 1318541
3 2059.41 1310646
3 2059.41 1295941
2 2060.44 1289122
3 2061.32 1283668
3 2061.32 1281649
3 2061.32 1275344
3 2062.26 1274640
3 2063.17 1264735
3 2064.06 1264488
3 2064.96 1260674
3 2066.22 1257623
3 2070.3 1255581
3 2072.39 1416748
3 2072.39 1355219
3 2072.39 1354859
3 2072.39 1350497
3 2072.39 1347073
3 2072.39 1337520
3 2073 1326777
3 2073 1309945
3 2073 1307595
3 2073.57 1306718
3 2073.57 1306551
2 2073.57 1301371
3 2073.57 1294236
3 2073.57 1287980
3 2074.17 1282264
3 2074.71 1281657
3 2075.29 1276564
3 2075.29 1275584
3 2075.84 1273087
3 2076.96 1271514
3 2086.37 1484072
3 2086.37 1480347
2 2086.37 1421541
3 2086.37 1413043
3 2086.37 1411357
3 2086.37 1361036
3 2087.31 1355514
3 2087.31 1354278
3 2087.31 1350869
3 2088.2 1333446
3 2088.2 1331153
3 2088.2 1330969
3 2088.2 1327786
3 2088.2 1327185
3 2088.2 1322314
3 2089.97 1316533
3 2089.97 1308371
3 2090.85 1307293
3 2090.85 1303127
3 2090.85 1300443
3 2090.85 1298817
3 2091.75 1293770
3 2091.75 1289736
3 2091.75 1286296
3 2096.25 1286119
3 2096.94 1281487
3 2096.94 1276394
3 2096.94 1276313
3 2097.86 1274348
3 2097.86 1271262
3 2098.85 1270232
3 2100.66 1500276
3 2100.66 1482533
3 2100.66 1470762
3 2100.66 1463060
3 2100.66 1441669
2 2100.66 1441146
3 2100.66 1406994
3 2100.66 1405775
3 2100.66 1393289
3 2100.66 1381731
3 2100.66 1380567
3 2100.66 1376295
3 2100.66 1373829
1 2101.75 1372239
3 2101.75 1356968
3 2101.75 1345175
3 2101.75 1340331
3 2101.75 1328560
3 2102.73 1326195
3 2102.73 1325116
3 2103.65 1323101
3 2103.65 1315238
3 2103.65 1313358
3 2103.65 1312852
3 2103.65 1311975
3 2104.61 1305758
3 2105.43 1305706
3 2105.43 1302634
3 2106.12 1301610
3 2106.12 1301109
3 2106.96 1298615
3 2106.96 1296096
3 2109.11 1290946
3 2109.11 1287059
3 2109.78 1286669
3 2109.78 1285433
3 2110.32 1281790
3 2110.32 1280789
2 2114.65 1352236
2 2114.65 1351176
3 2114.65 1338134
3 2114.65 1336605
3 2114.65 1331588
2 2116.78 1314291
3 2116.78 1308012
3 2116.78 1293302
3 2117.7 1284577
3 2119.42 1275429
3 2124.53 1266157
1 2126.86 1259894
3 2128.64 1317035
3 2128.64 1317005
3 2128.64 1297560
3 2128.64 1287705
3 2128.64 1286558
3 2129.55 1285842
3 2129.55 1279843
3 2129.55 1279446
3 2130.17 1275436
3 2130.79 1275076
3 2131.69 1273972
3 2132.61 1267331
3 2132.61 1264336
3 2133.57 1263408
3 2133.57 1255737
3 2134.18 1251918
2 2137.02 1245868
3 2138.01 1244216
3 2138.86 1235258
3 2138.86 1234001
3 2139.99 1233470
3 2139.99 1233023
3 2142.15 1398034
3 2142.15 1366642
3 2142.15 1362828
3 2142.15 1328130
3 2142.78 1323037
3 2142.78 1321831
3 2144.3 1321049
3 2144.3 1316405
3 2144.3 1315968
3 2144.3 1312274
3 2145.24 1302704
3 2145.24 1291696
3 2146.99 1277261
3 2146.99 1276006
3 2146.99 1265528
3 2147.86 1261776
3 2148.39 1260361
3 2148.91 1260124
3 2148.91 1257088
3 2149.43 1256728
3 2149.43 1256310
3 2150.52 1254585
3 2151.05 1246382
3 2151.05 1246242
3 2151.59 1245882
3 2156.36 1360759
3 2156.36 1356372
3 2156.36 1356176
1 2156.36 1346723
3 2156.36 1336939
3 2156.36 1335313
3 2157.12 1334127
3 2157.12 1332820
3 2157.12 1323010
3 2157.84 1320917
3 2157.84 1320525
3 2157.84 1315432
3 2157.84 1305246
3 2157.84 1298338
3 2157.84 1291415
3 2157.84 1283855
3 2157.84 1280650
3 2157.84 1273650
3 2158.55 1273195
3 2158.55 1272835
3 2158.55 1269085
3 2158.55 1264998
3 2160.86 1256615
3 2160.86 1252801
3 2160.86 1250278
3 2161.67 1248627
3 2162.55 1248267
2 2170.35 1426064
3 2170.35 1425704
3 2170.35 1422709
3 2170.35 1402148
3 2170.35 1376982
3 2171.31 1373335
3 2171.31 1369054
3 2171.31 1365689
3 2171.31 1349574
3 2172.31 1346215
3 2172.31 1339594
3 2172.31 1336829
3 2172.31 1334681
3 2173.29 1324072
3 2174.16 1321926
3 2174.16 1314814
3 2175.09 1310391
3 2175.09 1298712
3 2175.09 1292017
3 2175.09 1291600
3 2175.09 1283732
3 2176.1 1280357
3 2176.1 1277585
3 2177.72 1275516
3 2179.99 1273910
3 2181.33 1273406
3 2181.33 1272767
3 2183.73 1269868
3 2184.35 1442978
3 2184.35 1433308
3 2184.35 1426957
3 2184.35 1416435
3 2184.35 1399721
3 2184.35 1398887
3 2184.35 1397223
3 2185.02 1385037
3 2185.02 1377337
3 2185.02 1351196
3 2185.02 1349277
3 2185.02 1341164
3 2185.02 1316382
3 2185.84 1306626
3 2185.84 1293503
3 2186.74 1291187
3 2186.74 1272672
3 2187.6 1272034
3 2187.6 1270230
3 2188.39 1268955
3 2188.92 1263524
2 2189.58 1260661
3 2190.4 1259809
3 2193.08 1257474
3 2198.48 1452145
1 2198.48 1439768
3 2198.48 1414662
3 2198.48 1402742
3 2198.48 1394609
2 2198.48 1381559
3 2198.48 1380968
3 2199.55 1380222
3 2199.55 1378554
3 2199.55 1374839
3 2200.72 1362696
3 2200.72 1359701
3 2200.72 1358868
3 2200.72 1351394
3 2200.72 1344028
3 2200.72 1340101
3 2200.72 1339171
3 2201.87 1336945
3 2201.87 1328302
3 2202.51 1325393
3 2202.51 1323069
3 2202.51 1322398
3 2202.51 1318619
3 2203.09 1315680
3 2203.09 1315320
3 2203.09 1306705
3 2203.09 1304092
3 2204.22 1302229
3 2204.22 1301602
3 2204.22 1290243
3 2205.32 1289864
3 2205.88 1289473
3 2205.88 1287046
3 2206.44 1285007
3 2206.44 1282098
3 2206.97 1278942
3 2206.97 1273535
3 2206.97 1273175
3 2208.53 1272379
3 2208.53 1269167
3 2208.53 1265693
3 2209.6 1259636
3 2209.6 1259278
3 2210.13 1255380
3 2210.67 1255191
2 2212.24 1440984
2 2212.24 1414812
3 2212.24 1410839
3 2212.24 1377058
3 2212.24 1370419
3 2212.24 1355877
3 2212.24 1347614
3 2213.28 1339381
2 2213.28 1337852
3 2213.28 1330740
3 2213.28 1329388
3 2213.28 1328177
3 2214.24 1320807
3 2214.24 1318459
3 2214.24 1312290
3 2214.24 1310944
3 2214.24 1304998
3 2214.24 1302742
3 2215.16 1299520
3 2215.16 1299236
3 2215.16 1296138
3 2215.16 1294716
3 2215.16 1293505
3 2215.16 1290310
3 2215.16 1288860
3 2215.16 1286499
3 2215.94 1285217
3 2215.94 1284807
3 2215.94 1273645
2 2217.72 1260632
3 2218.26 1243955
3 2218.26 1243595
3 2218.26 1238793
3 2226.8 1382581
3 2226.8 1366308
3 2226.8 1354895
3 2226.8 1322499
3 2226.8 1320909
1 2226.8 1319011
3 2226.8 1313781
3 2226.8 1297431
3 2227.81 1274567
3 2227.81 1271519
3 2229.62 1270844
3 2229.62 1270330
3 2231.75 1269522
3 2231.75 1269347
3 2231.75 1268825
3 2231.75 1267666
3 2233.5 1267334
3 2234.37 1267093
3 2235.25 1263461
3 2235.25 1263165
3 2236.82 1260182
3 2238.64 1260009
3 2238.64 1257670
3 2239.18 1257658
3 2240.86 1464330
3 2240.86 1461917
3 2240.86 1432476
3 2240.86 1415746
3 2240.86 1411507
3 2240.86 1372812
3 2240.86 1368779
3 2240.86 1347807
3 2240.86 1341244
3 2240.86 1330319
3 2240.86 1327640
3 2240.86 1326114
3 2240.86 1315869
3 2240.86 1308852
3 2240.86 1308488
3 2241.96 1307185
3 2241.96 1305022
3 2241.96 1293739
3 2242.88 1292928
3 2244.59 1291885
3 2246.31 1287835
3 2246.91 1287108
3 2246.91 1275355
3 2246.91 1266402
3 2246.91 1264177
3 2248.69 1252697
3 2250.84 1248883
3 2253.68 1248334
3 2253.68 1246731
3 2254.58 1410315
3 2254.58 1395325
3 2254.58 1377360
3 2254.58 1375664
3 2254.58 1369966
3 2254.58 1363703
3 2255.39 1360854
3 2255.39 1351767
3 2255.39 1349619
2 2255.39 1329302
3 2255.39 1328257
3 2255.39 1314324
3 2255.39 1306640
3 2255.39 1302517
3 2256.02 1298186
3 2256.72 1288883
3 2256.72 1277488
3 2256.72 1276945
2 2256.72 1268178
3 2256.72 1267154
3 2257.89 1266559
3 2258.84 1263571
3 2259.69 1262354
3 2260.54 1262214
3 2260.54 1261362
3 2262.95 1260513
3 2262.95 1260309
3 2263.48 1254740
3 2264.29 1252380
3 2268.49 1499166
3 2268.49 1477647
3 2268.49 1452680
3 2268.49 1451481
3 2268.49 1420133
3 2268.49 1400060
2 2268.49 1379937
3 2268.49 1372463
3 2268.49 1366339
3 2269.16 1360962
2 2269.16 1358773
3 2270.25 1356875
3 2270.25 1355048
3 2270.25 1348362
3 2270.25 1348123
3 2270.25 1343980
3 2270.25 1336506
3 2270.87 1333199
3 2271.95 1327244
3 2271.95 1327014
3 2272.57 1321957
3 2272.57 1319744
3 2272.57 1306651
3 2272.57 1305004
3 2273.18 1298357
3 2274.79 1290171
3 2275.34 1288187
3 2275.34 1285031
3 2275.88 1283647
3 2281.11 1279416
3 2282.18 1435812
3 2282.18 1432348
3 2282.18 1421757
3 2282.18 1413110
3 2282.18 1404220
3 2282.18 1367934
3 2282.18 1360162
3 2282.18 1357759
3 2282.85 1343986
3 2282.85 1341417
3 2282.85 1338693
3 2282.85 1332917
3 2283.66 1329852
3 2283.66 1325041
3 2284.58 1315600
3 2284.58 1312959
3 2285.95 1306240
3 2285.95 1293216
3 2287.59 1287189
3 2287.59 1287141
3 2289.45 1284379
3 2289.45 1280591
2 2289.45 1279863
2 2290.35 1269111
3 2290.35 1268082
3 2290.35 1267015
3 2296.11 1350199
3 2296.11 1330640
3 2296.11 1328239
3 2296.11 1326797
3 2296.96 1323641
3 2296.96 1319070
3 2296.96 1315508
3 2297.89 1310598
3 2297.89 1306452
3 2297.89 1305942
3 2297.89 1293967
3 2298.82 1286660
3 2298.82 1280756
3 2299.98 1273937
3 2300.61 1273142
3 2301.63 1269986
3 2303.31 1266064
3 2304.21 1263497
3 2304.21 1259313
3 2305.08 1258430
3 2310.71 1418008
3 2310.71 1411004
3 2310.71 1409375
3 2310.71 1373207
3 2310.71 1351816
3 2310.71 1348821
3 2310.71 1344215
3 2311.96 1341417
3 2312.8 1325985
3 2312.8 1312873
3 2312.8 1301676
3 2312.8 1296983
3 2312.8 1291106
3 2312.8 1287364
3 2313.44 1287292
3 2313.44 1274461
2 2314.54 1271029
3 2314.54 1270158
3 2314.54 1261402
3 2314.54 1257893
3 2314.54 1257510
3 2315.2 1254515
3 2315.76 1249678
3 2316.41 1245473
3 2316.95 1243691
1 2316.95 1242773
3 2318.57 1241379
3 2319.1 1238129
3 2324.03 1437908
3 2324.03 1381587
3 2324.03 1375204
3 2324.03 1368619
3 2324.03 1363661
3 2324.03 1353585
3 2324.03 1342711
3 2324.03 1333178
3 2325.13 1332818
3 2325.13 1318805
3 2325.13 1315896
3 2325.86 1302213
1 2325.86 1293372
3 2326.52 1285078
3 2328.1 1283768
3 2328.64 1283319
3 2329.15 1282861
3 2329.71 1277381
3 2330.28 1274472
3 2332.89 1273361
3 2332.89 1270047
3 2333.58 1269280
3 2333.58 1266891
3 2335.73 1265193
3 2336.57 1265047
3 2336.57 1262052
3 2336.57 1261488
3 2338.28 1423955
3 2338.28 1397381
3 2338.28 1380160
3 2338.28 1374462
3 2338.28 1349200
3 2338.28 1346044
3 2338.28 1336888
3 2338.28 1335701
3 2338.28 1335074
3 2339.32 1318979
3 2339.32 1314392
3 2339.32 1309776
3 2339.32 1307256
3 2339.32 1303109
3 2339.32 1299782
3 2339.32 1299302
3 2340.26 1289310
3 2340.26 1287368
3 2341.83 1280404
3 2341.83 1270012
3 2342.37 1268115
3 2343.94 1266119
3 2343.94 1265569
3 2343.94 1262118
3 2344.51 1261989
3 2344.51 1258994
3 2344.51 1258970
3 2351.4 1254954
3 2352.28 1427595
3 2352.28 1427130
3 2352.28 1426688
3 2352.28 1399376
3 2352.28 1391372
3 2352.28 1389147
3 2352.28 1377376
3 2352.28 1368272
3 2352.28 1364543
3 2353.07 1355570
3 2353.07 1347085
3 2353.07 1346800
2 2353.07 1340241
3 2353.66 1335148
3 2353.66 1330391
3 2353.66 1316221
3 2353.66 1314141
3 2353.66 1312564
3 2354.25 1312032
3 2354.25 1309667
3 2354.25 1301958
3 2354.25 1290861
3 2354.91 1286217
3 2355.77 1282643
3 2355.77 1274309
3 2356.45 1271153
3 2359.09 1268296
3 2359.09 1267481
3 2359.09 1267132
3 2360.18 1264738
3 2360.18 1258756
3 2360.18 1258438
3 2361.54 1249549
3 2362.42 1246951
3 2362.42 1246640
3 2363.22 1242714
3 2364.62 1238450
3 2365.58 1237850
3 2366.26 1364426
3 2366.26 1347608
3 2366.26 1346564
3 2366.26 1345280
3 2366.26 1344699
3 2366.26 1341126
3 2367.26 1337411
3 2367.26 1328540
3 2367.26 1327153
3 2367.26 1326871
3 2367.26 1313393
3 2368.24 1313221
3 2368.24 1309381
3 2368.24 1307557
3 2368.24 1305567
3 2368.24 1302940
3 2368.24 1302198
3 2369.21 1302136
3 2369.21 1283473
3 2369.93 1280515
3 2369.93 1280036
3 2369.93 1277359
3 2370.67 1276230
3 2371.34 1276183
3 2372.2 1275990
3 2376.33 1275094
3 2376.33 1275020
3 2376.87 1266219
3 2376.87 1264295
3 2377.4 1259171
3 2377.4 1256262
3 2380.45 1427991
3 2380.45 1427638
3 2380.45 1427578
3 2380.45 1421257
3 2380.45 1408233
3 2380.45 1391415
3 2380.45 1381863
3 2380.45 1372687
3 2380.45 1350592
3 2380.45 1345408
2 2380.45 1324818
3 2381.13 1315586
3 2381.13 1311381
3 2381.13 1298430
3 2381.66 1294889
3 2381.66 1290911
3 2382.28 1289098
3 2382.28 1285049
3 2383.45 1281459
3 2384.13 1281458
3 2384.13 1276815
3 2385.5 1274265
2 2385.5 1269804
3 2387.05 1269595
3 2388.47 1265700
3 2388.47 1259937
3 2390.18 1258179
3 2392.72 1256983
3 2393.56 1255870
3 2393.56 1253895
3 2394.36 1357380
3 2394.36 1315924
3 2394.36 1313135
1 2394.36 1310843
3 2394.36 1300419
3 2394.36 1297968
3 2394.36 1296051
3 2394.99 1293605
3 2394.99 1287120
3 2395.54 1286395
3 2396.07 1284719
3 2397.41 1284440
3 2400.66 1279952
3 2400.66 1276420
3 2401.29 1275587
3 2403.84 1275244
2 2408.06 1512105
3 2408.06 1479709
3 2408.06 1449653
3 2408.06 1441438
3 2408.06 1372589
3 2408.06 1354999
3 2408.06 1344393
3 2408.06 1335465
3 2409.06 1334824
3 2409.06 1333198
3 2409.06 1318924
3 2409.06 1315110
3 2409.06 1309949
3 2409.06 1303168
3 2410.04 1298994
3 2410.04 1297948
3 2410.97 1290180
3 2410.97 1282748
3 2410.97 1280941
3 2410.97 1275700
3 2410.97 1274824
3 2410.97 1271179
3 2411.89 1267612
3 2413.55 1264703
3 2415.22 1264629
3 2417.31 1263910
3 2417.87 1261774
3 2417.87 1259361
3 2417.87 1258704
3 2418.95 1257078
3 2421.1 1256334
3 2422.8 1460771
3 2422.8 1460022
3 2422.8 1459211
3 2422.8 1415049
3 2422.8 1410253
3 2422.8 1369130
3 2422.8 1353552
3 2422.8 1350643
3 2422.8 1342176
3 2423.87 1334395
3 2423.87 1332769
3 2423.87 1323343
3 2423.87 1320930
3 2423.87 1320883
3 2424.69 1305099
3 2424.69 1304483
3 2426.11 1294421
3 2426.11 1289818
3 2426.11 1289458
3 2426.11 1282695
3 2426.11 1274707
3 2427.1 1265855
3 2427.1 1265581
3 2428.01 1262672
3 2429.53 1261472
3 2429.53 1258365
3 2430.23 1255993
3 2430.89 1247299
3 2432.28 1246845
3 2433.42 1245972
3 2434.44 1245140
3 2434.44 1237702
3 2436.02 1395275
3 2436.02 1395259
3 2436.02 1384413
3 2436.02 1371191
3 2436.02 1368196
3 2436.02 1364382
3 2436.02 1337876
3 2436.8 1337669
3 2436.8 1333588
3 2436.8 1331314
3 2437.45 1319978
3 2438 1313334
2 2438 1292860
3 2438 1291450
3 2438 1280004
3 2438 1275629
3 2438 1271983
3 2438.65 1260212
3 2439.22 1251515
3 2440.41 1249366
3 2447.29 1245389
3 2448.16 1245278
3 2448.16 1244847
3 2450.69 1421958
3 2450.69 1417627
3 2450.69 1411103
3 2450.69 1404813
3 2450.69 1379935
3 2450.69 1371758
3 2450.69 1360593
3 2451.43 1358180
2 2451.43 1350985
2 2451.43 1346866
2 2451.43 1335957
3 2451.43 1316487
3 2452.04 1304909
3 2452.59 1301957
3 2453.13 1293742
3 2453.13 1289537
3 2453.65 1286486
3 2453.65 1284073
3 2454.19 1281721
3 2454.73 1277958
3 2455.26 1274649
3 2455.77 1272273
3 2456.34 1271593
2 2456.34 1266759
3 2457.44 1264972
3 2457.95 1260942
3 2459.51 1259800
3 2460.54 1255425
3 2463.48 1254702
3 2464.75 1394663
3 2464.75 1393358
3 2464.75 1388817
3 2464.75 1386776
3 2465.43 1361481
3 2465.43 1351522
3 2465.43 1338207
3 2465.43 1335801
3 2466.66 1325243
3 2466.66 1318491
3 2466.66 1311540
3 2467.32 1305711
3 2467.32 1305072
3 2467.32 1301916
3 2467.32 1300936
3 2467.91 1293454
3 2467.91 1291759
3 2467.91 1290408
3 2467.91 1289302
3 2467.91 1287497
3 2469.12 1286888
3 2469.65 1283979
3 2471.3 1280984
3 2478.47 1447110
3 2478.47 1426052
3 2478.47 1422218
2 2478.47 1420599
3 2478.47 1380372
3 2478.47 1367357
3 2478.47 1356295
3 2479.12 1355514
3 2479.12 1350516
3 2479.12 1333654
3 2479.8 1330854
3 2479.8 1320581
3 2479.8 1309954
2 2479.8 1298829
3 2479.8 1295495
3 2479.8 1287280
3 2480.93 1286015
3 2480.93 1281641
3 2480.93 1281287
3 2482.62 1281150
3 2485.19 1281144
3 2486.06 1273396
3 2486.91 1267438
3 2486.91 1262464
3 2489.81 1261170
3 2489.81 1249399
3 2490.83 1247759
3 2492.34 1402764
2 2492.34 1391285
3 2492.34 1378261
3 2492.34 1369552
3 2492.34 1363556
3 2492.34 1355572
3 2492.34 1350468
3 2492.99 1342364
3 2492.99 1330593
3 2492.99 1327437
3 2493.89 1321668
3 2493.89 1316724
3 2493.89 1315209
3 2493.89 1310116
3 2493.89 1307703
3 2494.71 1306505
3 2495.38 1286407
3 2495.38 1282124
3 2495.38 1281906
3 2495.38 1277025
3 2495.38 1275561
3 2496.05 1270912
3 2496.05 1270323
3 2496.59 1264985
3 2496.59 1263179
3 2497.73 1258651
3 2498.81 1257010
3 2498.81 1252096
3 2500.08 1245935
3 2500.08 1245575
3 2501.11 1241570
3 2503.18 1240944
3 2503.71 1236636
3 2503.71 1231543
3 2506.43 1511907
3 2506.43 1451868
3 2506.43 1421257
3 2506.43 1386675
3 2506.43 1375549
3 2506.43 1348992
3 2506.43 1337884
3 2507.08 1336906
3 2507.08 1334598
3 2507.08 1319589
3 2507.08 1314496
2 2507.08 1308132
3 2507.66 1307590
3 2507.66 1304670
3 2507.66 1304018
3 2508.23 1299643
3 2508.23 1285477
3 2508.23 1283513
3 2508.23 1275586
3 2509.92 1272105
3 2509.92 1269052
3 2510.47 1261962
3 2510.47 1257387
3 2510.47 1255100
3 2511.05 1254815
3 2511.58 1253185
3 2511.58 1250576
3 2512.12 1247113
3 2512.64 1242072
3 2512.64 1240758
3 2513.56 1239005
3 2513.56 1238110
3 2514.46 1236096
3 2514.46 1229938
3 2515.35 1228523
3 2516.7 1227392
3 2518.36 1226078
3 2520.02 1445524
1 2520.02 1422650
3 2520.02 1410884
3 2520.02 1401055
2 2520.02 1395974
3 2520.02 1374494
3 2520.02 1355768
3 2520.02 1352645
3 2520.02 1327793
3 2520.02 1326383
3 2520.02 1325090
3 2520.02 1320351
3 2521.05 1311935
3 2521.05 1304024
3 2521.05 1296141
3 2521.05 1293747
3 2522.25 1286993
3 2522.25 1286194
3 2522.25 1271484
2 2522.87 1267638
3 2522.87 1267208
3 2522.87 1265522
3 2534.5 1403928
3 2534.5 1400785
3 2534.5 1392771
3 2534.5 1388811
3 2534.5 1376271
3 2534.5 1374765
3 2534.5 1358292
3 2534.5 1354643
3 2534.5 1353800
3 2534.5 1338214
3 2534.5 1334945
3 2535.23 1329516
3 2535.23 1326924
3 2535.84 1324979
3 2535.84 1320335
3 2535.84 1319824
3 2536.56 1304346
3 2537.32 1298517
3 2537.32 1296507
3 2538.21 1294094
3 2538.21 1284430
3 2538.85 1281274
2 2542.52 1271961
3 2542.52 1269825
3 2543.41 1261132
3 2543.41 1260255
3 2546.76 1257857
3 2548.24 1423701
2 2548.24 1421231
3 2548.24 1413762
3 2548.24 1387971
3 2548.24 1383961
3 2548.24 1374725
3 2548.24 1374501
3 2548.86 1368356
3 2548.86 1363763
3 2548.86 1356289
2 2548.86 1347432
3 2549.45 1343345
3 2549.45 1340255
3 2549.45 1326527
3 2549.45 1305940
3 2549.45 1301108
3 2550.55 1300291
3 2551.11 1295641
3 2551.11 1283605
3 2551.11 1283580
3 2551.11 1276106
3 2551.73 1274738
3 2553.33 1268409
3 2553.33 1264905
3 2553.33 1263012
3 2553.33 1259220
3 2553.33 1258324
3 2553.33 1254314
3 2554.03 1253985
3 2554.03 1253657
3 2554.03 1251301
3 2554.03 1249998
3 2554.03 1249887
3 2554.62 1249341
3 2556.41 1249282
3 2559.38 1248630
3 2559.38 1245979
3 2560.49 1244966
3 2560.49 1244590
3 2560.49 1243827
3 2560.49 1242628
3 2561.44 1240606
3 2562.08 1366926
3 2562.08 1364431
3 2562.08 1362201
3 2562.08 1357629
3 2562.08 1341946
3 2562.08 1338728
3 2562.88 1331708
3 2563.44 1330410
3 2563.44 1329672
3 2563.44 1327039
2 2563.98 1321914
3 2563.98 1298460
3 2564.54 1290505
3 2564.54 1283193
3 2564.54 1280792
3 2566.3 1276876
3 2568.81 1276165
3 2568.81 1275991
3 2568.81 1274787
3 2568.81 1270712
3 2569.7 1269068
3 2570.54 1267541
3 2570.54 1265343
3 2573.05 1265040
3 2573.05 1264632
3 2576.55 1513990
3 2576.55 1469932
3 2576.55 1456908
3 2576.55 1418782
3 2576.55 1414041
3 2576.55 1398423
3 2576.55 1392650
3 2576.55 1389275
3 2576.55 1372025
3 2577.39 1349914
3 2577.39 1339152
3 2577.39 1337503
3 2577.39 1334997
3 2577.39 1324738
3 2577.39 1299779
3 2578.14 1288008
3 2578.14 1286090
3 2578.7 1281501
3 2579.27 1278592
3 2579.27 1275042
3 2579.27 1273339
3 2579.82 1272888
3 2580.64 1270298
3 2586.67 1269766
3 2587.28 1268454
3 2590.07 1509299
3 2590.07 1475008
2 2590.07 1466510
1 2590.07 1464149
3 2590.07 1429306
3 2590.07 1423391
3 2590.07 1418747
3 2590.07 1398587
3 2591.09 1397316
3 2591.09 1396121
2 2591.09 1386089
3 2591.09 1337719
3 2591.09 1324115
3 2591.09 1312373
3 2592.08 1307788
3 2592.08 1303583
3 2592.08 1295648
3 2593.05 1289180
3 2593.05 1283256
3 2593.05 1280100
3 2593.05 1279407
2 2593.05 1278070
3 2593.05 1267551
3 2593.05 1266706
3 2593.84 1261288
3 2593.84 1260889
3 2593.84 1259103
3 2594.53 1255504
3 2595.18 1254010
3 2595.18 1252595
3 2596.9 1249938
3 2597.45 1241555
3 2597.45 1239853
3 2602.95 1238383
3 2604.5 1362641
3 2604.5 1354135
3 2604.5 1352557
3 2604.5 1351363
3 2605.09 1343433
3 2605.09 1330783
3 2605.09 1303911
3 2605.09 1302524
3 2605.09 1302158
3 2605.09 1297882
2 2605.72 1295442
3 2605.72 1290953
3 2606.29 1288846
3 2606.29 1280732
3 2606.29 1275434
3 2606.91 1269489
3 2606.91 1266580
3 2607.46 1262240
3 2607.46 1261936
3 2607.46 1260027
3 2609.1 1252752
3 2611.23 1251345
3 2613 1250869
3 2614.76 1250363
3 2615.69 1249697
3 2615.69 1246601
3 2615.69 1245322
3 2618.38 1356874
3 2618.38 1353978
3 2618.38 1348019
3 2618.38 1335637
3 2618.38 1331053
3 2618.38 1329697
3 2619.12 1327296
3 2619.12 1325026
3 2619.12 1321805
3 2619.12 1287555
3 2619.12 1287543
3 2619.12 1276697
3 2619.71 1269993
3 2619.71 1265717
3 2620.26 1264954
3 2620.78 1261216
3 2622.36 1259825
3 2622.36 1258307
3 2622.36 1256163
3 2622.36 1256157
3 2622.36 1255803
3 2622.36 1255151
3 2622.36 1250185
2 2622.97 1247689
3 2623.49 1246303
3 2625.07 1243167
3 2625.64 1243030
3 2625.64 1240869
3 2625.64 1238515
3 2625.64 1238466
3 2625.64 1232494
3 2626.23 1231798
3 2626.23 1228803
3 2626.81 1228081
3 2626.81 1227135
3 2626.81 1222283
3 2632.92 1414116
3 2632.92 1401092
3 2632.92 1385398
3 2632.92 1353608
3 2633.55 1350359
2 2633.55 1342486
3 2633.55 1333492
3 2633.55 1326740
3 2633.55 1322599
3 2633.55 1318394
3 2634.22 1317768
3 2634.22 1299414
3 2634.22 1288805
3 2634.77 1288209
3 2634.77 1287100
3 2634.77 1283884
3 2634.77 1279994
3 2635.38 1279240
3 2635.38 1277581
3 2640.61 1275250
3 2641.14 1273422
2 2643.69 1269887
3 2643.69 1268720
3 2644.57 1261672
3 2644.57 1258516
3 2644.57 1258090
2 2646.32 1399083
3 2646.32 1397457
3 2646.32 1379759
3 2646.32 1363880
2 2646.32 1347461
3 2646.32 1343374
3 2646.32 1342980
3 2647.33 1342620
3 2647.33 1339533
3 2647.33 1315491
3 2647.33 1307242
3 2647.33 1303730
3 2647.33 1294479
3 2647.33 1289386
3 2648.32 1288399
3 2648.32 1287589
3 2648.32 1287318
3 2648.32 1285221
3 2648.32 1282468
3 2649.36 1277487
3 2649.36 1277375
3 2649.36 1277152
3 2649.36 1273717
3 2649.36 1264564
3 2650.37 1260049
3 2650.37 1254243
3 2650.37 1252810
3 2650.37 1250397
3 2651.24 1247705
3 2651.24 1242058
3 2651.24 1240106
3 2652.29 1225396
3 2657.98 1223866
3 2659.01 1221353
3 2660.06 1524035
3 2660.06 1503463
3 2660.06 1490439
3 2660.06 1464184
3 2660.06 1399028
3 2660.06 1393845
3 2660.06 1389110
3 2660.06 1378773
3 2660.06 1377152
3 2660.06 1373687
3 2660.06 1369915
3 2660.06 1362803
3 2660.06 1350539
3 2660.77 1348981
3 2660.77 1347049
3 2660.77 1336536
3 2661.38 1332275
3 2661.38 1310220
3 2661.38 1308642
3 2661.38 1304923
3 2661.38 1301530
3 2663.05 1295284
3 2663.05 1294056
3 2667.26 1288534
3 2667.26 1282520
3 2667.26 1269600
3 2668.19 1265040
3 2668.19 1260916
3 2669.1 1258791
3 2669.1 1257388
3 2674.63 1451192
3 2674.63 1434157
3 2674.63 1432822
3 2674.63 1418355
3 2674.63 1407206
3 2674.63 1398864
3 2674.63 1393771
3 2674.63 1390798
3 2674.63 1387131
3 2674.63 1386634
3 2675.67 1386612
3 2675.67 1385955
3 2675.67 1385475
3 2675.67 1381954
3 2675.67 1365683
3 2676.64 1354521
3 2676.64 1346306
3 2676.64 1323026
3 2676.64 1310630
3 2676.64 1306974
3 2676.64 1304956
3 2677.64 1304349
3 2677.64 1303834
3 2677.64 1301496
3 2677.64 1301210
1 2677.64 1301148
3 2678.35 1296055
3 2678.35 1279315
3 2678.35 1274769
3 2678.9 1273540
3 2678.9 1271682
3 2679.82 1269997
3 2679.82 1267395
3 2683.28 1266333
3 2688.21 1526042
3 2688.21 1484727
3 2688.21 1433255
3 2688.21 1430260
3 2688.21 1396609
3 2688.21 1390057
3 2688.21 1389042
3 2688.21 1387912
3 2688.21 1382753
3 2688.21 1379664
3 2688.21 1372931
3 2688.94 1371465
3 2688.94 1368792
3 2688.94 1366224
3 2689.49 1344373
3 2689.49 1341256
3 2689.49 1339008
3 2689.49 1337246
3 2690.07 1333655
3 2690.07 1329280
3 2690.07 1321255
3 2690.07 1319737
3 2690.07 1319715
3 2690.64 1319613
3 2690.64 1312721
3 2690.64 1306945
3 2690.64 1306661
3 2690.64 1303932
3 2691.82 1300555
3 2691.82 1297921
3 2691.82 1293429
3 2691.82 1288015
3 2691.82 1286743
3 2693.04 1285902
3 2693.04 1282383
3 2693.59 1276276
3 2693.59 1272236
3 2695.35 1271128
3 2696 1270581
3 2696 1266376
3 2697.23 1265335
3 2699.77 1264912
3 2702.36 1333387
3 2702.36 1330470
3 2702.36 1321762
3 2702.36 1316769
3 2702.36 1312961
3 2702.36 1299441
3 2702.36 1298960
3 2702.36 1298229
2 2702.36 1288709
3 2703.51 1287547
3 2703.51 1285701
3 2703.51 1283549
3 2703.51 1279925
3 2703.51 1278905
3 2704.23 1274465
3 2704.23 1270816
3 2705.15 1257628
3 2706.64 1253913
3 2706.64 1252663
3 2707.34 1250250
3 2707.97 1249768
3 2709.67 1249430
3 2709.67 1246963
3 2709.67 1246662
3 2710.55 1245202
3 2710.55 1244883
3 2710.55 1242416
3 2711.96 1237943
3 2715.51 1237153
3 2715.51 1236924
3 2716.18 1478972
3 2716.18 1472185
3 2716.18 1464905
3 2716.18 1436147
3 2716.18 1433350
3 2716.18 1383581
3 2716.18 1366669
3 2716.18 1356137
3 2716.18 1351044
3 2716.18 1348528
2 2716.99 1344656
3 2716.99 1321077
3 2716.99 1318171
3 2716.99 1290402
3 2716.99 1287782
3 2717.58 1285964
3 2718.18 1282477
3 2718.18 1266122
3 2718.18 1262112
3 2718.18 1260403
3 2718.75 1255809
3 2719.6 1253983
3 2719.6 1250928
3 2719.6 1250827
3 2720.56 1250081
3 2730.6 1492362
3 2730.6 1475544
3 2730.6 1434229
2 2730.6 1426280
3 2730.6 1370664
3 2730.6 1368129
3 2730.6 1356452
3 2730.6 1337958
3 2730.6 1328574
3 2730.6 1319341
3 2730.6 1311768
3 2731.28 1303553
3 2731.28 1300536
3 2731.82 1291611
3 2731.82 1289393
3 2731.82 1281522
3 2731.82 1280183
3 2732.41 1277519
3 2732.99 1266102
3 2732.99 1263227
3 2732.99 1259902
3 2732.99 1257451
3 2732.99 1256476
3 2733.87 1252560
3 2737.66 1251740
3 2738.19 1244989
3 2738.7 1243950
3 2738.7 1242529
3 2744.77 1393535
3 2744.77 1389113
3 2744.77 1384469
3 2744.77 1382524
3 2744.77 1355188
3 2744.77 1346960
3 2745.76 1341221
3 2745.76 1339598
3 2745.76 1332124
3 2745.76 1325721
3 2745.76 1314171
3 2745.76 1299035
3 2746.7 1288604
3 2746.7 1285497
3 2746.7 1285304
3 2748.45 1275313
3 2749.32 1272404
3 2754.08 1268199
3 2754.08 1266458
3 2754.08 1261242
3 2758.24 1432713
3 2758.24 1426536
3 2758.24 1425725
3 2758.24 1384951
3 2758.24 1384830
3 2758.24 1373087
3 2758.24 1369631
3 2758.24 1359105
3 2758.24 1358786
3 2759.37 1358518
3 2759.37 1347868
3 2759.37 1344254
3 2760.18 1343659
2 2760.18 1335754
3 2760.18 1334068
3 2760.88 1323205
3 2760.88 1318490
3 2760.88 1315806
3 2760.88 1308139
3 2760.88 1292140
3 2761.81 1291774
3 2761.81 1287739
3 2761.81 1284583
3 2761.81 1284223
3 2762.71 1279579
3 2763.57 1278521
3 2764.36 1272305
3 2764.89 1272003
3 2765.41 1270377
3 2765.92 1265733
3 2772.38 1496179
3 2772.38 1471117
3 2772.38 1443781
3 2772.38 1434633
3 2772.38 1417815
3 2772.38 1392403
3 2772.38 1375915
3 2772.38 1366510
3 2772.38 1356144
3 2772.38 1349458
3 2772.38 1326602
3 2773.33 1321114
3 2773.33 1320361
3 2773.33 1317775
3 2773.33 1317537
3 2773.33 1316020
3 2773.33 1304688
3 2773.98 1303722
3 2774.82 1285835
3 2774.82 1282010
3 2774.82 1274830
3 2776.47 1273716
3 2777.36 1272837
3 2778.98 1272595
3 2778.98 1264575
3 2780.02 1261672
3 2780.6 1258938
3 2781.11 1255471
3 2782.19 1253953
3 2786.48 1435463
3 2786.48 1408127
3 2786.48 1396340
3 2786.48 1389755
3 2786.48 1378275
3 2786.48 1370321
2 2787.44 1367307
3 2787.44 1361932
3 2787.44 1351098
3 2787.44 1350892
3 2787.44 1334280
3 2787.44 1328618
3 2788.54 1324637
3 2789.46 1321883
3 2790.37 1319353
3 2790.37 1313711
3 2790.37 1295676
3 2792.17 1295405
3 2792.75 1294913
3 2794.65 1293331
3 2794.65 1291982
3 2795.24 1287443
3 2795.24 1286624
3 2795.24 1286608
3 2795.81 1285955
3 2795.81 1280597
3 2795.81 1278601
3 2795.81 1278541
3 2795.81 1278105
3 2796.39 1274949
3 2796.96 1267798
3 2798.03 1266023
query_times: 160
Score = 1246577
