    Blocking waiting for file lock on package cache
    Blocking waiting for file lock on package cache
    Blocking waiting for file lock on package cache
    Blocking waiting for file lock on build directory
    Finished `release` profile [optimized] target(s) in 0.06s
     Running `target/release/tester ../a.out 0030`
3 0.018 1013861
3 0.018 1004624
3 0.018 982542
3 0.018 950296
3 0.018 934084
3 0.018 926149
3 0.683 925393
3 0.683 915941
3 0.683 911256
3 1.091 910137
3 1.474 909412
3 1.474 908217
3 1.474 904737
3 3.341 901086
3 3.341 896001
3 3.341 894778
3 3.915 894163
3 3.915 881523
3 5.453 878418
3 5.963 878322
3 6.447 876917
3 14.34 990726
3 14.34 977056
3 14.34 956733
3 14.34 949371
3 14.34 938177
3 14.34 936930
3 14.34 936845
3 14.34 935344
3 15.071 930935
3 15.071 927075
3 15.071 924985
3 16.093 923900
3 16.093 918559
1 17.068 914066
3 17.56 913936
3 18.058 910427
3 18.058 908926
3 28.023 1023439
3 28.023 1017168
3 28.023 1010489
3 28.023 994698
3 28.023 989973
3 28.023 969308
3 28.724 968073
3 28.724 966572
3 28.724 957406
3 28.724 955672
3 29.2 936290
3 29.2 933965
3 29.579 932983
3 29.579 928732
3 29.579 926122
3 30 926048
3 30 918095
3 30.385 915485
3 30.385 909757
3 30.798 909505
3 31.145 908004
3 33.768 904413
3 33.768 895806
3 33.768 890984
3 34.158 890343
3 34.158 889068
3 42.045 1024451
3 42.045 1023568
3 42.045 1017988
3 42.045 1007801
3 42.045 1002778
3 42.045 991672
3 42.045 960094
3 42.619 956192
3 42.619 952589
3 42.619 952491
3 43.033 949342
3 43.033 944537
3 43.422 942055
3 43.422 940825
3 43.422 935040
3 43.422 928699
3 43.864 924954
3 46.165 918671
3 46.165 914669
3 46.558 914302
3 46.558 911821
3 50.136 909087
3 50.517 906799
3 51.184 904866
3 51.575 903069
3 51.575 897237
3 51.575 896612
3 51.575 895736
3 52.392 895381
3 52.392 893991
3 52.783 893009
3 56.262 1057092
3 56.262 1000532
3 56.262 992753
3 56.262 973122
3 56.262 959128
3 56.767 948212
3 56.767 948061
3 56.767 946711
3 56.767 943550
3 56.767 933606
3 56.767 931858
3 57.259 922692
3 57.259 918549
3 57.988 914298
3 70.053 1022876
3 70.053 1020787
3 70.053 1016707
1 70.053 1004890
3 70.053 996518
3 70.053 982984
3 70.053 978733
3 70.053 970891
3 70.053 962375
3 70.053 961952
3 70.715 952949
3 70.715 937322
3 70.715 936527
3 70.715 924884
3 71.83 924178
3 71.83 923196
3 72.257 921050
3 72.682 916480
3 73.122 912229
3 73.565 909979
3 73.565 908997
3 73.565 907553
3 83.809 907496
3 83.809 905670
3 84.205 1111520
3 84.205 1103585
3 84.205 1094419
3 84.205 1067352
3 84.205 1063151
3 84.205 1040548
3 84.205 1039674
3 84.205 1038844
3 84.205 1001206
3 84.205 986006
3 84.833 953272
3 84.833 952290
3 88.335 946406
3 88.682 945887
3 89.024 945095
3 89.024 932902
3 89.024 923758
3 89.734 921597
3 90.364 918743
3 91.367 918292
3 91.716 915331
3 92.079 913830
3 92.079 912944
3 92.802 912848
3 93.452 909495
3 93.788 904342
1 95.65 896721
3 96.01 891303
3 96.389 884966
3 96.389 881817
3 97.671 881724
3 98.004 1099795
3 98.004 1086696
3 98.004 1049769
3 98.004 1040603
3 98.004 1033695
3 98.004 1032090
3 98.004 1018498
3 98.004 1010563
3 98.004 959010
3 98.004 943198
3 98.004 941094
3 98.004 931772
3 98.677 930452
3 98.677 925279
3 98.677 924382
3 98.677 919906
3 98.677 916447
3 99.148 914134
3 99.498 913298
3 99.498 912779
3 99.874 912095
3 99.874 912072
3 112.121 1047450
3 112.121 1007322
3 112.121 998809
3 112.121 993840
3 112.121 991503
3 112.121 989643
3 112.121 978666
3 112.67 975278
3 112.67 970424
3 112.67 961088
3 113.089 946716
3 113.089 944744
3 113.089 937955
3 113.089 937617
3 113.089 930910
3 113.089 926651
3 113.573 915474
3 113.573 915447
3 113.964 914042
3 113.964 913166
3 114.33 909091
3 114.673 908705
3 115.022 907960
3 115.022 896229
3 115.022 896132
3 115.022 894631
3 118.296 892208
3 118.968 888040
3 118.968 887957
3 126.071 1071300
3 126.071 1059584
3 126.071 1028968
3 126.071 1014707
3 126.071 1010916
3 126.071 999722
3 126.071 991787
3 126.071 990805
3 126.071 982247
3 126.071 966460
3 126.071 959060
3 126.689 952993
3 126.689 946656
3 126.689 925703
3 126.689 920494
3 126.689 920314
3 126.689 919916
3 126.689 911981
3 127.395 909269
3 128.738 906432
3 128.738 903941
3 128.738 902959
3 129.172 902907
3 129.525 898273
3 129.525 896772
3 129.525 896428
3 132.746 896376
3 133.107 894875
3 140.247 1038706
3 140.247 995030
3 140.247 994265
3 140.247 985752
3 140.247 980379
3 140.247 976783
3 140.247 966875
3 140.795 934194
3 141.493 933212
1 144.486 929574
3 144.881 924267
3 148.972 922724
3 151.701 921760
3 152.768 915908
3 153.122 909058
3 154.127 1008270
3 154.127 972358
3 154.127 948924
3 154.127 946083
3 154.127 945949
3 154.127 943595
3 154.127 929369
3 156.072 925748
3 156.43 924925
3 156.43 918898
3 156.43 915020
3 156.43 911302
3 156.43 909647
3 157.225 899084
3 160.173 896221
3 168.256 1086098
3 168.256 1043509
3 168.256 988690
3 168.256 983515
3 168.256 977894
3 169.025 970206
3 169.025 950059
3 169.025 936564
3 169.025 934544
3 169.025 929905
3 169.697 920014
3 169.697 915715
3 170.756 915644
3 180.8 913208
3 180.8 912870
3 181.361 909708
3 181.361 909418
3 181.361 908726
3 181.94 904787
3 181.94 903286
3 182.5 1083757
3 182.5 1052870
3 182.5 1046743
3 182.5 1045843
3 182.5 1033434
3 182.5 987086
3 182.5 982835
3 184.441 976149
3 184.441 974761
3 184.441 957596
3 184.441 951695
3 184.441 931235
3 185.168 916125
3 185.168 915883
3 185.168 915006
3 185.769 908434
3 196.346 1002668
3 196.346 979413
3 196.346 979405
3 196.346 975831
3 197.022 973227
3 197.022 953717
3 197.022 940551
3 197.022 935709
3 197.022 934727
3 197.685 930320
3 197.685 929377
3 197.685 912586
3 198.255 912044
3 198.255 910800
3 198.781 910562
3 206.999 910543
3 208.433 903373
3 208.954 903019
3 210.456 1038102
3 210.456 1033311
3 210.456 1030197
3 210.456 1023258
3 210.456 1014985
3 211.111 1002087
3 211.111 1000126
3 211.111 985253
3 211.111 980657
3 211.111 979880
3 211.111 977039
3 211.111 976967
3 211.111 975584
3 211.889 971261
3 211.889 970279
3 211.889 967845
3 211.889 957915
3 211.889 954622
3 212.578 926873
3 214.641 918018
3 214.641 911690
3 215.206 906317
3 215.206 905413
3 215.206 904816
3 215.206 903177
3 215.819 902843
3 215.819 901342
3 216.357 901249
3 217.363 900472
1 221.055 900332
3 222.63 899832
3 223.187 899350
3 224.256 953204
3 224.256 942541
3 224.256 942203
3 224.256 935537
3 224.256 925835
3 224.256 906432
3 224.256 906052
3 224.256 904931
3 224.256 904857
3 224.256 889511
3 225.092 888390
3 225.092 883082
3 234.023 883017
3 238.307 1152528
3 238.307 1111952
3 238.307 1099111
3 238.307 1058515
3 238.307 1034165
3 238.307 1025067
3 238.307 1002464
3 238.307 1000963
3 238.307 999703
3 238.307 998721
3 238.307 996219
3 238.307 973021
3 238.307 963855
3 239.265 940294
3 239.265 938793
3 240.313 931616
3 240.313 930319
3 240.313 929989
3 240.313 918937
3 240.313 918891
3 240.949 915079
3 240.949 902609
3 240.949 901816
3 240.949 901641
3 247.374 898425
3 247.374 896682
3 249.199 895992
3 252.042 994467
3 252.042 989081
3 252.042 988751
3 252.042 985337
3 252.667 984716
3 252.667 966942
3 252.667 966622
3 252.667 964724
3 253.272 962251
3 253.272 942121
3 253.272 940620
3 253.272 927710
3 253.272 924548
3 255.645 922914
3 255.645 922679
3 256.161 921697
3 256.161 916596
3 266.155 972302
3 266.155 968918
3 266.155 968079
3 266.155 958414
3 266.155 923374
3 266.155 919123
3 266.155 914698
3 266.155 913197
3 270.008 907220
3 270.008 904411
3 280.033 1110800
3 280.033 1040034
3 280.033 1008456
3 280.033 994799
3 280.033 981320
3 280.69 940277
3 280.69 938827
3 280.69 937115
3 280.69 929961
3 281.253 928460
1 281.253 923298
3 281.253 921098
3 281.253 914761
3 281.253 913747
3 281.253 908919
3 281.88 907937
3 285.501 907797
3 285.986 905890
3 286.454 902029
3 288.822 899263
3 289.335 896580
3 294.332 1019041
3 294.332 1015943
3 294.332 993564
3 294.332 989877
3 294.332 978845
3 294.332 962607
3 295.554 958704
3 295.554 956013
3 295.554 954672
3 295.554 945825
3 295.554 940795
3 296.203 932645
3 297.176 928588
3 297.176 927639
3 297.728 927180
3 297.728 918667
3 304.085 918574
3 308.327 1082310
3 308.327 1041734
3 308.327 998538
3 308.327 993165
3 308.327 990003
3 308.327 989254
3 308.327 964974
3 309.074 961984
3 309.074 949878
3 309.074 949707
3 309.074 948725
3 309.687 948675
3 309.687 942855
3 309.687 941479
3 309.687 940159
3 312.153 938323
3 312.153 934351
3 312.689 931473
3 312.689 922719
3 314.155 919363
3 314.648 918344
3 314.648 917346
3 322.475 999470
3 322.475 971721
3 322.475 968154
3 322.475 964729
3 322.475 963174
3 322.475 955019
3 322.475 949333
3 322.475 949142
3 322.475 938975
3 323.276 937337
3 323.276 932365
3 323.276 928824
3 323.276 926931
3 323.276 924573
3 331.198 922889
3 331.198 914823
3 331.602 914042
3 332.027 912380
3 332.027 910995
3 332.399 908979
3 332.399 906107
3 334.033 902872
3 334.379 901163
3 335.026 901070
3 336.318 988899
3 336.318 983997
3 336.318 982085
3 336.318 981408
3 336.318 973970
3 336.8 964075
3 336.8 955830
3 336.8 951579
3 337.536 951248
3 337.887 948760
3 338.236 939315
3 338.236 933596
3 339.268 932319
3 339.268 929829
3 339.268 918669
3 343.952 917398
3 350.237 1145136
3 350.237 1126574
3 350.237 1125592
3 350.237 1086767
3 350.237 1054678
3 350.237 1048561
3 350.237 1014082
3 350.237 992001
3 350.237 987372
3 350.237 969025
3 350.237 963955
3 350.237 962316
3 350.237 960515
3 350.929 958915
3 350.929 951550
3 350.929 940139
3 351.343 937497
3 351.694 936977
3 351.694 930396
3 351.694 929634
3 351.694 923297
3 352.118 920148
3 352.118 915138
3 353.141 909630
3 353.141 908307
3 364.063 1015725
3 364.063 1000879
3 364.063 988438
3 364.063 983835
3 364.063 977343
3 364.063 967776
3 364.063 962675
3 364.063 962639
3 364.063 959884
3 364.656 958938
3 364.656 947655
3 364.656 943866
3 364.656 939919
3 365.11 938138
3 365.11 933138
3 365.11 931429
3 367.234 925775
3 367.631 922176
3 367.631 919130
3 378.332 1012915
3 378.332 996931
3 378.332 995677
3 378.332 975012
3 378.332 970761
3 378.332 969260
3 378.332 942133
3 378.332 942040
3 378.96 937696
3 380.666 919940
1 380.666 919923
3 380.666 909126
3 380.666 907189
3 383.95 907096
3 392.221 1072998
3 392.221 1067625
3 392.221 1017264
3 392.221 1016812
3 392.221 985234
3 392.221 984324
3 392.221 974447
3 392.221 961138
3 392.221 946222
3 393.196 939652
3 393.196 939196
3 393.604 933153
3 393.604 932107
3 393.604 929078
3 394.131 926828
3 394.131 925537
3 394.131 924235
3 394.639 919984
3 394.639 910432
3 406.068 1117652
3 406.068 1112927
3 406.068 1085866
3 406.068 1076700
3 406.068 1026339
3 406.068 1013160
3 406.068 1011139
3 406.068 1001376
3 406.068 999095
3 406.668 989053
3 406.668 955315
3 406.668 948465
3 406.668 948330
3 406.668 940293
3 407.44 938795
3 407.44 936649
3 407.44 935635
3 408.003 931384
3 409.767 930373
3 410.136 924869
3 410.505 918525
3 410.861 911100
3 410.861 910204
3 410.861 909380
3 410.861 908703
3 411.305 900217
3 411.666 899926
3 412.025 897426
3 412.445 896590
3 412.445 895913
3 420.116 1060700
3 420.116 1050970
3 420.116 1023029
3 420.116 1004467
3 420.116 988139
3 420.116 985101
3 420.116 981864
3 420.116 980204
3 420.719 956360
3 420.719 950987
3 420.719 950253
3 420.719 941353
3 421.146 936989
3 421.146 933159
3 421.541 932177
3 421.92 929467
3 423.269 925781
3 423.269 924280
3 423.269 919674
3 423.269 918907
3 423.269 910391
3 423.823 910188
3 423.823 908966
3 423.823 901648
3 424.581 893174
3 424.581 888390
3 425.295 887502
3 426.018 883017
3 434.117 1084860
3 434.117 1071268
3 434.117 1021949
3 434.117 1021125
3 434.117 1012779
3 434.117 1012421
3 434.117 1004369
3 434.676 993733
3 434.676 990994
3 435.064 979773
3 435.064 972409
3 435.064 968242
3 435.064 966990
3 435.513 955442
3 435.513 948089
3 435.925 944736
3 436.275 942427
3 436.628 939757
3 436.628 933911
3 438.264 928538
1 442.623 923690
3 442.974 919803
3 442.974 912953
3 448.009 1048691
3 448.009 1047836
3 448.009 1038596
3 448.009 1031943
3 448.009 1028499
3 448.009 1005896
3 448.009 1003310
3 448.009 995258
3 448.009 994578
3 448.009 988021
3 448.009 984271
3 448.009 981864
3 448.656 953569
3 448.656 953553
3 448.656 950420
3 449.083 949923
3 449.083 943695
3 449.083 915764
3 451.441 912841
3 451.441 907921
3 451.812 905953
3 451.812 905746
3 452.209 905597
3 452.209 900382
3 452.574 900160
1 454.14 899400
3 454.14 899130
3 454.811 892804
3 459.845 892079
3 460.178 889362
3 460.531 887861
3 460.855 887828
3 462.058 1031145
3 462.058 1016955
3 462.058 1003206
3 462.058 971628
3 462.058 965668
3 462.058 957152
3 462.058 954615
3 462.058 944550
3 462.625 941353
1 462.961 934925
3 462.961 929275
3 463.322 924070
3 463.658 919819
3 463.658 919622
3 463.658 914464
3 464.05 912714
1 467.35 910590
3 467.35 909165
3 468.33 908583
3 468.33 903210
3 476.273 1180358
3 476.273 1145868
3 476.273 1137933
3 476.273 1081373
3 476.273 1068230
3 476.273 1054040
3 476.273 1049426
3 476.273 1045527
3 476.824 1036361
3 476.824 1009091
3 476.824 989735
3 476.824 966950
3 476.824 962699
3 476.824 962491
3 476.824 958506
3 477.37 954111
3 477.37 954039
3 477.748 940730
3 477.748 936479
1 484.207 930186
3 484.207 929451
3 484.588 928323
3 484.588 915014
3 490.23 1113726
3 490.23 1085133
3 490.23 1037433
3 490.23 1028720
3 490.23 1013256
3 490.23 1000832
3 490.23 999710
3 490.23 982093
3 490.23 971092
3 490.23 962978
3 490.23 960907
3 490.23 952391
3 490.88 934038
3 491.233 930438
3 491.233 928518
3 491.233 922411
3 491.647 920899
3 491.647 917081
3 491.647 914810
3 492.054 913309
3 492.054 903925
3 492.054 902911
3 492.054 897931
3 492.054 895538
3 492.527 894248
3 492.858 893266
3 497.033 891858
3 497.67 884197
3 497.67 883806
3 498.029 883082
3 499.928 883017
3 504.173 1049483
3 504.173 978717
3 504.173 969551
3 504.173 969251
3 504.173 968050
3 504.173 960136
3 504.173 960115
3 504.173 947072
3 504.173 945950
3 504.727 928955
3 504.727 926667
3 505.089 922849
3 505.429 922416
3 505.761 917604
3 505.761 910962
3 509.488 910490
3 509.488 908865
3 509.849 907970
1 510.183 907328
3 510.52 906116
3 510.52 905364
3 510.902 903034
3 510.902 898896
3 511.285 898658
3 511.285 895817
3 518.028 961158
3 518.028 960176
3 518.028 941558
3 518.028 932186
3 518.028 928879
3 518.028 923087
3 518.028 923013
3 518.518 920776
3 518.876 920367
3 518.876 919275
3 519.258 916990
3 519.258 916008
3 519.258 914606
3 519.258 910449
3 519.258 907674
3 520.38 902685
3 520.38 900577
3 520.759 899716
3 520.759 895565
3 520.759 894343
3 520.759 890999
3 521.196 890017
3 521.54 889677
3 521.54 888920
3 521.54 887737
3 521.944 884393
3 532.047 1090237
3 532.047 1089899
3 532.047 1070105
3 532.047 1069123
3 532.047 1064298
3 532.047 1050833
3 532.047 1049726
3 532.047 1040560
3 532.047 1031055
3 532.736 1021793
3 532.736 997278
3 532.736 987952
3 532.736 986262
3 532.736 978501
3 532.736 961168
3 532.736 961101
3 533.402 955620
3 533.402 947027
3 533.8 933097
3 534.145 932122
3 534.476 930888
3 534.476 927871
3 537.938 918604
3 537.938 917762
3 538.719 917571
3 538.719 913634
3 538.719 912271
3 538.719 909154
3 538.719 908813
1 540.39 906073
3 540.39 905945
3 540.39 902911
3 540.786 896509
3 541.419 894353
3 541.419 893052
3 541.419 891424
3 546.293 981978
3 546.293 967007
3 546.293 942789
3 546.293 940575
3 546.753 937056
3 546.753 928694
3 546.753 925363
3 546.753 924552
3 546.753 921331
3 546.753 918773
3 546.753 916733
3 546.753 915259
3 547.304 911008
3 547.304 907288
3 547.304 905434
3 547.304 900951
3 548.052 899050
3 548.751 898422
3 549.162 896921
3 560.085 968913
3 560.085 963540
3 560.085 956205
3 560.085 955592
3 560.085 938249
3 560.085 935654
3 560.085 934851
3 560.085 933469
3 560.649 928514
3 560.649 923789
3 560.649 921894
3 560.649 921047
3 560.649 917197
3 560.649 916859
3 560.649 916376
3 561.828 910437
3 562.182 910217
3 562.182 909235
3 562.861 904879
3 563.817 904844
3 563.817 903816
3 564.15 903404
3 565.078 903238
3 565.078 902003
3 567.112 899074
3 574.206 992862
3 574.206 990277
3 574.206 977111
3 574.815 972863
3 574.815 944222
3 574.815 928790
3 575.401 924539
3 575.401 921852
3 575.401 915002
3 575.401 911295
3 575.401 909230
3 575.401 908133
3 576.113 906632
3 576.113 906121
3 576.113 900954
3 576.113 899677
3 588.429 992549
3 588.429 989387
3 588.429 987886
3 588.429 982980
3 588.429 957889
3 588.429 949376
3 588.429 930045
3 589.187 921955
3 589.187 918793
3 592.049 916348
3 592.049 915241
3 593.534 907997
3 602.077 952077
3 602.077 949637
3 602.077 948648
3 602.077 948091
3 602.077 946590
3 602.549 928941
3 603.86 928477
3 603.86 926900
3 604.233 925186
3 604.233 919221
3 604.233 918642
3 604.952 911962
3 605.304 907300
3 605.649 900312
3 605.982 898380
3 606.341 894911
3 616.122 964368
3 616.122 946893
3 616.122 934432
3 616.122 933986
3 616.573 926261
3 616.573 923311
3 617.595 917643
3 617.928 917240
3 620.087 914258
3 620.087 913437
3 620.458 912452
3 620.458 911470
3 620.458 905044
3 620.458 904455
3 620.458 903812
3 620.933 903543
3 621.558 902998
3 621.558 898916
3 621.558 898634
3 621.558 897243
3 621.966 894622
3 622.303 893686
3 622.303 892704
3 623.811 892618
3 630.148 1109358
3 630.148 1108444
3 630.148 1081174
3 630.148 1065624
3 630.148 1025028
3 630.148 1020513
3 630.148 1001904
3 630.148 993243
3 630.148 987870
3 630.689 987714
3 630.689 985352
3 630.689 981101
3 630.689 980763
3 630.689 975486
3 630.689 974207
3 631.137 964699
3 631.137 949580
3 631.137 936479
3 644.282 1146908
3 644.282 1141480
3 644.282 1129139
3 644.282 1059617
3 644.282 1051682
3 644.282 1038821
3 644.282 1017044
3 644.282 1009426
3 644.282 996973
3 644.872 974673
3 644.872 970382
3 644.872 968877
3 645.285 944328
3 645.285 926825
3 645.285 926537
3 645.285 922010
3 645.713 915231
3 646.044 913958
3 646.671 913654
3 647.62 907578
3 658.209 1096476
3 658.209 1069649
3 658.209 1056944
3 658.209 1048428
3 658.209 1048278
3 658.209 1039559
3 658.209 1030393
3 658.209 1028603
3 658.209 1011842
3 658.209 985388
3 658.209 984344
3 658.209 973041
3 658.857 970984
3 658.857 937719
3 658.857 936809
3 658.857 930615
3 658.857 927920
3 659.311 926615
3 659.643 924183
3 659.974 909140
3 672.052 1142313
3 672.052 1107963
3 672.052 1081158
3 672.052 1075693
3 672.052 1069964
3 672.052 1052489
3 672.052 1024503
3 672.052 1020911
3 672.052 1007225
3 672.052 992766
1 672.702 981010
3 672.702 978576
3 672.702 965267
3 672.702 956751
3 673.143 952500
3 674.128 948499
3 674.128 944894
3 674.128 935599
3 674.532 932897
3 680.855 932837
3 680.855 928558
3 680.855 928478
3 681.268 926977
3 681.614 926046
3 681.983 925890
3 681.983 911299
3 686.015 1044145
3 686.015 1036303
3 686.015 1034802
3 686.015 1020389
3 686.015 996084
3 686.015 989914
3 686.015 976834
3 686.015 956604
3 686.015 956169
3 686.623 950008
3 687.289 947834
3 687.289 947691
3 687.662 940990
3 688.007 937120
3 688.353 926448
3 688.353 917932
3 688.353 916431
3 688.353 916338
3 690.983 910631
3 690.983 908496
3 691.357 908367
3 691.703 906779
3 693.596 905334
3 700.111 951051
3 700.111 949538
3 700.111 946800
3 700.551 942175
3 700.551 935494
3 700.551 931932
3 700.551 930648
3 700.988 930471
3 701.341 926220
3 701.341 921933
3 701.341 921245
3 701.74 919193
3 701.74 918083
3 702.157 913347
3 714.099 1143668
3 714.099 1082228
3 714.099 1036819
3 714.099 1031337
3 714.099 1025668
3 714.099 1000782
3 714.099 991862
3 714.099 973461
3 714.679 965771
3 714.679 957713
3 714.679 950250
3 715.079 946466
3 715.079 941734
3 715.079 937483
3 715.079 931615
3 715.079 921271
3 716.87 919770
3 721.755 917272
3 722.724 912512
3 724.294 903248
3 724.637 901710
3 724.637 900915
3 724.637 900176
3 725.327 898730
3 725.327 896829
3 728.085 1068437
3 728.085 1043327
3 728.085 1041391
3 728.085 1009541
3 728.085 954346
3 728.085 953102
3 728.085 934356
3 728.085 928190
3 728.593 927852
3 728.593 927174
3 728.593 926390
3 728.996 923888
3 728.996 915058
3 729.339 907529
3 729.339 906028
3 730.017 903530
3 730.017 897553
3 730.017 889334
3 730.392 887106
3 730.392 886161
3 730.392 882814
3 730.789 881832
3 730.789 881750
3 730.789 879941
3 736.778 879711
3 737.112 878210
3 742.295 1096217
3 742.295 1082908
3 742.295 1073230
3 742.295 1071729
3 742.295 1040151
3 742.295 1034559
3 742.295 1030985
3 742.295 1027489
3 742.295 1006824
3 742.888 1004567
3 742.888 964828
3 742.888 960467
3 742.888 958966
3 743.327 957681
3 743.665 949658
3 743.665 947101
3 743.665 946509
3 744.056 944183
3 744.056 940537
3 744.056 935958
3 744.056 934344
3 747.477 927921
3 747.814 920227
3 747.814 913604
3 747.814 909033
3 748.206 907346
3 748.844 906152
3 749.194 905950
3 749.194 904968
3 756.142 1124234
3 756.142 1118861
3 756.142 1078265
3 756.142 1012165
3 756.142 1007681
3 756.142 993603
3 756.682 978205
3 756.682 972899
3 756.682 969441
3 756.682 967662
3 756.682 962289
3 756.682 957143
3 757.154 943761
3 757.154 939710
3 757.154 939372
3 757.154 935187
3 757.154 931002
3 757.154 926297
3 757.629 925242
3 757.629 925143
3 757.629 921279
3 757.629 915896
3 758.045 915558
3 758.704 909449
3 759.047 907341
3 759.395 903288
3 759.395 902434
3 759.395 900476
3 760.103 894560
3 760.103 893578
3 760.483 887348
3 761.142 886037
3 761.491 885072
3 761.842 884090
3 763.124 880664
3 770.204 1107299
3 770.204 1085554
3 770.204 1078713
3 770.204 1065333
3 770.204 1058691
3 770.204 1039062
3 770.204 1038824
3 770.204 1036953
3 770.204 1024868
3 770.204 987387
3 770.204 953228
3 770.847 951984
3 770.847 937694
3 771.241 934853
3 771.241 930461
3 771.241 928960
3 771.241 925367
3 771.674 923639
3 771.674 923619
3 771.674 921967
3 771.674 917315
3 771.674 909413
3 771.674 909357
3 772.473 907199
3 784.403 1018381
3 784.403 1005849
3 784.403 1001968
3 784.403 992802
3 784.869 991185
3 784.869 974238
3 784.869 968929
3 784.869 960413
3 784.869 946814
3 784.869 939177
3 784.869 929260
3 785.38 927573
3 785.742 926570
3 786.098 922652
3 786.098 921757
3 786.098 921121
3 786.535 919490
3 786.535 918280
3 786.535 916825
3 791.411 913396
3 792.103 913119
3 793.694 909417
3 796.545 907251
3 796.545 906771
3 798.242 1034908
3 798.242 1031850
3 798.242 1026116
3 798.242 1019435
3 798.242 1015087
3 798.242 1006423
3 798.242 974675
3 798.242 971580
3 798.242 969302
3 798.242 968544
3 798.242 961572
3 798.997 952066
3 798.997 951247
3 798.997 951084
3 799.403 948555
3 799.403 942335
3 799.755 941125
3 799.755 940223
3 799.755 935067
3 800.173 931710
3 800.173 920756
3 800.596 918620
3 800.596 914871
3 801.185 904393
3 801.185 903783
3 801.185 900737
3 812.237 1071460
3 812.237 1057062
3 812.237 1052895
3 812.237 1025878
3 812.237 1024377
3 812.237 1019765
3 812.237 992799
3 812.237 988592
3 812.237 975709
3 812.237 973930
3 812.237 954094
3 812.857 953265
3 812.857 945133
3 812.857 939532
3 813.268 936833
3 813.268 931587
3 813.268 931460
3 813.268 929959
3 813.709 914638
3 813.709 908714
3 813.709 907732
3 813.709 904570
3 814.807 900185
3 814.807 897692
3 815.296 894530
3 815.296 894376
3 821.88 893611
3 826.017 999005
3 826.017 993410
3 826.017 993112
3 826.017 977742
3 826.017 968576
3 826.017 962423
3 826.017 958172
3 826.017 956671
3 826.017 952469
3 826.017 943533
3 826.649 940124
3 827.009 939083
3 827.009 938101
3 827.42 934722
3 827.42 931251
3 828.442 927885
3 840.16 1086464
3 840.16 1085048
3 840.16 1076067
3 840.16 1052137
3 840.16 1046765
3 840.16 1029536
3 840.16 1016688
3 840.16 1011315
3 840.732 1002149
3 840.732 991862
3 840.732 985399
3 840.732 973624
3 840.732 972123
3 840.732 968007
3 840.732 950420
3 841.256 948725
3 841.256 943570
3 841.646 939048
3 841.646 938585
3 842.026 937701
3 842.026 933152
3 842.433 928901
3 842.433 927702
3 842.837 923823
3 842.837 922605
3 842.837 921623
3 843.545 911923
3 843.882 910776
3 844.518 907660
3 844.856 906525
3 844.856 904899
3 844.856 903917
3 854.245 1006272
3 854.245 985065
3 854.245 959526
3 854.245 945893
3 854.245 942442
3 854.689 934273
3 854.689 932721
3 854.689 928972
3 854.689 918215
3 854.689 916502
3 854.689 915001
3 860.721 914482
1 866.022 912963
3 868.099 1069029
3 868.099 1055902
3 868.099 1016938
3 868.099 980068
3 868.099 967656
3 868.099 953580
3 868.609 953279
3 868.609 951659
3 868.609 948497
3 868.609 940271
3 868.609 938551
3 868.609 933400
3 869.163 918448
3 869.163 917159
3 869.513 914115
3 869.513 904616
3 869.513 903937
3 869.513 902955
3 869.936 902578
3 870.268 901756
3 870.268 900382
3 870.268 899400
3 872.242 899130
3 872.242 892804
3 873.2 892175
3 873.829 889270
3 873.829 887828
3 882.029 1039739
3 882.029 1032889
3 882.029 1020722
3 882.029 1012970
3 882.029 967655
3 882.029 951968
3 882.029 939317
3 882.029 927059
3 882.029 921318
3 882.029 921008
3 882.029 920026
3 882.774 919233
3 883.484 916838
3 883.484 916623
3 883.862 912372
1 886.924 911958
3 887.609 911720
3 887.939 910720
3 895.243 908277
3 895.243 905084
3 895.763 900417
3 896.271 1106152
3 896.271 1044176
3 896.271 1040303
3 896.271 1009686
3 896.271 999820
3 896.271 997543
3 896.271 990599
3 896.271 989284
3 896.271 989098
1 897.014 981519
3 897.014 973006
3 897.014 965473
3 897.014 957520
3 897.014 939404
3 897.67 922527
3 897.67 916842
3 897.67 915985
3 897.67 915236
3 898.26 911984
3 898.777 910483
3 899.749 908092
3 900.266 903841
3 900.266 901362
3 910.457 1017058
3 910.457 1000310
3 910.457 1000263
3 910.457 971965
3 910.457 967714
3 910.457 966256
3 910.457 958204
3 910.457 956648
3 910.457 949579
3 910.457 947408
3 911.231 945547
3 911.231 943680
3 911.231 932502
3 911.804 916410
3 912.859 897778
3 912.859 896796
3 912.859 895403
3 912.859 890030
3 914.399 889946
3 914.88 885271
3 924.024 1055862
3 924.024 1048107
3 924.024 1013984
3 924.024 1004537
3 924.024 981229
3 924.024 972638
3 924.024 970771
3 924.024 964936
3 924.024 951858
3 924.024 945953
3 924.9 945459
3 926.845 945425
3 926.845 938718
3 926.845 936638
3 926.845 936089
3 928.411 935656
1 929.359 922464
3 929.848 921518
3 929.848 917267
3 930.39 914850
3 930.88 914303
3 930.88 910908
3 931.387 910358
3 931.387 909407
3 938.361 1108508
3 938.361 1103135
3 938.361 1068181
3 938.361 1064080
3 938.361 1042474
3 938.361 1042381
3 938.361 1036060
3 938.361 989265
3 938.361 986419
3 939.162 954715
3 939.685 954105
3 939.685 952604
3 940.681 952241
3 940.681 939358
3 940.681 930454
3 941.233 925536
3 941.233 921297
3 941.233 914276
3 941.233 912784
3 942.726 906207
3 943.201 905013
3 948.936 903512
3 952.203 967937
3 952.203 961494
3 952.203 937315
3 952.203 923095
3 952.203 921563
3 952.868 920062
3 952.868 916987
3 952.868 916005
3 952.868 914642
3 953.474 914336
3 953.474 906287
3 953.474 904501
3 953.474 902849
3 953.474 899774
3 954.538 898623
3 957.771 897599
3 959.161 896354
3 966.133 1094175
3 966.133 1064412
3 966.133 1063902
3 966.133 1051871
3 966.133 1044109
3 966.133 1023584
3 966.133 1019843
3 966.133 1012423
3 966.133 1012042
3 966.133 985015
3 966.917 976499
3 966.917 969453
3 966.917 954482
3 967.511 951978
3 968.506 949805
3 968.506 947472
3 968.506 931273
3 969.044 930351
3 969.538 929369
3 971.833 929305
3 973.347 925610
3 980.022 1033418
3 980.022 1005669
3 980.022 986516
3 980.022 985742
3 980.022 980142
3 980.022 977226
3 980.022 965922
3 981.228 964421
3 981.728 947090
3 982.25 945180
3 982.25 942736
3 982.81 938762
3 982.81 925879
3 984.43 914913
3 984.778 914685
3 994.058 1133760
3 994.058 1125247
3 994.058 1097977
3 994.058 1055797
3 994.058 1055561
3 994.058 1050188
3 994.058 1041672
1 994.058 1010533
3 994.058 1006584
3 994.058 989564
3 994.058 988582
3 994.058 976363
3 994.058 959515
3 994.874 957424
1 994.874 946846
3 995.331 945864
3 995.331 942695
3 995.331 925646
3 995.796 923261
3 995.796 920755
3 995.796 920590
3 995.796 919657
3 996.332 918334
3 996.332 916833
3 1008.06 1099775
3 1008.06 1072898
3 1008.06 1035272
3 1008.06 1032663
3 1008.06 1027355
3 1008.06 1022433
3 1008.59 1022368
3 1008.59 986513
3 1008.59 976483
3 1008.59 965814
3 1008.59 962267
3 1008.59 961773
3 1008.59 941602
3 1008.59 933250
3 1011.98 928748
3 1011.98 927247
3 1011.98 922996
3 1011.98 917792
3 1011.98 916810
3 1011.98 914694
3 1012.46 907218
3 1012.46 907155
3 1016.71 904073
3 1017.11 902906
3 1022.29 973239
3 1022.29 968553
3 1022.29 960037
3 1022.29 956888
3 1022.29 952317
3 1022.85 949513
3 1022.85 938393
3 1022.85 927195
3 1022.85 924274
3 1022.85 921070
3 1023.72 916993
3 1024.07 915492
3 1025.32 915048
3 1025.32 914066
3 1025.71 911846
3 1026.39 908697
3 1027.05 897503
3 1036.02 1014075
3 1036.02 989221
3 1036.02 985380
3 1036.02 978031
3 1036.02 975750
3 1036.02 970414
3 1036.02 968386
3 1036.02 949372
3 1036.72 946051
3 1036.72 941816
3 1036.72 939648
3 1036.72 930078
3 1036.72 925650
3 1037.31 923945
3 1037.31 923478
3 1037.31 918849
3 1037.84 903584
3 1037.84 898211
3 1038.34 896710
3 1038.34 896580
3 1043.55 895569
3 1044.66 893288
3 1045.51 892548
3 1045.89 892228
3 1045.89 892208
3 1045.89 889695
3 1046.36 888194
3 1047.71 887957
3 1047.71 887233
3 1048.25 884774
3 1048.25 883792
3 1049.27 882124
3 1050.24 1113468
3 1050.24 1081890
3 1050.24 1056038
3 1050.24 1039238
3 1050.24 1016635
3 1050.24 1002186
3 1050.24 996630
3 1050.24 991257
3 1050.24 991047
3 1050.24 982550
3 1050.24 981049
3 1051.04 972264
3 1051.04 971563
3 1051.04 955966
3 1051.04 955773
3 1051.04 949660
3 1051.04 948993
3 1051.04 944850
3 1051.78 935028
3 1051.78 933696
3 1051.78 929655
3 1052.41 929445
3 1052.92 928453
3 1052.92 915824
3 1057.89 915792
3 1057.89 911854
3 1058.95 907889
3 1059.49 907360
3 1059.49 900807
3 1059.49 894442
3 1060.12 893760
3 1061.15 892291
3 1062.6 890871
3 1062.6 889370
3 1064.09 1134995
3 1064.09 1116433
3 1064.09 1098958
3 1064.09 1096555
3 1064.09 1082365
3 1064.09 1034171
3 1064.09 1020828
3 1064.09 1012603
3 1064.09 1001970
3 1064.88 971703
3 1064.88 971104
3 1064.88 962591
3 1064.88 953392
3 1065.53 950268
3 1065.53 949930
3 1065.53 949881
3 1066.09 948899
3 1066.09 938064
3 1066.09 934055
3 1066.65 925055
3 1067.15 919809
3 1067.15 916539
3 1069.99 902444
3 1069.99 902430
3 1070.53 900242
3 1071.02 886563
3 1078.4 1133665
3 1078.4 1124499
3 1078.4 1092921
3 1078.4 1084405
3 1078.4 1034044
3 1078.4 1011443
3 1078.4 1006774
3 1078.4 993737
3 1078.4 976558
3 1079.16 975576
3 1079.69 975486
3 1079.69 975175
3 1080.22 973603
3 1080.22 956718
3 1080.78 954039
3 1080.78 950798
3 1080.78 943207
3 1080.78 942514
3 1080.78 941908
3 1081.39 941852
3 1081.89 937697
3 1082.4 936479
1 1086.64 929634
3 1086.64 922499
3 1086.64 920894
3 1092.04 992632
3 1092.04 983095
3 1092.04 980530
3 1092.04 972969
3 1092.04 972074
3 1092.71 964337
3 1092.71 921867
3 1093.75 920860
3 1093.75 919359
3 1095.73 912163
3 1095.73 908859
3 1096.31 908766
3 1096.81 906264
3 1106.47 1057410
3 1106.47 1056025
3 1106.47 1015822
3 1106.47 987610
3 1106.47 978684
3 1106.47 970168
3 1106.47 966241
3 1106.47 925927
3 1106.47 923263
3 1106.47 919832
3 1107.26 916413
3 1108.21 912057
3 1108.21 910470
3 1108.21 904155
3 1108.78 899890
3 1109.27 898727
3 1109.27 897241
3 1110.23 894386
3 1110.23 890214
3 1115.17 889981
3 1116.08 889340
3 1120.27 1033470
3 1120.27 1030629
3 1120.27 1027403
3 1120.27 1025047
3 1120.27 1022275
3 1120.27 1021223
3 1120.27 1018820
3 1120.27 1015671
3 1120.27 1013862
3 1120.27 1013059
3 1120.27 988752
3 1120.27 946624
3 1121.16 944014
3 1121.16 942807
3 1121.16 935676
3 1121.16 934684
3 1121.16 934436
3 1121.16 930475
3 1121.16 927755
3 1121.16 921632
3 1121.16 917750
3 1121.16 910333
3 1121.94 908832
3 1121.94 905860
3 1121.94 904960
3 1122.51 903892
3 1122.51 902286
3 1122.51 901976
3 1123.05 900829
3 1123.05 899328
3 1134.22 1062003
3 1134.22 1042473
3 1134.22 1000268
3 1134.22 991102
3 1134.22 989635
3 1134.22 974330
3 1134.22 950430
3 1134.22 949702
3 1134.22 941306
3 1134.22 938050
3 1135.53 935512
3 1136.03 931811
3 1136.03 931261
3 1137.52 923451
3 1137.52 913114
3 1137.52 902670
3 1137.52 901688
3 1137.52 900037
3 1139.05 898927
3 1139.05 898255
3 1139.05 898080
3 1139.05 897713
3 1139.65 896020
3 1139.65 892797
3 1139.65 890286
3 1141.09 884913
3 1148.42 981046
3 1148.42 971341
3 1148.42 970390
3 1148.42 956758
3 1148.42 948706
3 1148.42 939606
3 1148.42 935018
3 1149.15 904363
3 1149.15 901208
3 1149.67 901201
3 1150.17 895228
3 1150.65 893385
3 1150.65 889582
3 1150.65 888081
3 1151.2 887979
3 1151.2 886516
3 1153.09 885781
3 1162.01 1129916
3 1162.01 1073356
3 1162.01 1064843
3 1162.01 1018141
3 1162.01 985129
3 1162.01 976062
3 1162.01 968564
3 1162.01 947817
3 1162.01 947375
3 1163 946713
3 1163 938859
3 1163 937204
3 1163 933549
3 1163.5 929693
1 1163.91 925181
3 1176.44 1044969
3 1176.44 1012539
3 1176.44 996939
3 1176.44 977805
3 1176.44 976823
1 1176.44 964639
3 1176.44 963726
3 1176.44 948092
3 1176.44 947110
3 1176.44 945609
3 1177.21 943590
3 1190.38 990408
3 1190.38 973407
3 1190.38 964241
3 1190.38 958870
3 1190.38 954506
3 1190.38 949133
3 1190.38 945721
3 1190.38 945261
3 1191.15 931031
3 1191.15 917394
3 1191.15 916379
3 1191.72 915452
3 1192.25 912236
3 1192.77 909885
3 1192.77 906723
3 1204.31 1006399
3 1204.31 976941
3 1204.31 975418
3 1204.31 972621
3 1204.31 966244
3 1204.31 964743
3 1204.31 963455
3 1204.31 958528
3 1204.31 945216
3 1205.61 944827
3 1206.06 925740
3 1206.06 925231
3 1206.48 921677
3 1206.48 921112
3 1206.86 917950
3 1207.54 916278
3 1207.9 915189
3 1208.26 914777
3 1209.67 911617
3 1210.08 909430
3 1210.08 907994
3 1210.5 907402
3 1210.5 904240
3 1210.5 900684
3 1210.96 898967
3 1213.45 895105
3 1213.45 891085
3 1218.08 1167659
3 1218.08 1146652
3 1218.08 1133500
3 1218.08 1108508
3 1218.08 1082114
3 1218.08 1067932
3 1218.08 1040863
1 1218.08 1028330
3 1218.08 998692
3 1218.08 983400
3 1218.08 973288
3 1218.08 969859
3 1218.88 956550
3 1218.88 952299
3 1218.88 943783
3 1219.71 938410
3 1222.29 929547
3 1222.29 926623
3 1222.29 923970
3 1222.8 910661
3 1229.51 899215
3 1229.99 894329
3 1232.28 1067164
3 1232.28 1057218
3 1232.28 1049283
3 1232.28 1031330
3 1232.28 1022814
3 1232.28 1021915
3 1232.28 988039
3 1232.28 965355
3 1232.28 962514
3 1232.95 951610
3 1232.95 942444
3 1233.32 941462
3 1234.29 940512
3 1235.03 940176
3 1246.24 1031280
3 1246.24 1007908
3 1246.24 980195
3 1246.24 978856
3 1246.24 976888
3 1246.24 970921
3 1246.24 963751
3 1246.24 944148
3 1246.86 939897
3 1246.86 938009
3 1246.86 934665
3 1247.34 933683
3 1247.34 928771
3 1247.8 926908
3 1247.8 915790
3 1248.17 913341
3 1248.52 911963
3 1248.89 911566
3 1248.89 906360
3 1248.89 906139
3 1249.93 905508
3 1260.11 1015241
3 1260.11 1013718
1 1260.11 994530
3 1260.11 993872
3 1260.11 987012
3 1260.11 984948
3 1260.11 980733
3 1260.11 980223
3 1260.11 977099
3 1260.91 976117
3 1260.91 952871
3 1260.91 952281
3 1260.91 939091
3 1260.91 938180
3 1260.91 934517
3 1261.58 933728
3 1261.58 929477
3 1261.58 928269
3 1261.58 913105
3 1262.19 912144
3 1262.19 898835
3 1262.72 896139
3 1263.22 894638
3 1266.09 887109
3 1266.09 886402
3 1266.59 885420
3 1274.29 1030791
3 1274.29 989901
3 1274.29 980082
3 1274.29 976216
3 1274.29 957279
3 1274.29 956729
3 1274.96 956584
3 1274.96 952333
3 1274.96 946368
3 1274.96 940719
3 1274.96 934191
3 1276.48 916793
3 1276.48 909993
3 1276.48 907371
3 1276.48 903682
3 1276.48 903119
3 1281.42 892051
3 1281.92 891069
3 1283.33 884078
3 1283.33 883961
3 1283.86 883017
3 1288.29 1096927
3 1288.29 1030827
3 1288.29 1029450
3 1288.29 1021515
3 1288.29 1004618
3 1288.29 1003117
3 1288.29 985096
3 1289 964531
3 1289 960377
3 1289 952856
3 1289 951774
3 1289 947685
3 1289.63 937166
3 1289.63 932565
3 1289.63 928947
3 1289.63 927758
3 1290.7 924696
3 1290.7 911060
3 1290.7 910010
3 1290.7 902959
3 1291.3 902338
3 1292.3 895481
3 1292.3 890085
3 1302.39 1037314
3 1302.39 1021535
3 1302.39 986117
3 1302.39 970121
3 1302.39 964233
3 1302.39 957881
3 1302.39 946294
3 1302.39 924749
3 1302.39 916881
3 1303.17 916417
3 1303.71 912194
3 1303.71 911212
3 1304.71 910875
3 1304.71 910311
3 1305.26 907157
3 1305.77 907087
3 1308.28 895426
3 1308.28 894603
3 1309.29 892502
3 1309.29 887767
3 1309.29 887545
3 1310.78 883294
3 1316.14 1008195
3 1316.14 985506
3 1316.14 984509
3 1316.14 977828
3 1316.14 976784
3 1316.14 957868
3 1316.14 938200
3 1316.14 932929
3 1316.14 922621
3 1316.97 919336
3 1316.97 909720
3 1316.97 907579
3 1317.56 907433
3 1317.56 906807
3 1318.59 906715
3 1318.59 906709
3 1318.59 905825
3 1318.59 900878
3 1319.22 899216
3 1319.22 898848
3 1319.22 896054
3 1319.22 895188
3 1319.82 894554
3 1320.31 893492
3 1320.8 892682
3 1320.8 892084
3 1321.79 888753
3 1322.3 888314
3 1322.3 885077
3 1330.11 1088522
3 1330.11 1041820
3 1330.11 1025794
3 1330.11 999313
3 1330.11 994216
3 1330.78 992715
3 1330.78 987706
3 1330.78 967744
3 1330.78 965103
3 1330.78 958741
3 1330.78 952811
3 1331.48 937647
3 1331.48 926424
3 1332.09 925569
3 1332.09 924954
3 1332.09 923972
3 1333.23 922647
3 1344.28 1020883
3 1344.28 1012367
3 1344.28 958459
3 1344.86 942200
3 1344.86 939232
3 1345.45 923685
3 1348.01 922986
3 1348.01 915738
3 1348.01 915400
3 1348.01 903393
3 1348.66 902411
3 1349.2 901788
3 1351.62 900910
3 1358.2 1014337
3 1358.2 992126
3 1358.2 980875
3 1358.2 979374
3 1358.2 948720
3 1358.2 948317
3 1358.2 945173
3 1358.2 944555
3 1358.2 936503
3 1359.04 931381
3 1359.04 925111
3 1359.04 923610
3 1359.04 920853
3 1359.7 912337
3 1359.7 903209
3 1359.7 902689
3 1360.3 899673
3 1360.82 897476
3 1360.82 883365
3 1360.82 880216
3 1360.82 879336
3 1361.46 878062
3 1361.46 873335
3 1362.03 873108
3 1372.16 997753
3 1372.16 997329
3 1372.16 992267
3 1372.16 980738
3 1372.16 975365
3 1372.16 973864
3 1372.16 965361
3 1372.16 953292
3 1372.16 949100
3 1372.16 948749
3 1373.02 942250
3 1373.02 936555
3 1373.02 935939
3 1373.02 934130
3 1373.02 933258
3 1373.69 932629
3 1374.24 932342
3 1374.76 930453
3 1374.76 929506
3 1374.76 929300
3 1375.36 928575
3 1375.36 923015
3 1375.36 922120
3 1375.98 920840
3 1375.98 916670
3 1375.98 915688
3 1376.55 914793
3 1377.53 913990
3 1383.02 913722
3 1383.02 913249
3 1383.63 910833
3 1383.63 910521
3 1386.23 982735
3 1386.23 972014
3 1386.23 969886
3 1386.23 947640
3 1386.23 944744
3 1386.95 937664
3 1386.95 936775
3 1386.95 932815
3 1386.95 932437
3 1386.95 930936
3 1388.1 930289
3 1388.62 927573
3 1389.59 922010
3 1389.59 920691
3 1390.16 920322
3 1391.14 919765
3 1391.65 919350
3 1391.65 916603
3 1392.22 911292
3 1392.22 910310
3 1392.22 909083
3 1392.22 905934
3 1392.22 904693
3 1392.22 904117
3 1400.34 1188397
3 1400.34 1179884
3 1400.34 1171949
3 1400.34 1166576
3 1400.34 1134998
3 1400.34 1094422
3 1400.34 1068602
3 1400.34 1053160
3 1400.34 1041692
3 1400.34 1035729
3 1400.34 1029780
3 1400.34 1016791
3 1401.27 1006325
3 1401.27 1002074
3 1401.27 995251
3 1401.27 986601
3 1401.27 985519
3 1401.27 977003
3 1401.27 945106
3 1401.27 940311
3 1402.01 939663
3 1402.01 933600
3 1404.44 931618
3 1404.44 931053
3 1404.98 928558
3 1405.5 926802
3 1414.18 987575
3 1414.18 978498
3 1414.18 976590
3 1414.18 970852
3 1414.18 945035
3 1414.18 944549
3 1414.9 937699
3 1414.9 921150
3 1415.47 920058
3 1415.47 916639
3 1416.49 908381
3 1417.92 899173
3 1417.92 898191
3 1417.92 897812
3 1420.79 896690
3 1428.14 1101445
3 1428.14 1096072
3 1428.14 1093466
3 1428.14 1083614
3 1428.14 1025673
3 1428.14 961331
3 1428.14 938728
3 1428.14 937227
3 1428.14 937194
3 1428.96 934907
3 1428.96 924003
3 1428.96 920957
3 1428.96 904761
3 1428.96 903779
3 1429.61 901870
3 1429.61 900751
3 1433.06 896057
3 1442.41 1060331
3 1442.41 1052379
3 1442.41 1044327
3 1442.41 985468
3 1442.41 972159
3 1443.11 967908
3 1443.11 963112
3 1443.11 958140
3 1443.57 952755
3 1444.26 948504
3 1444.26 930571
3 1444.26 927622
3 1444.72 924568
3 1444.72 921435
3 1445.8 917685
3 1445.8 915829
3 1445.8 914585
3 1456.24 1029316
3 1456.24 1028797
3 1456.24 1015488
3 1456.24 998219
3 1456.24 987739
3 1456.24 969828
3 1456.24 961777
3 1456.24 948973
3 1456.79 946687
3 1456.79 941314
3 1456.79 940498
3 1456.79 938997
3 1456.79 938441
3 1456.79 935292
3 1456.79 929212
3 1457.31 925097
3 1458.6 924115
3 1458.6 921278
3 1458.98 917027
3 1458.98 912913
3 1458.98 911030
3 1459.39 902556
3 1459.39 901363
3 1459.39 898527
3 1459.39 897401
3 1470.27 1047878
3 1470.27 1045191
3 1470.27 1033724
3 1470.27 999496
3 1470.74 978464
3 1470.74 971944
3 1471.15 967416
3 1471.15 958350
3 1471.55 955984
3 1471.55 955402
3 1471.55 953298
3 1471.97 942956
3 1471.97 942031
3 1471.97 932865
3 1472.75 932012
3 1472.75 924716
3 1473.14 924349
1 1480.13 906510
3 1484.05 1027971
3 1484.05 994304
3 1484.05 978705
3 1484.05 964472
3 1484.05 962984
3 1484.05 958733
3 1484.05 942979
3 1484.05 942084
3 1484.05 936711
3 1484.68 936624
3 1484.68 935123
3 1484.68 934379
3 1484.68 927655
3 1485.13 927046
3 1485.13 912856
3 1485.13 912208
3 1485.13 904190
3 1485.61 899895
3 1485.97 897500
3 1485.97 893606
3 1486.36 893390
3 1487.04 889139
3 1487.39 888630
3 1487.74 888017
3 1489.35 883304
3 1489.35 880742
3 1492.54 880532
3 1498.01 991846
3 1498.01 991753
3 1498.01 988478
3 1498.01 980543
3 1498.01 978641
3 1498.01 959649
3 1498.01 955398
3 1498.01 948548
3 1498.01 944819
3 1498.01 939221
3 1498.01 922719
3 1498.67 920659
3 1498.67 916550
3 1499.69 911926
3 1499.69 910976
3 1510.07 909135
3 1510.07 908613
3 1510.07 908019
3 1512.13 1194652
3 1512.13 1193151
3 1512.13 1140313
1 1512.13 1117009
3 1512.13 1074939
3 1512.13 1066648
3 1512.13 1058135
3 1512.13 1048446
3 1512.13 1011433
3 1512.13 993251
3 1512.13 970648
3 1512.8 964649
3 1512.8 962132
3 1512.8 953268
3 1512.8 948797
3 1513.25 947895
3 1513.97 940075
3 1514.32 934102
3 1514.32 931100
3 1515.35 930797
3 1515.35 917509
3 1515.35 915271
3 1515.35 914194
3 1515.35 910100
3 1515.35 908745
3 1515.85 907244
3 1526.08 1044403
3 1526.08 1036752
3 1526.08 1018805
3 1526.08 1008014
1 1526.08 1004595
3 1526.08 979187
3 1526.08 969861
3 1526.08 969439
3 1526.08 969195
3 1526.08 963853
3 1526.08 962970
3 1526.08 947061
3 1526.08 940211
3 1526.08 939282
3 1526.83 933909
1 1528.17 933810
3 1528.86 933798
3 1528.86 932297
3 1528.86 930651
3 1529.25 930400
3 1529.59 928178
3 1529.59 924396
3 1529.59 920834
3 1529.59 914940
3 1529.59 910477
3 1536.27 910264
3 1536.27 908941
1 1539.2 908308
1 1540.21 1035212
3 1540.21 1010444
3 1540.21 1003594
3 1540.21 1002259
3 1540.21 977747
3 1540.21 974989
3 1540.69 961231
3 1540.69 943821
3 1540.69 941868
3 1540.69 939971
3 1541.12 938470
3 1541.12 935438
3 1541.51 933157
3 1541.51 917411
3 1541.9 916429
3 1541.9 906024
1 1542.32 905685
3 1542.32 901434
3 1542.71 896399
3 1543.41 896353
3 1544.07 895131
3 1552.46 894495
3 1552.46 891026
3 1552.46 889912
3 1554.17 984698
3 1554.17 984658
3 1554.17 980370
3 1554.17 974997
3 1554.17 973020
3 1554.17 967211
3 1554.7 945194
3 1554.7 941098
3 1554.7 937965
3 1554.7 929160
3 1555.15 927876
3 1555.15 919941
3 1555.53 914419
3 1555.53 900705
3 1556.54 900174
3 1568.29 1017394
3 1568.29 1009573
3 1568.29 994727
3 1568.29 976181
3 1568.29 973389
3 1568.29 964876
3 1568.8 954559
3 1568.8 949918
3 1568.8 947235
3 1568.8 945046
3 1568.8 943258
3 1568.8 942765
3 1568.8 939213
3 1569.34 933979
3 1569.34 933335
3 1569.34 933096
3 1569.34 932353
3 1569.34 924817
3 1569.81 923923
3 1582.08 1054482
3 1582.08 1043578
3 1582.08 1007780
3 1582.08 985316
3 1582.08 963834
3 1582.08 956604
3 1582.08 953895
3 1582.08 937199
3 1582.67 935698
3 1582.67 931893
3 1582.67 921046
3 1583.09 914560
3 1583.44 914022
3 1583.44 912654
3 1583.44 905056
3 1588.85 898889
3 1589.23 897928
3 1589.23 897907
3 1596.26 1122070
3 1596.26 1109899
3 1596.26 1095948
3 1596.26 1084929
3 1596.26 1076694
3 1596.26 1074491
3 1596.26 1045635
3 1596.26 1045540
3 1596.84 1039949
3 1596.84 1015638
3 1596.84 1006804
3 1596.84 1005766
3 1596.84 991479
3 1596.84 975789
3 1596.84 971538
3 1596.84 966441
3 1597.36 962298
3 1597.36 948989
3 1597.36 944616
3 1598.71 937689
3 1598.71 933823
3 1598.71 933429
3 1599.11 931473
3 1599.11 924263
3 1600.11 918890
3 1602.01 918774
3 1602.01 918192
3 1602.42 918044
3 1602.42 916543
3 1610.01 1105912
3 1610.01 1074334
3 1610.01 1031918
3 1610.01 1030417
3 1610.01 1029725
3 1610.01 1011163
3 1610.01 1010017
3 1610.01 1004644
3 1610.01 1001231
3 1610.01 971605
3 1610.01 968484
3 1610.73 968451
3 1611.08 962050
3 1611.08 960549
3 1611.5 958337
3 1611.5 952033
3 1612.87 951550
3 1612.87 945622
3 1612.87 945095
3 1613.28 940645
3 1613.28 936385
3 1613.28 935609
3 1613.28 925412
3 1615.25 925171
3 1615.25 924671
3 1615.25 923170
3 1618.15 919507
3 1618.5 918006
3 1618.5 917346
3 1624.24 1048679
3 1624.24 1043485
3 1624.24 1026097
3 1624.24 1016346
3 1624.24 994135
3 1624.24 976733
3 1624.24 966604
3 1624.24 958091
3 1624.24 951241
3 1624.24 945028
3 1624.24 944046
3 1624.91 943509
3 1624.91 943324
3 1624.91 942638
3 1625.53 942545
3 1625.53 942184
3 1625.53 939035
3 1629.11 931952
3 1629.11 930451
3 1629.66 928832
3 1629.66 925001
3 1630.22 914521
3 1631.26 910270
1 1635.38 908863
3 1635.91 906566
3 1635.91 900937
3 1638.07 1081501
3 1638.07 1072985
3 1638.07 1053350
3 1638.07 1036925
3 1638.07 994336
3 1638.07 991799
3 1638.07 987548
3 1638.07 953425
3 1638.85 951738
3 1638.85 949035
3 1639.41 945539
3 1639.94 933710
3 1640.45 929948
3 1641.48 928744
3 1641.48 926223
3 1641.48 923095
1 1642.07 915224
3 1645.05 914785
3 1646.07 914006
3 1646.61 912871
3 1647.13 911889
3 1647.67 906540
3 1648.23 905241
3 1648.8 904468
3 1649.31 904319
3 1652.34 1071707
3 1652.34 1067456
3 1652.34 1063646
3 1652.34 1047843
3 1652.34 1035878
3 1652.34 1016887
3 1652.34 1008608
3 1652.34 966019
3 1653.12 945932
3 1653.12 944431
3 1653.12 938270
3 1656.11 936180
3 1656.11 933853
3 1656.11 930018
3 1656.11 926448
3 1656.11 924610
3 1656.8 921484
3 1656.8 920524
3 1656.8 917296
3 1656.8 915117
3 1657.42 912355
3 1657.42 911373
3 1661.3 910012
3 1661.3 908511
3 1661.3 905485
3 1661.87 904260
3 1666.16 1027297
3 1666.16 1023688
3 1666.16 1018781
3 1666.16 981348
3 1666.16 973095
3 1666.16 961691
3 1666.16 952397
3 1666.88 945896
3 1666.88 944965
3 1667.43 937380
3 1667.43 936210
3 1667.98 921829
3 1667.98 914810
3 1667.98 913316
3 1668.55 911815
3 1671.95 905033
3 1672.96 903532
3 1673.92 902797
3 1680.17 1123038
3 1680.17 1113872
3 1680.17 1061178
3 1680.17 1055805
3 1680.17 1041430
3 1680.17 1013871
3 1680.17 991006
3 1680.17 986755
3 1680.17 971213
3 1680.17 961259
3 1680.97 953215
3 1680.97 946809
3 1680.97 943034
3 1680.97 936379
3 1680.97 933630
3 1680.97 929853
3 1681.65 921222
3 1681.65 915393
3 1681.65 915355
3 1682.24 909364
3 1682.78 906769
3 1682.78 905096
3 1682.78 899341
3 1683.37 894691
3 1683.37 893984
3 1694.29 1058275
3 1694.29 1005501
3 1694.29 1004000
3 1694.29 985335
3 1694.29 982669
3 1694.29 976440
3 1694.29 970632
3 1694.29 957655
3 1694.29 950362
3 1694.29 940588
3 1694.29 938307
3 1695.13 938216
3 1695.64 927072
3 1695.64 924254
3 1695.64 922821
3 1695.64 912834
3 1696.23 908152
3 1696.23 908057
3 1696.23 903726
3 1696.79 902797
3 1708.45 1000784
3 1708.45 984677
3 1708.45 982396
3 1708.45 969513
3 1709.08 960263
3 1709.08 948213
3 1709.08 945438
3 1709.64 944456
3 1709.64 940240
3 1710.16 938679
3 1710.16 929224
3 1710.16 922398
3 1710.72 921995
3 1711.21 919259
3 1713.54 914011
3 1713.54 911634
3 1714.08 907383
3 1714.08 903953
3 1722.4 954509
3 1722.4 945675
3 1722.4 931906
3 1722.4 930924
3 1722.4 930268
3 1722.4 927713
3 1723.07 926017
3 1723.07 915374
3 1723.07 908524
3 1727.27 903045
3 1727.77 899144
3 1727.77 898086
3 1728.31 892074
3 1728.79 891236
3 1729.71 891092
3 1736.11 1060396
3 1736.11 1051880
3 1736.11 1049606
3 1736.11 1018225
3 1736.11 1017717
3 1736.11 989968
3 1736.11 979369
3 1736.86 965750
3 1736.86 957263
3 1736.86 957152
3 1736.86 954972
3 1736.86 948647
3 1736.86 939481
3 1737.52 927866
3 1738 922279
3 1738 920213
3 1738.49 919607
3 1738.49 918905
3 1738.99 917404
3 1738.99 917028
1 1738.99 911150
3 1738.99 909649
3 1738.99 905398
3 1750.02 1052388
3 1750.02 1051268
3 1750.02 1044209
3 1750.02 1042277
3 1750.02 1039115
1 1750.02 1035191
3 1750.02 1029077
3 1750.73 1021633
3 1750.73 1017734
3 1750.73 1016688
3 1750.73 1010379
3 1750.73 1000909
3 1750.73 975839
3 1750.73 975308
3 1750.73 949679
3 1751.45 948412
3 1751.45 947083
3 1752 945545
3 1752.5 945352
3 1753.02 944042
3 1753.02 941755
3 1753.56 936359
3 1753.56 933620
3 1753.56 927193
3 1754.12 926211
3 1755.08 921453
3 1758.33 920249
3 1758.83 912937
3 1763.69 908798
3 1763.69 907794
3 1763.69 899281
3 1764.25 1032408
3 1764.25 1011305
3 1764.25 1000111
3 1764.25 990945
3 1764.25 989444
3 1764.89 984179
3 1764.89 975666
3 1764.89 962767
3 1764.89 958555
3 1765.5 949458
3 1765.5 946397
3 1765.5 939547
3 1766.23 935090
3 1766.88 927653
3 1766.88 925536
3 1766.88 922695
3 1767.56 920920
3 1767.87 917469
3 1768.51 905965
3 1769.16 903806
3 1778.06 995579
3 1778.06 980097
3 1778.06 979576
3 1778.06 975411
3 1778.06 971524
3 1778.06 971173
3 1778.56 966986
3 1778.91 938991
3 1778.91 928797
3 1779.32 927915
3 1780.59 925513
3 1780.59 921794
3 1792.25 1106427
3 1792.25 1089302
3 1792.25 1087801
3 1792.25 1079833
3 1792.25 1077355
3 1792.25 1023745
3 1792.25 1021016
3 1792.99 1016765
3 1792.99 1010826
3 1792.99 1002938
3 1792.99 1000699
3 1792.99 997841
3 1792.99 996432
3 1793.64 996340
3 1793.64 978513
3 1794.18 961180
3 1794.18 954282
3 1794.18 937332
3 1794.18 933569
3 1794.8 927284
1 1794.8 920727
3 1794.8 919745
3 1795.41 917328
3 1806.24 1046480
3 1806.24 1012321
3 1806.24 1003805
3 1806.24 975104
3 1806.24 959389
3 1806.24 947890
3 1806.24 934911
3 1806.24 934793
3 1809.74 921602
3 1810.25 920101
3 1810.75 917005
3 1810.75 916321
3 1811.27 916184
3 1811.27 914820
3 1811.27 913834
3 1811.27 913467
3 1814.66 911129
3 1816.12 910988
3 1816.12 910555
3 1816.12 910031
3 1818.63 909155
3 1818.63 906514
3 1819.61 905261
3 1820.14 1056348
3 1820.14 1035000
3 1820.14 1019654
3 1820.14 992384
3 1820.14 981223
3 1820.14 978991
3 1820.14 972742
3 1820.14 966425
3 1820.14 948814
3 1820.94 945805
3 1820.94 939512
3 1820.94 939174
3 1820.94 930661
3 1820.94 928750
3 1820.94 928383
3 1820.94 922968
3 1821.66 921467
3 1821.66 916094
3 1823.2 916092
3 1823.2 905717
3 1824.69 897315
3 1834.16 1018132
3 1834.16 1003236
3 1834.16 999894
3 1834.16 984336
3 1834.16 978265
3 1834.16 947370
3 1834.16 935624
3 1834.16 932462
3 1834.9 928809
3 1834.9 921672
3 1834.9 915785
3 1836.45 910521
3 1848.42 985664
3 1848.42 974397
3 1848.42 972355
3 1848.42 964822
3 1848.42 940369
3 1849.07 934810
3 1849.07 933113
3 1849.07 929403
3 1849.63 925125
3 1849.63 922505
3 1849.63 920996
3 1850.18 919752
3 1850.18 919664
3 1850.69 908955
3 1851.18 904677
3 1851.18 896292
3 1851.18 894233
3 1851.18 893840
3 1851.18 892339
3 1851.18 891442
3 1852.24 889418
3 1862.13 1155281
3 1862.13 1114701
3 1862.13 1056744
3 1862.13 1054710
3 1862.13 1032645
3 1862.13 1001067
3 1862.13 988020
3 1862.84 968073
3 1862.84 958907
3 1862.84 949558
3 1862.84 937674
3 1862.84 933836
3 1862.84 929364
3 1863.5 928616
3 1863.5 924264
3 1863.5 920013
3 1864.04 918653
3 1864.04 917671
3 1864.04 916170
3 1864.58 913706
3 1864.58 910062
3 1865.51 907507
3 1876.21 1122974
3 1876.21 1114984
3 1876.21 1088503
3 1876.21 1046132
3 1876.21 1009145
3 1876.21 1001824
3 1876.21 982742
3 1876.21 980489
3 1876.21 974152
3 1876.86 965477
3 1876.86 957066
3 1876.86 949469
3 1876.86 945468
3 1876.86 942414
3 1876.86 937416
3 1877.72 936692
3 1877.72 928192
3 1877.72 925663
3 1878.18 925497
3 1878.18 923653
3 1878.18 917385
3 1878.18 916714
3 1878.62 912484
3 1890.11 1089933
3 1890.11 1050585
3 1890.11 1050582
3 1890.11 1043974
3 1890.11 1027577
3 1890.11 1003378
3 1890.11 977908
3 1890.68 969973
3 1890.68 968057
3 1890.68 966095
3 1890.68 961588
3 1890.68 952925
3 1890.68 951424
3 1891.22 945492
3 1892.54 941852
3 1894.17 929635
3 1894.86 919575
3 1894.86 914425
3 1894.86 912358
3 1894.86 912162
3 1895.32 903514
3 1896 901781
3 1896 899279
3 1904.06 1097282
3 1904.06 1096268
3 1904.06 1062109
3 1904.06 1046921
3 1904.06 1015343
3 1904.06 993155
3 1904.06 986818
3 1904.06 979835
3 1904.06 978334
3 1904.06 975987
3 1904.06 974128
3 1904.06 954091
3 1904.06 944337
3 1904.06 940279
3 1904.86 936028
3 1906.5 935955
3 1906.5 932793
3 1906.89 931292
3 1906.89 927833
3 1907.29 920615
3 1907.29 914950
3 1907.29 908772
3 1907.7 908716
3 1908.04 907215
3 1918.17 1072874
3 1918.17 1034946
3 1918.17 1029169
3 1918.17 1019264
3 1918.17 1004352
3 1918.17 995839
3 1918.17 991515
3 1918.75 977468
3 1918.75 947489
3 1919.15 936991
3 1919.15 932667
3 1919.6 932325
3 1919.6 928416
3 1921.02 919868
3 1921.37 918886
3 1921.72 917385
3 1923.06 915107
3 1932.23 944942
3 1932.23 931798
3 1932.23 931149
3 1932.65 929915
3 1933.37 929633
3 1933.37 917477
3 1933.37 915887
3 1933.37 915527
3 1933.37 912229
3 1933.87 911607
3 1946.12 1000480
3 1946.12 989156
3 1946.12 987840
3 1946.12 971933
3 1946.12 945201
3 1946.12 945150
3 1946.12 918959
3 1946.12 910784
3 1947.14 910290
3 1947.14 904148
3 1947.14 898103
3 1947.14 896688
3 1947.91 895022
3 1947.91 894596
3 1947.91 893016
3 1948.74 892781
3 1953.59 891697
3 1953.59 887894
3 1954.28 883345
3 1954.28 882363
3 1954.28 881572
3 1954.28 881509
3 1954.28 879890
3 1954.77 879532
3 1954.77 877077
3 1960.05 1074813
3 1960.05 1066297
3 1960.05 1056156
3 1960.05 1004941
3 1960.05 990032
3 1960.05 981830
3 1960.05 977716
3 1960.05 976752
3 1960.05 950681
3 1960.05 943433
3 1960.83 933551
3 1961.29 933038
3 1961.29 924626
3 1963.1 924509
3 1963.1 923872
3 1963.86 914616
3 1967.25 913843
3 1968.99 913797
3 1968.99 897335
3 1969.52 895992
3 1974.04 1056672
3 1974.04 1016548
3 1974.04 998631
3 1974.04 973518
3 1974.04 953866
3 1974.58 947328
3 1974.58 943078
3 1974.58 938827
3 1974.58 932490
3 1975.04 931629
3 1975.04 930647
3 1975.04 927498
3 1975.45 923200
3 1975.45 919739
3 1975.82 918380
3 1983.93 914219
3 1983.93 897505
3 1986.35 896333
3 1986.35 890960
3 1988.06 1007818
3 1988.06 993550
3 1988.06 989731
3 1988.06 989299
3 1988.06 988230
3 1988.68 960957
3 1988.68 957795
3 1988.68 950945
3 1989.88 949886
3 1989.88 949133
3 1989.88 942252
3 1989.88 938718
3 1989.88 936879
3 1989.88 936369
3 1989.88 934351
3 1990.54 932716
3 1990.54 930399
3 1990.54 916030
3 1990.54 906444
3 1990.54 905636
3 1990.54 905298
3 1991.09 904775
3 1991.09 902263
3 1991.09 901951
3 1991.09 901385
3 1991.57 901047
3 1991.57 900524
3 2002.39 996113
1 2002.39 991866
3 2002.39 986958
3 2002.39 968583
3 2002.39 963376
3 2002.39 939982
3 2003.05 939695
3 2003.05 938663
3 2003.05 930628
3 2003.7 928587
3 2003.7 927933
3 2004.24 924530
3 2005.58 922943
3 2005.58 922014
3 2005.99 920843
3 2006.43 918150
3 2006.43 916649
3 2007.21 914094
3 2007.6 912908
3 2008.01 910749
3 2016.2 1000782
3 2016.2 995207
3 2016.2 986691
3 2016.2 972506
3 2016.2 951499
3 2016.2 946329
3 2016.2 944828
3 2016.2 922617
3 2016.76 920301
3 2017.14 917057
3 2017.14 911788
3 2018.49 910740
3 2018.85 907271
3 2020.14 907178
3 2030.13 997613
3 2030.13 953028
3 2030.13 947629
3 2030.13 944177
3 2030.13 941046
3 2030.13 935673
3 2030.8 929424
3 2030.8 924679
3 2030.8 919377
3 2031.42 915655
3 2031.42 913070
3 2031.99 905514
3 2031.99 895683
3 2031.99 893375
3 2031.99 889124
3 2044.39 978689
3 2044.39 975540
3 2044.39 975398
3 2044.39 974194
3 2044.39 956156
3 2044.39 952930
3 2045.14 951829
3 2045.14 944567
3 2045.72 928457
3 2047.21 926932
3 2047.72 926779
3 2050.12 925525
3 2051.56 920434
3 2051.56 919085
3 2051.56 916734
3 2053.61 912311
3 2054.15 910796
3 2054.15 907161
3 2058.22 1041080
3 2058.22 1014067
3 2058.22 1003066
3 2058.22 1002751
3 2058.22 1001161
3 2058.93 999660
3 2058.93 981858
3 2058.93 979039
3 2058.93 965935
3 2058.93 960393
3 2058.93 958579
3 2058.93 956856
3 2058.93 955355
3 2058.93 950478
3 2059.74 948581
3 2059.74 947080
3 2059.74 940743
3 2059.74 920959
3 2059.74 919054
3 2060.39 915882
3 2060.39 914900
3 2060.98 907788
3 2063.02 906709
3 2064.95 906703
3 2065.94 905946
3 2066.44 903090
3 2066.44 895631
3 2067.01 893416
3 2067.01 892359
3 2068.01 892171
3 2072.5 1024821
3 2072.5 977110
3 2072.5 965769
3 2072.5 964107
3 2072.5 959623
3 2072.5 955372
3 2072.5 951921
3 2073.26 948635
3 2073.26 947320
3 2073.26 926386
3 2073.26 925109
3 2073.89 917152
3 2073.89 915473
3 2074.46 914491
3 2074.97 910240
3 2077.42 909837
3 2085.5 909180
3 2086 1045993
3 2086 1042844
3 2086 1024764
3 2086 1003175
3 2086 995123
3 2086 994109
3 2086 993435
3 2086 992453
3 2086.77 988627
3 2086.77 973598
3 2086.77 968228
3 2086.77 963024
3 2086.77 935875
3 2087.91 929025
1 2099 919466
3 2099 918484
3 2099.56 914233
3 2100.08 1025800
3 2100.08 1012097
3 2100.08 1011598
3 2100.08 1011260
3 2100.08 985516
3 2100.08 974051
3 2100.08 969579
3 2100.08 965328
3 2100.08 962559
3 2100.9 953393
3 2100.9 950877
3 2100.9 942102
3 2101.5 928214
3 2102.02 916835
3 2102.02 914829
3 2102.58 910866
3 2102.58 907979
3 2105.59 902338
3 2105.59 899178
3 2105.59 898820
3 2106.18 894943
3 2106.18 893660
3 2106.18 891850
3 2107.24 888093
3 2107.75 886801
3 2108.27 883915
3 2114.1 1025275
3 2114.1 1019159
3 2114.1 1018390
3 2114.1 1016109
3 2114.1 993706
3 2114.1 978941
3 2114.1 975562
3 2114.86 969652
3 2114.86 969151
3 2114.86 967831
3 2114.86 948744
3 2114.86 946474
3 2115.52 941894
3 2115.52 932930
3 2115.52 920775
3 2115.52 920451
3 2116.15 920047
3 2116.66 918950
3 2117.18 916982
3 2117.69 914043
3 2117.69 910881
3 2122.12 907384
3 2122.12 907142
3 2122.71 905641
3 2122.71 905544
3 2123.28 897028
3 2123.28 895527
3 2128.14 1002375
3 2128.14 998124
3 2128.14 987434
3 2128.14 979218
3 2128.14 976675
3 2128.8 972652
3 2128.8 967279
3 2129.35 966608
3 2129.35 960429
3 2129.35 958570
3 2129.35 957588
3 2129.35 952178
3 2129.35 952125
3 2129.35 945083
3 2130.53 941304
3 2131.03 932775
3 2131.03 924259
3 2131.03 920952
1 2138.12 912997
3 2142.05 1119437
3 2142.05 1111011
3 2142.05 1098772
3 2142.05 1090844
3 2142.05 1035649
3 2142.05 999393
3 2142.05 990569
3 2142.05 988156
3 2142.05 987024
3 2142.05 972123
3 2142.88 968462
3 2142.88 964071
3 2142.88 954217
3 2142.88 948725
3 2143.46 944916
3 2143.46 944578
3 2143.46 930851
3 2144.04 926963
3 2144.04 918474
3 2144.61 912290
3 2144.61 910422
3 2145.15 905049
3 2156.09 1083987
3 2156.09 1079146
3 2156.09 1077597
3 2156.09 1048451
3 2156.09 995348
3 2156.09 985413
3 2156.09 970426
3 2156.09 965053
3 2156.09 964071
3 2156.9 954217
3 2156.9 949907
3 2156.9 944711
3 2156.9 926606
3 2157.56 924706
3 2157.56 924501
3 2157.56 920455
3 2158.17 909597
3 2158.17 908691
3 2158.17 902056
3 2158.74 901289
3 2158.74 898140
3 2159.3 895303
3 2159.3 894787
3 2160.78 893837
3 2161.31 892336
3 2170.47 976980
3 2170.47 971607
3 2171.07 967224
3 2171.07 963287
3 2171.63 963272
3 2171.63 957914
3 2172.22 957202
3 2172.77 951406
3 2172.77 948963
3 2172.77 948748
3 2173.41 947836
3 2173.41 947295
3 2173.41 946313
3 2174 945771
3 2174 945694
3 2174 939784
3 2174.58 930607
3 2174.58 928974
3 2184.07 1042453
3 2184.07 1020781
3 2184.07 1013906
3 2184.07 1013484
3 2184.07 999721
3 2184.07 998142
3 2184.07 993665
3 2184.07 992164
3 2184.07 981109
3 2184.07 974309
3 2184.98 972394
3 2184.98 954150
3 2184.98 949215
3 2185.58 948932
3 2185.58 935881
3 2186.14 927946
3 2188.99 925651
3 2193.19 920768
3 2194.16 920438
3 2194.16 919473
3 2195.19 918491
3 2195.19 917191
3 2195.19 913893
3 2198.16 1111407
3 2198.16 1103472
3 2198.16 1062896
3 2198.16 1061449
3 2198.16 1040221
3 2198.16 1039239
3 2198.16 1034968
3 2198.16 1026511
3 2198.16 1022866
3 2198.16 991779
1 2199.03 988360
3 2199.03 985427
3 2199.03 985288
3 2199.03 973988
3 2199.03 962685
3 2199.03 943533
3 2200.92 943045
3 2200.92 940854
3 2201.48 938609
3 2202.01 937121
3 2202.01 934499
3 2203.01 925962
3 2203.01 921947
3 2203.52 917478
3 2203.52 911461
3 2203.52 908299
3 2204.07 902132
3 2212.17 1048458
3 2212.17 1001775
3 2212.17 1001374
3 2212.17 988533
3 2212.17 975103
3 2212.17 968491
3 2212.88 966990
3 2212.88 965488
3 2212.88 947412
3 2212.88 938318
3 2212.88 932066
3 2213.54 925551
3 2214.07 920178
3 2219.87 913421
3 2219.87 907916
3 2220.47 906869
3 2220.99 899098
3 2220.99 897991
3 2222.01 892051
3 2222.01 891881
3 2223.09 891069
3 2223.09 883961
3 2223.63 883017
3 2226.46 1081802
1 2226.46 1063737
3 2226.46 1020027
3 2226.46 966324
3 2226.46 963686
3 2226.46 959435
3 2226.46 956825
3 2226.46 941999
3 2226.46 941721
3 2227.3 926269
3 2227.3 923915
3 2227.3 915815
3 2227.3 900118
3 2227.93 899132
3 2228.91 898454
3 2240.06 1128287
3 2240.06 1094325
3 2240.06 1074677
3 2240.06 1055988
3 2240.06 1028934
3 2240.06 1028239
3 2240.06 1024205
3 2240.06 1020421
1 2240.06 1002330
3 2240.06 989299
3 2240.72 988317
3 2240.72 954936
3 2240.72 945039
3 2240.72 944011
3 2240.72 935873
3 2241.22 934891
3 2243.51 932281
3 2243.86 930371
3 2243.86 925069
3 2244.25 921431
3 2244.59 913154
3 2244.59 912813
3 2244.93 908920
3 2245.28 907646
3 2246.5 906020
3 2246.85 905038
3 2247.18 903605
3 2247.18 902568
3 2247.85 894294
3 2254.13 1071712
3 2254.13 1061404
3 2254.13 1035042
3 2254.13 1031576
3 2254.13 1026526
3 2254.13 1000634
3 2254.13 992699
3 2254.69 980825
3 2254.69 965597
3 2254.69 965090
3 2254.69 963846
3 2255.15 957503
3 2255.15 953252
3 2255.52 945354
3 2255.52 941507
3 2255.93 936706
3 2255.93 936134
3 2256.32 931342
3 2256.32 922829
3 2256.32 922736
3 2256.73 921754
3 2256.73 914537
3 2267.7 912042
3 2268.06 1160857
3 2268.06 1114155
3 2268.06 1073579
3 2268.06 1050242
3 2268.06 1041726
3 2268.06 1024251
3 2268.06 1001648
3 2268.06 990940
3 2268.06 975776
3 2268.06 971506
3 2268.06 961637
3 2268.67 959643
3 2268.67 951130
3 2268.67 941964
3 2269.06 940463
3 2269.06 935090
3 2270.08 929757
3 2270.45 918557
3 2270.45 916448
3 2282.18 1087046
3 2282.18 1070543
3 2282.18 1052717
3 2282.18 1029760
3 2282.18 1027113
3 2282.18 992347
3 2282.18 983831
3 2282.18 964687
3 2282.84 962040
3 2282.84 960539
3 2282.84 941029
3 2283.27 938630
3 2283.63 935468
3 2283.63 931503
3 2284.01 928453
3 2284.36 927252
3 2284.36 926952
3 2286.97 926360
3 2287.31 926125
3 2287.31 924091
3 2287.68 919638
3 2296.1 1093013
3 2296.1 1078851
3 2296.1 1038255
3 2296.1 1016801
3 2296.1 991022
3 2296.1 990404
3 2296.1 964179
3 2296.1 951779
3 2296.86 948418
3 2296.86 944167
3 2296.86 941081
3 2296.86 937952
3 2310.42 1060572
3 2310.42 1026222
3 2310.42 1017287
3 2310.42 991546
3 2310.42 975417
3 2310.42 967397
3 2310.42 958881
3 2310.42 957899
3 2310.42 957430
3 2310.42 954281
3 2310.42 954176
3 2310.42 952652
3 2310.42 950062
3 2311.34 932271
3 2311.34 921774
3 2311.34 920207
3 2311.34 919214
3 2311.95 916809
3 2312.47 915466
3 2312.47 913224
3 2324.32 998578
3 2324.32 983555
3 2324.32 971493
3 2324.32 959324
3 2324.32 957365
3 2324.32 956577
3 2324.32 934790
3 2324.32 929955
3 2324.32 928728
3 2324.32 921910
3 2325.16 910068
3 2325.67 906353
3 2325.67 905371
3 2326.66 900330
3 2326.66 892639
3 2327.67 890359
3 2328.17 888973
3 2329.19 888388
3 2338.19 958122
3 2338.19 945388
3 2338.19 930488
3 2338.19 923904
3 2338.19 923648
3 2338.19 922666
3 2338.19 919759
3 2338.19 919392
3 2338.19 916547
3 2346.43 910681
3 2347.45 910110
3 2352.04 977091
3 2352.04 975128
3 2352.04 951534
3 2352.04 944684
3 2352.04 940584
3 2352.04 940433
3 2352.56 936394
3 2352.56 932527
3 2352.94 931598
3 2352.94 931098
3 2352.94 930921
3 2352.94 926543
3 2352.94 924584
3 2353.44 918751
3 2353.44 917930
3 2353.44 917599
3 2353.86 917102
3 2354.23 910252
3 2354.94 905225
3 2354.94 903673
3 2354.94 901980
3 2354.94 899861
3 2355.41 893041
3 2355.41 890661
3 2366.23 1066138
3 2366.23 1038463
3 2366.23 1026959
3 2366.23 1018961
3 2366.23 993851
3 2366.23 988732
3 2366.23 980861
3 2366.23 979925
3 2366.87 977650
3 2366.87 972389
3 2366.87 966187
3 2366.87 964965
3 2366.87 954315
3 2367.36 950064
3 2367.36 949421
3 2367.75 941237
3 2367.75 938620
3 2368.13 938081
3 2368.13 923719
3 2368.13 917714
3 2368.58 917382
3 2368.92 916432
3 2368.92 914931
3 2368.92 909786
3 2369.32 907229
3 2372.16 907212
3 2372.16 906892
3 2372.16 905242
3 2372.16 904487
3 2372.16 903741
3 2372.61 902169
3 2372.61 901622
3 2372.98 898473
3 2373.33 895806
3 2373.33 892136
3 2380.14 1025362
3 2380.14 993805
3 2380.14 984786
3 2380.14 952407
3 2380.14 950906
3 2380.14 947470
3 2380.64 939981
3 2380.64 935611
3 2381.01 929852
3 2381.37 926450
3 2381.71 925879
3 2382.05 924378
3 2382.05 922928
3 2382.48 918746
3 2382.82 911683
3 2394.16 1032320
3 2394.16 1021997
3 2394.16 1020983
3 2394.16 1018292
3 2394.16 1001890
3 2394.16 1000565
3 2394.16 995192
3 2394.73 989686
3 2394.73 989060
3 2394.73 980554
3 2394.73 980052
3 2394.73 967245
3 2394.73 962413
3 2394.73 951284
3 2394.73 945708
3 2394.73 942225
3 2395.31 938858
3 2395.65 933352
3 2395.65 925711
3 2395.65 924923
3 2395.65 923633
3 2395.65 912586
3 2395.65 910647
3 2396.45 908234
3 2408.11 997575
3 2408.11 956999
3 2408.11 954981
3 2408.11 941348
3 2408.11 932570
3 2408.11 929607
3 2408.11 927586
3 2408.67 920736
3 2408.67 919594
3 2410.64 916485
3 2411.95 914598
3 2412.29 913097
3 2422.18 1060485
3 2422.18 1028894
3 2422.18 1009468
3 2422.18 1004386
3 2422.18 1001145
3 2422.18 980449
3 2422.18 977785
3 2422.18 970832
3 2422.74 970060
3 2423.08 965809
3 2424.07 963771
3 2424.42 942997
3 2424.42 940176
3 2424.8 939194
3 2424.8 930114
3 2424.8 926802
3 2425.53 924857
3 2425.53 921708
3 2425.91 920929
3 2427.18 918308
3 2427.52 917887
3 2427.87 917326
3 2436.3 1081607
3 2436.3 1054535
3 2436.3 1049720
3 2436.3 1037648
3 2436.3 1009079
3 2436.3 997885
3 2436.85 980552
3 2436.85 980183
3 2436.85 970368
3 2436.85 970152
3 2436.85 970041
3 2436.85 968203
3 2436.85 964839
3 2437.38 963819
3 2438.05 958446
3 2438.4 954195
3 2438.76 938214
3 2438.76 932532
3 2439.14 931555
3 2439.14 928942
3 2439.52 926465
3 2440.48 925068
3 2440.48 921906
3 2440.48 911153
3 2440.48 910838
3 2440.9 909224
3 2441.23 907491
3 2441.23 905981
3 2441.23 901672
3 2450.06 980473
3 2450.06 978719
3 2450.06 967242
3 2450.06 961869
3 2450.06 956135
3 2450.6 945192
3 2450.6 935314
3 2450.6 929135
3 2450.6 921777
3 2451.45 921279
3 2451.83 915888
3 2451.83 912763
3 2451.83 905583
3 2462.78 903616
3 2463.27 901057
3 2464.16 1042271
3 2464.16 1034664
3 2464.16 1022948
3 2464.16 1017851
3 2464.16 1017615
1 2464.16 993087
3 2464.16 988603
3 2464.16 988507
3 2464.16 983191
3 2464.16 974675
3 2464.16 962475
3 2464.86 958353
3 2464.86 950331
3 2464.86 943026
3 2464.86 941519
3 2464.86 929734
1 2464.86 924391
3 2464.86 923663
3 2465.45 922688
3 2465.45 917346
3 2465.45 916338
3 2465.45 914183
3 2465.89 913644
3 2465.89 913188
3 2465.89 912206
3 2466.31 908378
3 2467.1 906064
3 2467.51 902286
3 2467.51 902062
1 2468.22 900263
3 2468.57 897912
3 2477.12 894890
3 2478.04 1006367
3 2478.04 997284
3 2478.04 983626
3 2478.04 977681
3 2478.04 945437
3 2478.04 943936
3 2478.04 937959
3 2478.85 931797
3 2478.85 929224
3 2479.46 927082
3 2481.05 921709
3 2484.74 920811
3 2486.85 917329
3 2486.85 914764
3 2486.85 913556
3 2487.48 912565
3 2487.48 911956
3 2489.09 911150
3 2489.63 909617
3 2492.1 1027314
3 2492.1 1019751
3 2492.1 970475
3 2492.1 947872
3 2492.1 930614
3 2492.1 923764
3 2492.1 919862
3 2492.1 919583
3 2492.93 918630
3 2492.93 911340
3 2492.93 908527
3 2493.53 899831
3 2493.53 895429
3 2493.53 892525
3 2493.53 892252
3 2495.59 891344
3 2506.02 1102270
3 2506.02 1058709
3 2506.02 1050774
3 2506.02 1049273
3 2506.02 1044337
3 2506.02 1024734
3 2506.02 1019637
3 2506.02 1014882
3 2506.02 993609
3 2506.02 986550
3 2506.02 976612
3 2506.02 971398
3 2506.98 969993
3 2506.98 954219
3 2506.98 943666
3 2507.6 941406
3 2507.6 937187
3 2507.6 935731
1 2508.24 923425
3 2508.79 919685
3 2508.79 918184
3 2520.14 1140371
3 2520.14 1093669
3 2520.14 1085153
3 2520.14 1084153
3 2520.14 1040995
3 2520.14 1040657
3 2520.14 1014478
3 2520.14 1003009
3 2520.14 981744
3 2520.14 980243
1 2520.14 967623
3 2520.14 964838
3 2521.06 964776
3 2521.06 964235
3 2521.63 962734
3 2522.18 957420
3 2522.18 938707
3 2523.22 937895
3 2523.22 936394
3 2524.82 933986
3 2526.32 925470
3 2527.79 924481
3 2528.3 921640
3 2534.05 1059839
3 2534.05 1048114
3 2534.05 1017513
3 2534.05 1017250
3 2534.05 975025
3 2534.05 970285
3 2534.05 961119
3 2534.05 959708
3 2534.05 951192
3 2534.05 948332
3 2534.87 946831
3 2534.87 944695
3 2534.87 942580
3 2535.47 941808
3 2535.97 940796
3 2535.97 940114
3 2536.53 939295
3 2537.07 939030
3 2537.07 934167
3 2537.07 933684
3 2537.07 929862
3 2537.68 922933
3 2537.68 917488
3 2537.68 913991
3 2537.68 908244
3 2537.68 908185
3 2548.4 1119670
3 2548.4 1065703
3 2548.4 1054207
3 2548.4 1030556
1 2548.4 1013743
3 2548.4 1005227
3 2548.4 998759
3 2548.4 998168
3 2549.17 996063
3 2549.17 980580
3 2549.17 971116
3 2549.17 964485
3 2549.81 956550
3 2549.81 956317
3 2549.81 947847
3 2550.39 944685
3 2550.9 944465
3 2550.9 941182
3 2551.45 935883
3 2551.45 934235
3 2555.43 922761
3 2558.28 922207
3 2558.8 921006
3 2558.8 916834
3 2562.15 1043293
3 2562.15 1037632
3 2562.15 997927
3 2562.15 995246
3 2562.15 993745
3 2562.15 984579
3 2562.15 983310
3 2562.15 968885
3 2562.94 966347
3 2562.94 964846
3 2562.94 961684
3 2562.94 960702
3 2562.94 953797
3 2562.94 943802
3 2565.59 942377
3 2565.59 933211
3 2565.59 930049
3 2566.17 928957
3 2566.69 922118
3 2567.21 920566
3 2567.21 913602
3 2568.24 912620
3 2568.76 907704
3 2569.26 905104
3 2569.76 904465
3 2569.76 900187
3 2570.32 898875
3 2570.32 894814
3 2570.86 893459
3 2571.39 891537
3 2571.39 890555
3 2571.39 886707
1 2576.5 935232
3 2576.5 933420
3 2576.5 932523
3 2576.5 929452
3 2576.5 927082
3 2576.5 924007
3 2577.21 923920
3 2577.74 915985
1 2582.62 915646
3 2582.62 914841
3 2583.17 914675
3 2583.67 912367
3 2584.19 909218
3 2585.16 903743
3 2590.06 1021153
3 2590.06 1021127
3 2590.06 1015754
3 2590.06 972390
3 2590.06 959591
3 2590.06 959366
3 2590.06 952261
3 2590.06 949736
3 2590.81 947142
3 2590.81 945794
3 2590.81 940474
3 2590.81 940321
3 2590.81 936606
3 2591.45 935477
3 2591.45 934948
3 2592.01 933600
3 2592.01 930114
3 2592.01 926952
3 2601.97 918308
3 2601.97 917326
3 2604.39 1115393
3 2604.39 1106227
3 2604.39 1093084
3 2604.39 1037889
3 2604.39 1021134
3 2604.39 1008165
3 2604.39 959955
3 2604.39 949405
3 2605.14 949186
3 2605.14 948725
3 2605.14 946217
3 2605.14 941365
3 2605.14 938479
3 2605.14 934000
3 2605.14 932499
3 2605.14 928248
3 2605.14 900924
3 2609.88 894293
3 2610.36 891623
3 2610.83 891199
3 2610.83 890217
3 2611.32 887956
3 2618.19 1153082
3 2618.19 1147709
3 2618.19 1129147
3 2618.19 1088551
3 2618.19 1037241
3 2618.19 1029885
3 2618.19 995962
3 2618.19 986209
3 2618.19 975415
3 2619.05 973785
3 2619.05 947954
3 2619.05 942344
3 2619.05 941418
3 2619.6 934098
3 2619.6 928322
3 2620.02 923858
3 2622.21 906860
3 2622.56 906525
3 2623.82 906222
3 2624.14 898044
3 2624.14 891964
3 2624.14 888609
3 2624.14 887850
3 2624.14 882306
3 2624.14 881647
3 2624.14 881218
3 2624.94 880236
3 2632.01 984179
3 2632.01 983127
3 2632.01 979978
3 2632.01 979950
3 2632.01 974129
3 2632.01 970660
3 2632.01 959664
3 2632.01 953606
3 2632.01 952842
3 2632.64 936907
3 2632.64 925153
3 2632.64 918303
3 2633.05 909824
3 2633.05 908842
3 2633.05 907341
3 2633.45 907248
3 2633.45 904086
3 2635.11 902788
3 2646.08 1132583
3 2646.08 1131601
3 2646.08 1081240
3 2646.08 1043768
3 2646.08 1030033
3 2646.08 1021601
3 2646.08 998293
3 2646.08 990358
3 2646.08 986347
3 2646.08 981552
3 2646.08 980375
3 2646.08 969181
3 2646.08 959246
3 2646.8 957949
3 2647.17 956448
3 2647.17 952667
3 2647.56 945995
3 2647.56 934474
3 2647.56 932549
3 2647.56 929187
1 2648 925508
3 2648.38 920135
3 2649.36 916458
3 2649.36 898502
3 2650.44 896132
3 2650.44 894631
3 2650.44 894251
3 2660.28 975360
3 2660.28 961207
3 2660.28 957111
3 2660.28 940656
3 2660.28 938160
3 2660.79 938027
3 2660.79 932305
3 2660.79 925304
3 2660.79 904256
3 2661.61 902166
3 2661.61 896450
3 2662.02 895553
3 2662.02 892797
3 2662.02 889036
3 2662.54 887685
3 2662.54 886820
1 2666.13 885694
3 2666.13 884797
3 2674.28 1065990
3 2674.28 1050392
3 2674.28 1040292
3 2674.28 1013056
3 2674.28 1007683
3 2674.28 1003398
3 2674.28 978193
3 2674.28 975168
3 2674.28 972186
3 2674.28 955640
3 2674.28 955459
3 2674.28 954139
3 2675.03 954111
3 2675.39 949788
3 2675.75 938044
3 2675.75 936479
3 2683.09 917540
3 2683.09 910865
3 2683.09 909883
3 2683.76 908415
3 2688.34 986562
3 2688.34 981457
3 2688.34 968148
3 2688.34 952854
3 2688.34 951353
3 2688.34 947043
3 2688.34 946061
3 2689.05 940878
3 2689.05 936627
3 2690.01 934240
3 2690.01 933258
3 2690.48 931757
3 2691.82 923243
3 2691.82 922533
3 2692.39 901244
3 2692.83 897657
3 2692.83 896704
3 2693.39 895890
3 2694.01 895106
3 2694.01 889135
3 2694.01 888153
3 2702.41 1010800
3 2702.41 959612
3 2702.41 957709
3 2702.41 944806
3 2702.41 943392
3 2702.41 937383
3 2702.41 932556
3 2703.18 923736
3 2703.18 917218
3 2703.18 914056
3 2703.81 911094
3 2703.81 910288
3 2703.81 910115
3 2703.81 907639
3 2704.43 906944
3 2704.43 898892
3 2704.43 898179
3 2705.49 898086
3 2705.49 897610
3 2705.49 895848
3 2706.05 893840
3 2706.05 892339
3 2707.07 891353
3 2707.07 890605
3 2707.07 889482
3 2708.12 882632
3 2716.33 1047782
3 2716.33 1046281
3 2716.33 1031029
3 2716.33 1027792
3 2716.33 1022429
3 2716.33 994680
3 2716.33 975933
3 2716.33 975624
3 2718.1 956259
3 2718.1 955310
3 2718.1 947924
3 2718.57 947162
3 2718.57 943508
3 2719.04 932740
3 2719.04 915357
3 2719.04 912208
3 2719.54 911027
3 2719.54 910772
3 2720.25 910408
3 2720.25 910361
3 2721.01 905311
3 2721.42 904453
3 2721.42 903511
3 2722.54 901861
1 2727.14 898912
3 2730.29 1051532
3 2730.29 1008541
3 2730.29 976174
3 2730.29 946543
3 2730.29 927728
3 2730.29 926446
3 2730.29 922564
3 2733.83 909255
3 2744.08 1097044
3 2744.08 1094315
3 2744.08 1088942
3 2744.08 1084393
3 2744.08 1039735
3 2744.08 1037454
3 2744.08 1030086
3 2744.08 1001915
3 2744.08 985692
3 2744.71 960413
3 2744.71 954204
3 2744.71 954114
3 2745.39 948741
3 2745.73 945278
3 2745.73 938975
3 2746.1 931707
3 2746.1 930114
3 2746.1 929138
3 2747.1 929126
3 2747.43 926952
3 2748.04 922894
3 2748.04 920848
3 2748.04 914959
3 2758.05 1048511
3 2758.05 1047450
3 2758.05 1046583
3 2758.05 1038432
3 2758.05 997256
3 2758.05 974550
3 2758.05 963411
3 2758.05 958248
3 2758.05 944257
3 2758.05 939142
3 2758.05 916053
3 2758.05 904570
3 2758.05 902565
3 2758.85 897052
3 2759.27 890665
3 2759.68 889964
3 2759.68 888406
3 2760.06 887424
3 2763.9 886815
3 2764.82 886414
3 2772.25 1086247
3 2772.25 1056575
3 2772.25 1048523
3 2772.25 1024967
3 2772.25 1007032
3 2772.25 959323
3 2772.25 959008
3 2772.25 939481
3 2772.88 934885
3 2772.88 933903
3 2772.88 930115
3 2773.65 925851
3 2774.15 920041
3 2774.15 917346
3 2775.02 913877
3 2786.26 1116657
3 2786.26 1087980
3 2786.26 1083818
3 2786.26 1075766
3 2786.26 1065274
3 2786.26 1056108
3 2786.26 1041138
3 2786.26 1024996
3 2786.26 1019275
3 2786.26 987528
3 2787.15 952247
3 2787.15 927477
3 2788.83 926463
3 2789.69 926146
3 2791.73 925436
3 2792.64 923935
3 2795.05 918210
3 2795.05 912837
3 2796.73 910919
3 2796.73 910568
3 2796.73 909343
3 2797.21 907842
3 2798.96 904020
Score = 925953
