    Blocking waiting for file lock on package cache
    Blocking waiting for file lock on package cache
    Blocking waiting for file lock on package cache
    Finished release [optimized] target(s) in 0.04s
     Running `target/release/tester ../a.out 0033`
3 4.08 1443920
3 4.08 1441603
3 4.08 1440295
3 4.08 1411614
3 4.08 1403988
3 4.08 1401202
3 4.08 1397824
3 5.045 1391184
3 5.045 1383381
3 5.045 1380636
3 5.045 1378669
3 5.045 1378287
3 5.045 1358096
3 5.045 1357328
3 6.012 1357045
3 6.828 1352363
3 6.828 1351921
3 7.681 1350900
3 7.681 1346024
3 9.209 1345723
3 9.952 1342679
3 9.952 1341495
3 9.952 1340427
3 10.734 1338863
3 11.45 1334447
3 11.45 1332742
3 12.193 1331725
3 14.307 1465801
3 14.307 1434539
3 14.307 1432918
3 14.307 1422070
3 14.307 1420900
3 14.307 1408324
3 14.307 1397712
3 15.295 1394947
3 15.295 1394404
3 15.295 1393204
3 15.295 1385173
3 15.295 1382937
3 15.295 1379087
3 15.295 1376709
3 15.295 1370565
3 15.295 1365734
3 15.295 1360557
3 16.228 1359907
3 16.228 1358707
3 16.228 1358512
3 17.503 1352166
3 17.503 1349430
3 17.503 1348039
3 18.175 1347609
3 18.175 1346066
3 19.025 1346008
3 19.025 1345687
3 19.025 1344024
3 19.025 1341707
3 19.981 1338755
3 20.86 1336550
3 21.704 1335328
3 21.704 1332282
3 25.939 1327619
3 26.796 1324884
3 27.62 1324795
3 28.576 1457519
3 28.576 1447478
3 28.576 1416569
3 28.576 1414044
3 28.576 1413906
3 28.576 1410818
3 28.576 1409854
3 28.576 1405586
3 28.576 1389246
3 28.576 1389209
3 29.504 1389024
3 29.504 1385810
3 29.504 1379982
3 29.504 1378812
3 30.195 1378194
3 30.195 1367217
3 30.721 1363667
3 31.25 1359305
3 31.25 1358528
3 31.82 1356258
3 31.82 1355715
3 31.82 1348790
3 31.82 1344825
3 32.841 1344519
3 33.357 1338158
3 39.961 1337473
3 40.784 1336868
3 42.425 1452805
3 42.425 1426440
3 42.425 1416623
3 42.425 1397338
3 42.425 1391697
3 42.425 1383190
3 42.425 1377812
3 42.425 1363899
3 42.425 1361627
3 42.425 1359870
3 43.058 1359431
3 43.058 1344397
3 43.613 1339349
3 44.108 1339323
3 44.613 1328716
3 44.613 1328074
3 44.613 1322929
3 48.948 1322287
3 56.011 1412480
3 56.011 1409842
3 56.011 1402756
3 56.011 1391906
3 56.011 1391489
3 56.011 1382637
3 56.011 1381588
3 56.011 1366891
3 57.023 1361757
3 57.023 1351870
3 57.888 1351833
1 57.888 1349848
3 57.888 1347297
3 58.777 1344018
3 58.777 1343246
3 59.709 1342939
3 60.754 1334957
3 61.648 1333142
3 63.397 1332554
3 63.927 1331015
3 63.927 1329833
3 69.234 1329332
3 69.234 1328579
3 70.347 1437652
3 70.347 1431017
3 70.347 1414907
3 70.347 1408198
3 70.347 1403074
3 70.347 1403065
3 70.347 1400144
3 70.347 1397836
3 71.105 1394551
3 71.105 1394008
3 71.654 1391743
3 72.192 1383942
3 72.192 1380719
3 72.708 1379167
3 72.708 1378263
3 73.308 1374645
3 73.308 1373073
3 73.308 1367949
3 73.308 1360964
3 73.308 1351266
3 73.308 1351068
3 74.116 1348471
3 74.116 1329655
3 75.439 1323545
3 84.444 1450096
3 84.444 1440709
3 84.444 1431964
3 84.444 1414531
3 84.444 1403144
3 84.444 1390685
3 84.444 1378322
3 85.422 1362481
3 85.422 1358582
3 85.422 1352045
3 86.753 1350332
3 86.753 1347465
3 87.326 1345482
3 87.326 1341501
3 87.881 1338734
3 88.433 1336553
3 88.949 1336089
3 88.949 1329553
3 98.666 1409291
3 98.666 1399494
3 98.666 1397041
3 98.666 1390203
3 99.563 1383436
3 99.563 1368005
3 99.563 1366634
3 99.563 1358305
3 99.563 1356712
3 100.193 1356527
3 100.193 1354470
3 100.709 1354211
3 100.709 1354183
3 100.709 1354172
3 101.281 1351778
3 101.281 1348125
3 101.947 1342943
3 101.947 1342851
3 101.947 1339924
3 101.947 1338767
3 102.657 1334740
3 102.657 1328873
3 103.368 1325114
3 103.368 1324423
3 103.368 1321241
3 103.368 1320518
3 104.035 1319512
3 105.298 1318818
3 106.135 1318753
3 106.135 1318047
3 106.135 1317982
3 106.135 1316972
3 106.889 1313190
3 107.376 1312668
3 107.376 1312568
3 107.376 1310345
3 108.397 1310059
3 112.151 1464582
3 112.151 1427959
3 112.151 1410938
3 112.151 1402727
3 112.151 1399077
3 112.151 1393795
3 112.151 1384309
3 112.151 1379660
3 112.151 1377669
3 112.151 1364490
3 112.151 1363162
3 112.789 1361046
3 112.789 1360396
3 112.789 1355307
3 113.327 1351662
3 113.327 1350824
3 113.327 1350120
3 113.327 1347617
3 113.327 1341823
3 113.887 1339220
3 114.39 1338987
3 114.39 1337333
3 115.357 1335037
3 116.348 1333650
3 116.853 1331185
3 117.354 1330977
3 117.855 1330605
3 118.382 1329306
3 118.382 1328155
3 118.382 1327904
3 119.234 1327532
3 119.234 1323376
3 120.222 1319452
3 120.222 1317662
3 120.222 1312723
3 126.519 1477999
3 126.519 1442275
3 126.519 1438604
3 126.519 1436385
3 126.519 1423254
3 126.519 1414061
3 126.519 1395138
3 126.519 1391176
3 127.258 1381722
3 127.258 1371180
3 127.258 1370771
3 127.852 1363502
3 127.852 1361934
3 127.852 1360974
3 127.852 1354961
3 127.852 1352071
3 127.852 1350648
3 128.444 1350363
3 128.444 1347522
3 128.444 1346437
3 128.444 1343041
3 128.444 1338525
3 128.995 1335215
3 130.068 1333627
3 130.596 1326861
3 131.113 1326752
3 131.607 1326487
3 133.766 1326072
3 140.56 1386870
3 140.56 1381997
3 140.56 1367733
3 140.56 1362721
3 140.56 1355804
3 140.56 1354914
3 140.56 1350930
3 141.296 1350606
3 141.296 1345829
3 141.922 1344267
3 141.922 1340727
3 142.583 1337780
3 142.583 1335463
3 142.583 1335257
3 142.583 1335189
3 143.339 1334988
3 143.957 1333632
3 145.51 1330311
3 146.597 1329776
3 147.357 1329072
3 154.461 1444105
3 154.461 1438407
3 154.461 1424378
3 154.461 1414711
3 154.461 1409587
3 154.461 1385076
3 154.461 1383126
3 154.461 1377194
3 154.461 1375104
3 155.104 1374471
3 155.104 1371049
3 155.104 1360314
3 156.474 1357197
3 156.474 1348245
3 156.474 1338179
3 158.759 1336119
3 159.583 1333025
3 159.583 1332232
3 159.583 1327812
3 160.241 1326276
3 160.241 1323944
3 160.758 1322815
3 161.267 1318790
3 161.267 1314775
3 161.267 1313666
3 161.781 1313641
3 162.294 1313160
3 166.343 1312115
3 166.343 1310054
3 166.343 1309833
3 167.192 1308620
3 167.192 1304821
3 167.192 1303658
3 167.192 1302549
3 168.05 1398261
3 168.05 1391594
3 168.05 1387770
3 168.05 1377313
3 168.05 1374784
3 168.05 1367732
3 168.05 1364545
3 168.05 1362690
3 168.05 1362025
3 169.017 1359073
3 169.017 1358467
3 170.686 1353307
3 170.686 1352751
3 171.535 1331517
3 171.535 1330381
3 172.395 1326754
3 173.226 1325264
3 173.226 1323731
3 173.226 1323589
3 173.951 1322953
3 175.421 1321996
3 175.964 1320862
3 175.964 1320142
3 176.511 1316799
3 177.519 1314953
3 177.519 1313526
3 182.907 1389102
3 182.907 1375223
3 182.907 1369438
3 182.907 1365089
3 182.907 1362783
3 182.907 1361955
3 182.907 1356903
3 182.907 1352986
3 183.878 1347682
3 183.878 1346519
3 183.878 1338751
3 184.75 1336632
3 186.415 1333395
3 190.314 1316976
3 192.846 1315999
3 195.267 1310198
3 195.267 1305466
3 196.14 1467806
3 196.14 1456909
3 196.14 1422697
3 196.14 1421510
3 196.14 1420027
3 196.14 1410558
3 196.14 1405779
3 196.14 1405186
3 196.14 1403438
3 196.14 1403290
3 196.14 1394484
3 196.14 1394125
3 197.162 1392626
3 197.162 1381048
3 197.162 1376992
3 197.162 1369067
3 198.057 1366366
3 198.057 1365883
3 198.057 1365262
3 198.967 1363007
3 198.967 1358725
3 198.967 1355239
3 199.682 1353295
3 199.682 1353219
3 199.682 1352401
3 200.213 1349946
3 200.213 1348993
3 200.213 1347233
3 200.923 1346657
3 200.923 1341605
3 200.923 1334938
3 200.923 1330769
3 200.923 1328984
3 201.652 1328806
3 201.652 1323869
3 201.652 1323285
3 202.913 1320774
3 204.022 1317731
3 204.022 1316667
3 204.022 1312234
3 204.022 1311034
3 204.572 1310491
3 210.426 1414324
3 210.426 1409178
3 210.426 1397262
3 210.426 1392579
3 210.426 1385582
3 211.453 1382361
3 211.453 1378697
3 211.453 1376176
3 211.453 1374092
3 211.453 1349721
3 211.453 1345852
3 211.453 1344593
3 212.584 1342276
3 213.423 1338914
3 213.423 1337780
3 214.069 1331724
3 214.069 1330729
3 214.069 1330513
3 215.419 1327900
3 215.419 1327730
3 215.419 1324090
3 215.419 1323054
3 216.515 1321815
3 216.515 1320059
3 224.783 1457302
3 224.783 1451173
3 224.783 1388922
3 224.783 1385164
3 224.783 1384118
3 224.783 1380596
3 225.703 1371790
3 225.703 1371514
3 226.561 1369138
3 226.561 1357838
3 226.561 1357295
3 227.404 1352578
3 228.025 1347872
3 228.025 1345523
3 228.642 1340300
3 228.642 1332492
3 229.167 1331292
3 232.331 1330635
3 232.331 1329053
3 233.186 1326113
3 233.186 1323338
3 238.053 1491223
3 238.053 1483995
3 238.053 1472205
3 238.053 1465866
3 238.053 1429243
3 238.053 1421968
3 238.053 1413949
3 238.053 1413204
3 238.053 1399141
3 238.693 1390030
3 238.693 1384975
3 239.252 1373928
3 239.252 1371090
3 239.252 1364815
3 240.354 1363114
3 240.354 1359449
3 240.354 1357043
3 240.95 1355373
3 240.95 1344964
3 240.95 1343764
3 240.95 1343684
3 240.95 1343404
3 241.578 1341927
3 241.578 1340107
3 241.578 1338668
3 242.129 1333768
3 242.652 1325755
3 242.652 1323882
3 242.652 1322975
3 243.194 1322614
3 243.194 1321366
3 243.713 1320161
3 244.962 1318604
3 245.798 1318302
3 246.438 1315383
3 247.055 1313463
3 247.786 1312818
3 248.5 1312097
3 250.182 1311008
3 250.182 1309311
3 252.773 1423379
3 252.773 1423357
3 252.773 1419789
3 252.773 1411092
3 252.773 1401450
3 252.773 1396116
3 253.882 1395666
3 253.882 1386090
3 253.882 1382817
3 253.882 1375603
3 253.882 1374433
3 253.882 1366807
3 254.699 1360544
3 254.699 1359801
3 254.699 1358601
3 254.699 1357792
3 255.258 1354372
3 255.258 1344872
3 255.258 1344516
3 255.258 1338177
3 255.258 1337452
3 255.842 1336992
3 255.842 1335657
3 256.866 1333551
3 256.866 1331915
3 266.406 1406669
3 266.406 1392389
3 266.406 1387220
3 266.406 1386119
3 266.406 1385477
3 266.406 1384277
3 267.356 1379086
3 267.356 1378543
3 267.356 1376593
3 267.356 1370806
3 268.264 1365682
3 268.264 1360244
3 268.264 1357679
3 268.264 1354496
3 268.264 1349661
3 270.042 1349534
3 270.042 1348991
3 271.699 1348920
3 272.786 1348781
3 273.3 1346847
3 273.3 1345647
3 273.814 1344263
3 273.814 1339860
3 280.488 1400972
3 280.488 1384787
3 280.488 1372135
3 280.488 1370868
3 280.488 1366718
3 280.488 1361011
3 280.488 1358670
3 280.488 1355397
3 281.162 1351230
3 281.162 1344101
3 281.162 1341798
3 282.041 1339512
3 282.041 1334734
3 282.041 1333736
3 282.041 1332236
3 284.829 1326234
3 284.829 1324753
3 284.829 1323614
3 284.829 1319426
3 286.35 1318913
3 287.658 1317385
3 290.198 1312307
3 293.065 1310059
3 293.602 1309949
3 293.602 1309375
3 294.467 1444913
3 294.467 1411857
3 294.467 1410723
3 294.467 1406600
3 294.467 1406301
3 294.467 1400768
3 294.467 1397461
3 294.467 1393151
3 294.467 1376759
3 294.467 1374168
3 295.468 1374131
3 296.338 1373789
3 296.338 1373149
3 297.213 1366810
3 297.213 1358119
3 297.213 1354439
3 297.93 1352077
3 297.93 1347158
3 297.93 1345804
3 297.93 1345458
3 297.93 1340561
3 297.93 1338318
3 298.503 1336468
3 298.503 1334911
3 298.503 1328572
3 298.503 1327909
3 298.503 1322787
3 299.07 1320523
3 299.07 1319148
3 299.07 1316949
3 299.603 1316639
3 299.603 1315023
3 299.603 1314038
3 299.603 1313896
3 300.137 1313670
3 302.538 1313536
3 302.538 1310834
3 303.367 1309641
3 303.367 1308475
3 303.367 1305870
3 303.367 1305237
3 304.245 1301695
3 308.152 1414285
3 308.152 1406132
3 308.152 1403683
3 308.152 1397640
3 308.152 1396591
3 308.152 1383361
3 308.152 1368743
3 308.152 1360846
3 308.781 1360772
3 308.781 1354460
3 308.781 1341749
3 308.781 1339400
3 308.781 1339127
3 309.483 1332492
3 309.483 1327907
3 310.078 1327691
3 310.078 1326660
3 310.615 1321524
3 314.803 1318732
3 314.803 1317220
3 314.803 1315500
3 314.803 1312408
3 314.803 1311471
3 315.691 1311022
3 315.691 1309615
3 315.691 1307723
3 316.279 1306802
3 316.774 1304914
3 316.774 1304461
3 321.94 1303596
3 322.62 1446300
3 322.62 1424115
3 322.62 1415687
3 322.62 1400508
3 322.62 1393416
3 322.62 1382243
3 322.62 1377119
3 323.528 1370168
3 323.528 1362981
3 323.528 1350476
3 323.528 1350415
3 323.528 1347152
3 324.42 1345924
3 324.42 1345769
3 324.42 1345618
3 324.42 1344130
3 324.42 1338955
3 325.335 1337313
3 325.335 1334800
3 325.335 1332787
3 326.831 1330616
3 326.831 1326753
3 326.831 1321120
3 328.534 1318617
3 329.389 1317785
3 329.389 1315344
3 332.206 1313985
3 332.935 1313948
3 336.024 1434918
3 336.024 1419394
3 336.024 1417598
3 336.024 1411307
3 336.024 1401510
3 336.024 1400765
3 336.024 1389028
3 336.639 1374682
3 336.639 1364224
3 336.639 1356182
3 336.639 1341125
3 337.289 1339380
3 337.289 1339064
3 338.085 1338084
3 338.898 1332718
3 340.972 1331489
3 342.389 1327459
3 342.389 1323906
3 342.389 1319365
3 343.201 1318119
3 343.201 1318082
3 350.465 1521876
3 350.465 1520742
3 350.465 1512534
3 350.465 1509819
3 350.465 1505395
3 350.465 1496194
3 350.465 1483117
3 350.465 1466442
3 350.465 1433854
3 350.465 1428543
3 351.428 1428520
3 351.428 1424237
3 351.428 1393201
3 351.428 1390268
3 351.428 1389115
3 351.428 1383983
3 352.362 1383238
3 352.362 1382104
3 352.362 1378217
3 352.362 1373457
3 352.362 1367569
3 353.051 1364746
3 353.051 1356082
3 353.051 1354816
3 353.051 1352156
3 353.051 1351868
3 353.051 1337425
3 353.98 1329083
3 353.98 1326860
3 354.701 1321347
3 355.536 1320463
3 355.536 1318872
3 357.12 1317516
3 357.12 1317259
3 358.401 1317190
3 358.401 1316826
3 359.209 1315392
3 359.209 1314584
3 360.032 1312339
3 360.913 1312013
3 364.06 1467902
3 364.06 1451100
3 364.06 1445976
3 364.06 1436089
3 364.06 1430203
3 364.06 1420067
3 364.06 1403240
3 364.06 1384343
3 365.139 1379338
3 365.139 1372999
3 365.139 1372429
3 365.139 1371442
3 365.139 1362290
3 365.96 1360954
3 365.96 1360187
3 365.96 1357179
3 365.96 1356629
3 366.869 1354626
3 366.869 1353495
3 366.869 1353458
3 367.609 1352694
3 368.19 1352001
3 368.19 1351893
3 368.19 1350844
3 368.81 1348384
3 368.81 1343877
3 368.81 1343507
3 369.593 1334164
3 372.108 1333067
3 372.937 1331714
3 372.937 1324805
3 372.937 1323195
3 374.595 1322962
3 375.405 1321768
3 375.405 1320894
3 377.055 1320613
3 378.274 1415222
3 378.274 1414052
3 378.274 1407693
3 378.274 1393511
3 378.274 1391914
3 378.274 1390017
3 378.274 1389102
3 378.274 1385969
3 378.274 1382951
3 378.274 1376111
3 378.274 1374476
3 378.274 1370342
3 378.274 1370305
3 378.993 1359922
3 378.993 1356119
3 378.993 1355863
3 378.993 1354729
3 379.779 1351462
3 379.779 1347813
3 380.499 1346880
3 380.499 1346114
3 380.499 1334286
3 382.218 1330935
3 383.05 1325620
3 385.392 1323843
3 387.468 1321460
3 387.468 1320469
3 387.468 1315442
3 388.508 1313134
3 389.001 1312869
3 389.527 1311235
3 389.527 1307957
3 389.527 1307740
3 390.567 1305965
3 391.076 1305682
3 391.611 1304960
3 392.131 1418632
3 392.131 1410974
3 392.131 1408592
3 392.131 1406703
3 392.131 1387929
3 392.131 1379329
3 392.131 1371000
3 392.806 1369684
3 392.806 1363499
3 392.806 1360495
3 393.413 1356937
3 393.922 1353605
3 395.834 1353300
3 396.362 1351182
3 396.885 1350983
3 397.396 1342899
3 397.396 1337014
3 397.917 1333922
3 398.604 1332752
3 406.424 1438276
3 406.424 1411755
3 406.424 1380866
3 406.424 1378469
3 406.424 1377896
3 406.424 1374682
3 406.424 1370616
3 406.424 1359024
3 406.424 1358987
3 407.065 1356258
3 407.065 1350738
3 407.065 1338366
3 407.065 1330340
3 408.601 1328486
3 408.601 1327395
3 409.133 1326562
3 410.143 1326393
3 413.519 1325238
3 413.519 1320587
3 414.364 1318728
3 414.364 1318442
3 414.937 1318261
3 414.937 1317313
3 414.937 1315164
3 414.937 1312679
3 415.525 1309791
3 416.397 1306490
3 418.944 1303521
3 420.033 1444637
3 420.033 1435682
3 420.033 1424036
3 420.033 1418912
3 420.033 1416957
3 420.033 1405062
3 420.033 1403274
3 420.033 1394809
3 420.033 1389861
3 420.033 1386148
1 420.033 1376834
3 420.686 1369162
3 420.686 1360096
3 420.686 1354218
3 420.686 1349049
3 420.686 1347274
3 421.42 1342563
3 422.278 1336965
3 423.151 1335784
3 423.151 1335279
3 423.151 1334409
3 424.079 1334311
3 424.883 1329142
3 425.567 1322098
3 426.19 1322058
3 427.168 1319757
3 427.168 1318225
3 427.667 1317281
3 427.667 1317025
3 428.856 1316795
3 429.96 1316550
3 431.24 1315590
3 431.806 1315586
3 431.806 1309915
3 434.506 1441489
3 434.506 1440483
3 434.506 1437271
3 434.506 1427113
3 434.506 1411193
3 434.506 1407560
3 434.506 1401264
3 434.506 1397988
1 434.506 1394384
3 434.506 1391637
3 435.472 1390347
3 435.472 1377819
3 435.472 1374005
3 435.472 1371356
3 436.329 1361254
3 436.329 1360890
3 436.329 1349593
3 436.329 1339944
3 436.869 1338761
3 441.678 1338643
3 444.172 1337655
3 448.235 1442345
3 448.235 1426160
3 448.235 1421160
3 448.235 1419990
3 448.235 1419829
3 448.235 1414660
3 448.235 1412754
3 448.235 1395589
3 448.847 1393810
3 448.847 1390726
3 448.847 1388127
3 448.847 1383909
3 448.847 1383366
3 448.847 1366564
3 448.847 1365338
3 448.847 1361055
3 448.847 1359861
3 448.847 1357436
3 449.49 1355825
3 449.49 1345891
3 449.49 1339485
3 450.01 1339014
3 450.506 1337928
3 451.489 1337518
3 452.009 1337222
3 452.513 1335937
3 452.513 1335457
3 453.079 1331751
3 453.58 1328590
3 453.58 1327878
3 453.58 1326744
3 453.58 1322933
3 453.58 1320613
3 454.12 1315654
3 456.086 1312915
3 456.581 1309273
3 456.581 1308987
3 459.114 1307961
3 459.114 1306827
3 460.249 1306469
3 460.249 1304998
3 461.386 1302361
3 462.421 1508120
3 462.421 1485935
3 462.421 1469595
3 462.421 1450102
3 462.421 1438920
3 462.421 1424966
3 462.421 1422802
3 462.421 1421801
3 462.421 1421707
3 462.421 1420357
3 462.421 1403663
3 463.649 1383734
3 463.649 1367549
3 463.649 1360957
3 463.649 1358353
3 464.629 1356004
3 464.629 1355341
3 464.629 1354338
3 465.561 1346096
3 465.561 1343213
3 466.448 1340938
3 466.448 1338260
3 466.448 1333846
3 467.348 1330402
3 467.348 1329239
3 468.182 1328696
3 469.043 1328373
3 471.541 1327208
3 471.541 1323487
3 471.541 1321446
3 476.498 1444948
3 476.498 1441616
3 476.498 1440482
3 476.498 1437648
3 476.498 1436673
3 476.498 1429833
3 476.498 1422208
3 476.498 1414806
3 476.498 1408171
3 477.478 1399110
3 477.478 1392443
3 477.478 1381730
3 478.067 1381336
3 478.067 1378513
3 478.648 1373846
3 478.648 1372481
3 478.648 1372404
3 478.648 1365694
3 478.648 1362910
3 479.219 1360912
3 479.219 1355277
3 479.219 1354226
3 479.219 1354143
3 479.992 1353867
3 479.992 1352400
3 479.992 1351318
3 480.851 1344979
3 480.851 1344542
3 481.64 1344018
3 482.139 1341314
3 482.635 1338129
3 482.635 1334517
3 483.206 1332854
3 484.871 1332421
3 484.871 1332311
3 490.498 1408568
3 490.498 1402653
3 490.498 1401267
3 490.498 1391380
3 490.498 1390545
3 490.498 1382919
3 490.498 1382179
3 490.498 1381261
3 490.498 1380087
3 490.498 1375819
3 491.187 1366698
3 491.187 1362064
3 491.187 1354164
3 491.729 1348713
3 491.729 1340384
3 491.729 1340186
3 492.258 1340128
3 492.258 1338827
3 492.757 1329293
3 495.821 1326630
3 496.337 1326507
3 496.337 1324785
3 496.858 1324763
3 496.858 1323410
3 499.513 1323228
3 499.513 1316388
3 501.504 1315912
3 502.331 1315063
3 503.439 1310633
3 504.221 1513623
3 504.221 1484332
3 504.221 1477240
3 504.221 1463606
3 504.221 1453973
3 504.221 1448682
3 504.221 1429186
3 505.2 1412762
3 505.2 1411018
3 505.2 1406158
3 505.2 1401034
3 505.2 1400349
3 505.2 1399318
3 505.2 1396257
3 505.2 1393443
3 506.172 1392309
3 506.172 1376611
3 506.172 1370884
3 506.172 1369780
3 506.172 1368742
3 506.172 1366549
3 506.172 1364445
3 507.158 1359538
3 507.158 1356818
3 507.158 1355893
3 507.158 1352702
3 508.108 1351568
3 508.692 1349932
3 509.3 1348439
3 509.3 1348294
3 509.3 1346200
3 509.3 1345302
3 509.3 1342665
3 509.3 1341049
3 510.189 1337549
3 510.763 1335460
3 511.43 1324366
3 512.253 1319242
3 517.956 1318659
3 517.956 1318072
3 518.556 1386206
3 518.556 1381510
3 518.556 1378549
3 518.556 1367277
3 518.556 1364448
3 518.556 1355168
3 518.556 1353943
3 518.556 1352211
3 518.556 1349946
3 518.556 1346275
3 519.243 1344718
3 520.075 1341058
3 520.902 1334042
3 520.902 1333767
3 520.902 1330243
3 520.902 1327384
3 521.824 1325794
3 521.824 1325786
3 521.824 1322437
3 523.177 1321303
3 525.291 1320668
3 528.016 1320551
3 532.192 1464242
3 532.192 1458455
3 532.192 1441653
3 533.103 1441242
3 533.103 1439438
3 533.103 1406946
3 533.103 1405746
3 533.103 1405203
3 533.933 1395255
3 533.933 1377688
3 533.933 1376632
3 533.933 1374440
3 533.933 1371933
3 534.504 1369592
3 534.504 1368852
3 534.504 1367562
3 535.043 1364003
3 535.043 1361863
3 535.043 1359896
3 535.57 1359052
3 535.57 1355663
3 535.57 1353349
3 536.127 1351000
3 536.63 1350916
3 537.138 1350133
3 537.138 1346630
3 537.138 1344281
3 537.841 1344225
3 537.841 1341705
3 537.841 1341055
3 537.841 1339652
3 538.54 1333017
1 538.54 1329145
3 538.54 1325872
3 546.252 1413492
3 546.252 1403080
3 546.252 1392248
3 546.252 1389135
3 546.252 1384628
3 546.252 1372359
3 546.954 1366884
3 546.954 1365275
3 546.954 1364324
3 546.954 1360726
3 546.954 1353581
3 547.511 1352447
3 547.511 1351571
3 547.511 1350683
1 547.511 1349494
3 547.511 1339607
3 547.511 1339039
3 547.511 1337729
3 547.511 1335481
3 548.233 1335418
3 548.233 1327717
3 548.233 1324589
3 548.233 1323222
3 549.102 1320069
3 549.102 1318206
3 549.102 1316787
3 549.102 1312365
3 557.818 1312204
3 557.818 1312115
3 558.897 1309083
3 558.897 1308758
3 559.778 1308721
3 560.501 1498928
3 560.501 1466896
3 560.501 1463516
3 560.501 1462024
3 560.501 1459007
3 560.501 1449120
3 560.501 1441789
3 560.501 1427880
3 560.501 1427013
3 560.501 1418211
3 560.501 1415744
3 560.501 1407357
3 561.208 1405593
3 561.208 1397842
3 561.749 1392718
3 561.749 1386723
3 561.749 1385233
3 561.749 1384291
3 561.749 1381457
3 562.367 1377662
3 562.367 1371268
3 562.367 1363195
3 562.953 1356970
3 562.953 1356347
3 562.953 1355565
3 562.953 1352855
3 562.953 1341417
3 563.819 1337801
3 563.819 1336022
3 563.819 1331521
3 563.819 1329872
3 563.819 1329329
3 565.201 1329234
3 565.691 1327650
3 566.304 1327613
3 566.304 1326243
3 567.18 1324173
3 567.18 1322597
3 567.18 1319004
3 568.837 1317552
3 574.391 1452547
3 574.391 1443753
3 574.391 1423512
3 574.391 1415935
3 574.391 1415562
3 574.391 1406138
3 574.391 1402677
3 574.391 1401220
3 574.391 1400700
3 575.385 1399651
3 575.385 1393466
3 575.385 1393033
3 575.385 1387809
3 576.28 1386991
3 576.28 1378932
3 576.28 1372549
3 577.149 1367015
3 577.149 1360548
3 577.732 1359389
3 577.732 1356959
3 577.732 1354449
3 577.732 1352009
3 578.346 1348550
3 578.346 1347622
3 578.346 1345058
3 578.904 1336690
3 579.451 1335971
3 579.959 1335934
3 579.959 1335332
3 579.959 1335305
3 580.571 1332357
3 580.571 1331223
3 581.178 1330934
3 588.473 1418832
3 588.473 1412647
3 588.473 1401717
3 588.473 1401446
3 588.473 1400730
3 588.473 1395397
3 588.473 1393080
3 588.473 1385279
3 588.473 1384216
3 589.511 1382878
3 589.511 1366361
3 589.511 1362242
3 589.511 1354287
3 589.511 1354271
3 589.511 1354086
3 590.133 1353717
3 590.133 1347082
3 590.671 1347037
3 591.188 1344688
3 591.188 1343733
3 591.742 1342622
3 592.269 1339058
3 592.269 1338026
3 593.085 1335987
3 593.736 1333277
3 593.736 1330863
3 596.465 1329986
3 601.301 1329431
3 602.772 1401455
3 602.772 1397383
3 602.772 1395668
3 602.772 1393317
3 602.772 1390115
3 603.763 1388485
3 603.763 1387480
3 603.763 1375122
3 603.763 1372773
3 604.522 1362813
3 604.522 1357832
3 605.066 1356794
3 605.066 1356757
3 605.066 1355776
3 605.67 1354486
3 605.67 1354007
3 606.206 1351527
3 606.206 1350928
3 606.206 1347568
3 607.243 1344626
3 607.749 1343507
3 607.749 1343419
3 607.749 1341017
3 609.407 1339968
3 613.679 1339512
3 613.679 1336101
3 614.189 1335814
3 616.126 1452903
3 616.126 1446987
3 616.126 1440670
3 616.126 1437100
3 616.126 1422123
3 616.126 1421389
3 616.126 1420965
3 616.126 1416697
3 616.126 1410512
3 616.126 1405550
3 616.126 1401391
3 616.126 1395232
3 616.126 1391965
3 616.84 1389324
3 616.84 1386841
3 616.84 1384200
3 616.84 1375751
3 617.382 1371500
3 617.382 1364566
3 617.382 1363029
3 617.901 1359423
3 617.901 1356501
3 617.901 1355183
3 617.901 1354265
3 617.901 1353115
3 618.77 1348909
3 618.77 1348272
3 618.77 1347138
3 619.703 1340547
3 619.703 1339397
3 619.703 1338748
3 620.216 1333557
3 620.216 1328205
3 620.795 1326701
3 624.696 1325982
3 624.696 1323633
3 625.544 1321304
3 626.933 1320360
3 627.421 1315818
3 628.425 1313815
3 629.474 1313725
3 630.512 1438726
1 630.512 1436430
3 630.512 1425645
3 630.512 1404263
3 630.512 1399088
3 630.512 1389582
3 630.512 1388787
3 630.512 1384957
3 630.512 1384024
3 630.512 1382316
3 631.168 1381182
3 631.168 1380250
3 631.168 1372850
3 631.168 1372136
3 631.168 1363015
3 631.168 1360666
3 632.378 1355410
3 635.001 1350410
3 635.001 1347479
3 635.773 1345473
3 635.773 1340833
3 635.773 1337162
3 637.066 1336416
3 637.725 1335095
3 638.355 1329751
3 638.355 1329048
3 639.19 1327850
3 640.397 1326080
3 640.947 1325815
3 640.947 1323466
3 641.512 1322659
3 641.512 1321641
3 642.619 1319741
3 644.265 1493398
3 644.265 1487876
3 644.265 1470480
3 644.265 1460683
3 644.265 1456037
3 644.265 1433852
3 644.265 1427513
3 644.265 1420421
3 644.265 1412401
3 644.265 1411004
3 644.265 1377005
3 645.035 1373400
3 645.035 1370776
3 645.035 1368435
3 645.035 1364424
3 645.615 1362312
3 645.615 1345420
3 645.615 1343934
3 645.615 1342409
3 646.199 1341533
3 646.199 1341010
3 648.362 1339616
3 648.362 1338931
3 648.362 1335875
3 648.362 1335431
3 649.768 1335330
3 650.351 1332374
3 650.351 1332161
3 651.372 1331476
3 651.372 1331326
3 651.877 1331261
3 657.579 1329951
3 658.077 1439382
3 658.077 1425353
3 658.077 1398216
3 658.077 1381414
3 658.983 1364747
3 658.983 1360070
3 659.949 1354283
3 659.949 1354001
3 659.949 1352467
3 659.949 1351087
3 659.949 1350894
3 659.949 1342335
3 659.949 1339546
3 659.949 1331411
3 660.881 1331200
3 660.881 1330754
3 661.71 1330211
3 664.928 1325554
3 665.746 1323479
3 665.746 1323418
3 667.276 1323182
3 667.276 1321688
3 672.755 1487055
3 672.755 1483046
3 672.755 1467699
3 672.755 1453814
3 672.755 1420740
3 672.755 1415616
3 672.755 1410908
3 672.755 1385026
3 672.755 1375229
3 672.755 1367603
3 672.755 1364580
3 673.797 1364372
3 673.797 1362793
3 674.675 1356064
3 674.675 1354719
3 675.524 1341874
3 675.524 1340423
3 675.524 1340310
3 675.524 1339767
3 676.411 1338938
3 677.462 1338396
3 679.037 1336185
3 679.037 1335843
3 679.037 1335684
3 679.037 1333343
3 682.975 1332363
3 683.591 1332271
3 686.046 1448431
3 686.046 1427780
3 686.046 1422656
3 686.046 1390016
3 686.046 1389773
3 686.046 1387958
3 686.046 1386767
3 686.629 1381240
3 686.629 1377375
3 686.629 1376650
3 687.19 1374880
3 687.19 1367065
3 687.19 1362057
3 687.19 1361299
3 687.755 1360528
3 688.507 1352597
3 689.749 1352178
3 689.749 1349005
3 690.351 1345930
3 690.351 1345543
3 691.179 1342532
3 691.861 1337386
3 691.861 1335915
3 695.178 1333629
3 696.031 1330356
3 696.566 1328546
3 700.409 1443108
3 700.409 1436769
3 700.409 1430102
3 700.409 1423913
3 700.409 1423385
3 700.409 1409098
3 701.028 1406457
3 701.028 1376562
3 701.028 1374849
3 701.028 1370602
3 701.617 1367133
3 701.617 1365197
3 701.617 1363291
3 701.617 1363173
3 701.617 1357929
3 701.617 1356808
3 701.617 1355674
3 702.292 1351570
3 702.292 1351533
3 705.323 1351397
3 706.989 1351213
3 706.989 1346089
3 708.707 1344159
3 708.707 1343146
3 709.6 1336869
3 711.316 1333159
3 714.366 1403925
3 714.366 1400889
3 714.366 1391895
3 714.366 1391531
3 714.366 1386771
3 714.366 1374342
3 714.366 1373551
3 714.366 1368231
3 715.269 1367909
3 715.269 1365101
3 715.269 1364446
3 715.269 1364420
3 715.269 1362245
3 715.983 1362208
3 716.495 1362086
3 716.495 1352448
3 717.143 1352411
3 717.71 1346852
3 718.293 1346639
3 718.293 1345791
3 718.293 1344972
3 718.293 1339560
3 718.883 1339124
3 718.883 1330795
3 719.416 1328284
3 719.416 1324741
3 719.416 1321147
3 719.416 1320288
3 720.221 1320182
3 721.06 1320018
3 721.06 1319475
3 721.919 1318064
3 724.283 1315130
3 725.156 1314570
3 726.036 1314451
3 726.036 1313567
3 726.036 1313350
3 726.036 1312010
3 728.012 1441432
3 728.012 1423802
3 728.012 1418267
3 728.012 1417656
3 728.012 1411081
3 728.012 1387622
3 728.012 1381798
3 729.038 1380664
3 729.038 1371543
3 729.695 1371331
3 729.695 1366007
3 729.695 1364807
3 729.695 1363748
3 730.282 1351043
3 730.282 1342487
3 730.839 1339557
3 731.445 1338562
3 731.445 1335270
3 731.445 1334544
3 732.397 1333228
3 732.397 1331992
3 735.425 1329675
3 740.851 1328669
3 742.455 1438560
3 742.455 1428921
3 742.455 1422538
3 742.455 1415653
3 742.455 1414411
3 742.455 1411165
3 742.455 1405290
3 742.455 1397791
3 742.455 1393518
3 743.135 1389960
3 743.135 1360669
3 743.135 1358352
3 743.135 1354162
3 743.135 1350178
3 744.347 1339607
3 744.948 1338984
3 744.948 1332558
3 744.948 1332541
3 744.948 1331278
3 745.876 1330942
3 745.876 1328447
3 745.876 1326890
3 749.275 1324245
3 749.275 1320753
3 749.845 1318412
3 756.026 1431487
3 756.026 1423861
3 756.026 1407437
3 756.026 1398862
3 756.026 1379030
3 756.026 1373458
3 756.981 1367959
3 756.981 1365832
3 757.842 1363644
3 757.842 1363250
3 757.842 1363142
3 757.842 1359869
3 757.842 1357520
3 758.763 1347603
3 758.763 1340200
3 761.247 1339672
3 762.075 1339635
3 762.075 1339543
3 762.926 1339218
3 762.926 1339000
3 770.35 1551830
3 770.35 1535646
3 770.35 1514264
3 770.35 1513258
3 770.35 1505318
3 770.35 1499451
3 770.35 1485868
3 770.35 1478776
3 770.35 1463429
3 770.35 1453632
3 771.29 1452302
3 771.29 1447357
3 771.29 1438324
3 771.29 1436826
3 771.29 1424160
3 771.29 1420402
3 771.29 1408940
3 771.29 1406517
3 772.274 1402430
3 772.274 1386499
3 772.274 1373839
3 772.274 1365575
3 772.274 1362937
3 773.174 1360265
3 773.174 1358699
3 773.174 1356247
3 773.174 1349265
3 773.724 1349168
3 773.724 1348211
3 773.724 1344826
3 773.724 1342383
3 773.724 1341515
3 774.42 1340381
3 774.42 1337976
3 775.165 1336932
3 775.165 1331808
3 776.048 1329932
3 776.048 1327510
3 778.407 1326388
3 778.407 1323936
3 778.945 1322914
3 778.945 1322650
3 779.521 1322153
3 779.521 1321207
3 779.521 1320567
3 781.199 1320195
3 781.199 1315789
3 781.199 1315011
3 781.199 1312307
3 781.199 1309966
3 781.892 1308272
3 782.512 1307525
3 784.198 1422981
3 784.198 1417661
3 784.198 1400389
3 784.198 1398487
3 784.198 1397353
3 784.198 1385732
3 784.198 1379457
3 784.198 1378885
3 784.198 1364442
3 785.244 1359144
3 785.244 1354681
3 785.244 1350678
3 786.152 1343508
3 787.058 1338384
3 787.058 1336089
3 787.891 1335955
3 787.891 1334781
3 787.891 1330801
3 788.82 1330118
3 788.82 1322825
3 788.82 1321280
3 789.684 1320604
3 789.684 1318255
3 789.684 1317498
3 789.684 1315493
3 789.684 1314893
3 790.225 1314407
3 798.538 1455257
3 798.538 1441714
3 798.538 1436049
3 798.538 1433553
3 798.538 1422988
3 798.538 1410010
3 798.538 1386365
3 799.236 1382874
3 799.236 1379381
3 799.236 1378247
3 799.236 1371612
3 799.236 1370927
3 799.236 1361734
3 799.236 1361171
3 799.821 1360883
3 799.821 1360276
3 799.821 1354093
3 799.821 1346020
3 799.821 1345771
3 799.821 1342559
3 800.408 1341073
3 800.408 1339264
3 800.408 1334933
3 801.469 1334049
3 801.981 1333589
3 801.981 1332721
3 802.489 1329795
3 803.005 1329252
3 803.513 1324623
3 803.513 1321528
3 803.513 1321142
3 804.046 1319998
3 805.174 1318394
3 805.174 1313041
3 805.174 1312067
3 805.762 1309768
3 805.762 1308287
3 810.661 1306943
3 812.24 1423799
3 812.24 1414678
3 812.24 1393564
3 812.24 1392364
3 812.24 1381537
3 812.24 1380846
3 812.24 1370638
3 812.24 1366444
3 812.24 1366193
3 812.24 1361320
3 813.39 1353998
3 813.39 1352441
3 813.39 1352074
3 813.926 1351093
3 813.926 1345090
3 813.926 1337998
3 814.456 1336995
3 815.231 1336958
3 816.08 1335648
3 816.08 1334387
3 816.699 1331603
3 826.368 1450554
3 826.368 1448021
3 826.368 1428285
3 826.368 1409018
3 826.368 1391300
3 826.368 1380780
3 826.368 1380237
3 826.368 1373265
3 826.368 1366444
3 826.368 1362333
3 826.368 1359060
3 827.408 1358353
3 827.408 1351970
3 827.408 1350581
3 827.408 1348654
3 828.323 1347520
3 829.157 1345811
3 829.157 1340582
3 829.157 1337167
3 829.157 1335335
3 829.788 1334440
3 829.788 1332660
3 829.788 1331815
3 830.431 1330309
3 831.276 1325185
3 833.139 1322275
3 839.654 1320816
3 839.654 1320299
3 840.168 1442256
3 840.168 1441153
3 840.168 1436870
3 840.168 1436175
1 840.168 1433545
3 840.168 1429056
3 840.168 1409622
3 840.168 1383721
3 840.168 1377976
3 840.168 1376686
3 840.168 1376193
3 840.822 1373859
3 840.822 1370521
3 840.822 1368948
3 841.421 1362650
3 841.421 1362158
3 841.421 1360823
3 841.421 1358954
3 841.421 1357397
3 841.421 1356622
3 842.145 1351680
3 842.145 1351498
3 842.145 1347411
3 842.706 1343289
3 842.706 1342377
3 843.276 1334185
3 843.276 1332425
3 843.276 1329481
3 843.276 1327227
3 844.166 1323142
3 844.166 1323061
3 844.166 1321827
3 845.05 1320135
3 845.917 1317230
3 847.099 1316798
3 852.114 1316575
3 852.114 1315680
3 852.114 1312478
3 853.005 1311371
3 853.551 1310488
3 854.112 1396179
3 854.112 1389339
3 854.112 1386192
3 854.112 1383430
3 854.112 1370442
3 854.112 1354034
3 854.112 1353472
3 854.112 1350505
3 854.112 1343731
3 854.721 1341384
3 854.721 1339583
3 854.721 1338998
3 855.273 1338874
3 855.273 1338216
3 855.273 1337435
3 855.273 1337148
3 855.273 1336605
3 855.273 1335829
3 855.864 1335322
3 855.864 1332464
3 856.393 1326942
3 856.902 1323225
3 856.902 1322985
3 856.902 1321718
3 856.902 1317401
3 856.902 1317364
3 857.948 1316261
3 858.502 1313481
3 859.315 1311924
3 859.315 1310567
3 860.149 1309828
3 860.149 1308694
3 860.149 1305919
3 863.017 1303578
3 868.693 1461611
3 868.693 1453680
3 868.693 1450432
3 868.693 1418824
3 868.693 1408937
3 868.693 1402554
3 868.693 1401868
3 868.693 1401325
3 868.693 1400125
3 869.673 1395001
3 870.272 1383594
3 870.272 1376927
3 870.272 1370880
3 870.272 1368712
3 870.272 1368598
3 871.732 1364538
3 871.732 1359477
3 871.732 1357120
3 871.732 1347657
3 871.732 1344064
3 872.532 1343698
3 877.537 1342141
3 882.814 1426280
3 882.814 1424990
3 882.814 1417442
3 882.814 1410892
3 882.814 1395453
3 882.814 1382923
3 882.814 1379370
3 882.814 1373185
3 884.397 1363388
3 885.254 1362841
3 885.254 1361445
3 886.114 1361047
3 886.114 1360342
3 887.006 1359765
3 887.842 1358973
3 887.842 1356045
3 888.748 1354870
3 889.632 1352173
3 889.632 1346158
3 891.359 1342376
3 892.224 1341828
1 893.017 1338126
3 893.017 1338089
3 893.017 1334831
3 893.598 1334423
3 893.598 1333575
3 894.132 1333473
3 894.132 1332130
3 896.291 1447067
3 896.291 1431130
3 896.291 1428180
3 896.291 1410870
3 896.291 1403244
3 896.291 1389223
3 896.291 1382956
3 896.291 1380301
3 897 1373835
3 897 1373209
3 897 1368930
3 897.549 1361305
3 897.549 1356630
3 897.549 1356087
3 897.549 1354638
3 898.283 1353348
3 904.6 1353068
3 905.294 1350675
3 905.834 1347551
3 910.419 1503960
3 910.419 1495933
3 910.419 1488841
3 910.419 1457240
3 910.419 1450847
3 910.419 1449841
3 910.419 1428034
3 910.419 1407963
3 910.419 1392310
3 910.419 1375304
3 910.419 1374615
3 910.419 1373799
3 911.463 1372946
3 911.463 1349175
3 911.463 1349024
3 911.463 1347092
3 912.35 1347055
3 912.35 1346380
3 912.35 1342834
3 912.35 1336446
3 913.247 1332001
3 913.247 1330299
3 913.247 1329135
3 914.011 1327600
3 914.011 1325416
3 915.054 1315041
3 915.054 1313342
3 916.09 1312048
3 921.129 1309722
3 921.129 1308675
3 924.58 1400116
3 924.58 1389225
3 924.58 1381843
3 925.507 1380627
3 925.507 1374288
3 925.507 1359392
3 925.507 1357699
3 925.507 1345706
3 926.441 1341089
3 926.441 1338000
3 928.968 1334750
3 928.968 1331331
3 929.949 1328802
3 930.585 1327668
3 938.462 1516488
3 938.462 1470748
3 938.462 1468587
3 938.462 1466448
3 938.462 1466307
3 938.462 1454425
3 938.462 1447790
3 938.462 1439825
3 938.462 1438134
3 939.444 1437191
3 939.444 1435497
3 940.113 1415769
3 940.113 1411703
3 940.113 1411001
3 940.667 1406200
3 941.541 1403671
3 942.433 1398644
3 942.433 1396831
3 944.141 1391387
3 945.024 1389352
3 945.024 1389275
3 945.024 1384151
3 945.917 1383781
3 946.785 1373873
3 946.785 1342265
3 947.666 1333144
3 948.533 1327557
3 952.445 1401996
3 952.445 1394221
3 952.445 1394060
3 952.445 1386672
3 952.445 1378692
3 953.031 1371939
3 953.031 1370554
3 953.031 1363768
3 953.031 1360516
3 953.031 1352723
3 954.669 1351478
3 957.968 1348351
3 957.968 1343736
3 958.841 1340939
3 959.813 1334952
3 959.813 1334637
3 961.549 1334600
3 962.34 1334039
3 963.066 1333417
3 963.886 1331834
3 964.38 1331163
3 964.919 1331126
3 966.563 1418424
3 966.563 1410987
3 966.563 1410242
3 966.563 1407816
3 966.563 1388798
3 966.563 1377555
3 966.563 1375641
3 966.563 1370994
3 967.543 1370108
3 967.543 1364409
3 967.543 1363468
3 968.426 1359479
3 968.426 1359143
3 968.426 1357916
3 969.301 1357173
3 969.301 1355091
3 969.301 1349740
3 969.301 1348525
3 969.301 1345099
3 969.301 1344998
3 970.209 1344364
3 970.209 1335907
3 971.075 1328251
3 972.707 1324569
3 972.707 1322355
3 973.571 1321185
3 974.384 1319450
3 975.649 1319035
3 978.989 1318907
3 980.071 1397240
3 980.071 1390834
3 980.071 1376830
3 980.071 1370491
3 980.982 1365367
3 980.982 1363148
3 981.848 1360156
3 981.848 1359510
3 982.707 1355686
3 982.707 1354478
3 983.562 1353774
3 983.562 1352137
3 983.562 1349031
3 983.562 1348650
3 984.436 1342800
3 984.436 1342402
3 985.274 1338034
3 986.094 1337528
3 986.094 1337312
3 986.635 1336589
3 987.206 1336552
3 987.206 1336178
3 987.206 1335860
3 987.206 1331952
3 987.742 1330147
3 988.742 1326874
3 989.235 1326557
3 989.235 1326014
3 989.75 1322786
3 994.791 1427039
3 994.791 1414472
3 994.791 1412769
3 994.791 1408823
3 994.791 1395781
3 994.791 1383323
3 994.791 1379596
3 994.791 1378972
3 994.791 1378508
3 994.791 1377284
3 995.695 1374666
3 995.695 1367037
3 995.695 1364508
3 995.695 1360491
3 995.695 1359776
3 996.272 1359288
3 996.272 1356575
3 996.795 1355633
3 997.329 1353180
3 997.845 1350681
3 997.845 1349949
3 997.845 1348793
3 999.453 1348617
3 999.453 1343686
3 1001.37 1341683
3 1001.37 1340128
3 1001.91 1337241
3 1008.5 1489474
3 1008.5 1452728
3 1008.5 1423437
3 1008.5 1396845
3 1008.5 1393883
3 1008.5 1388855
3 1008.5 1385771
3 1008.5 1379022
3 1008.5 1370713
3 1009.48 1365589
3 1009.48 1364176
3 1009.48 1359119
3 1009.48 1353988
3 1009.48 1350220
3 1009.48 1348787
3 1010.21 1347764
3 1010.21 1342141
3 1010.85 1339794
3 1011.7 1339584
3 1011.7 1338757
3 1014.21 1338036
3 1014.21 1335579
3 1014.21 1333533
3 1015.97 1333187
3 1016.8 1330410
3 1017.63 1330012
3 1017.63 1327882
3 1018.46 1327292
3 1020.14 1325961
3 1020.14 1325510
3 1020.67 1325471
3 1020.67 1324735
3 1022.21 1475666
3 1022.21 1441012
3 1022.21 1440254
3 1022.21 1435130
3 1022.21 1427385
3 1022.21 1420132
3 1022.21 1407992
3 1022.21 1391373
3 1022.92 1389859
3 1022.92 1385034
3 1022.92 1382624
3 1022.92 1366676
3 1023.5 1359323
3 1023.5 1357652
3 1024.02 1357615
3 1024.53 1353567
3 1025.03 1352505
3 1025.03 1349308
3 1025.03 1345750
3 1032.87 1342522
3 1033.89 1341186
3 1034.42 1333599
3 1036.7 1434400
3 1036.7 1414408
3 1036.7 1403363
3 1036.7 1386097
3 1036.7 1383105
3 1036.7 1381971
3 1036.7 1378888
3 1037.64 1376547
3 1037.64 1343178
3 1037.64 1342130
3 1037.64 1334088
3 1043.15 1331551
3 1043.66 1331514
3 1043.66 1331047
3 1044.22 1328070
3 1044.22 1321207
3 1045.77 1318073
3 1046.38 1318036
3 1046.38 1315858
3 1047 1313517
3 1047 1313280
3 1047.58 1312249
3 1050.29 1451369
3 1050.29 1428791
3 1050.29 1419670
3 1050.29 1407397
3 1050.29 1397733
3 1050.29 1382685
3 1050.29 1380675
3 1050.29 1371161
3 1050.29 1369711
3 1051 1354352
3 1051 1354001
3 1051 1352444
3 1051 1352234
3 1051 1346105
3 1051 1343019
3 1051 1342925
3 1051.59 1342413
3 1051.59 1342382
3 1051.59 1340473
3 1052.12 1338947
3 1052.12 1336219
3 1052.12 1334764
3 1052.12 1330494
3 1052.12 1330078
3 1052.12 1328097
3 1052.7 1324539
3 1053.51 1323405
3 1054.04 1322450
3 1054.04 1321160
3 1054.04 1319229
3 1054.04 1318855
3 1054.7 1315230
3 1054.7 1311908
3 1054.7 1309699
3 1054.7 1309567
3 1055.38 1306593
3 1064.41 1441022
3 1064.41 1432424
3 1064.41 1421681
3 1064.41 1405426
3 1064.41 1401200
3 1064.41 1393768
3 1064.41 1391123
3 1064.41 1388705
3 1064.41 1388065
3 1065.06 1387358
3 1065.06 1383963
3 1065.06 1380689
3 1065.06 1378631
3 1065.06 1377613
3 1065.75 1364315
3 1065.75 1361960
3 1065.75 1361679
3 1067.53 1356520
3 1067.53 1353002
3 1067.53 1351550
3 1068.42 1350733
3 1068.42 1344302
3 1068.42 1343759
3 1068.42 1343033
3 1068.42 1342245
3 1069.93 1337076
3 1069.93 1336533
3 1069.93 1334765
3 1074.12 1333866
3 1074.12 1333217
3 1074.12 1328128
3 1074.12 1324162
3 1074.12 1322127
3 1074.12 1321208
3 1074.12 1321013
3 1074.73 1320387
3 1074.73 1319340
3 1074.73 1318693
3 1074.73 1317484
3 1074.73 1316259
3 1076.33 1315212
3 1076.33 1314333
3 1078.43 1484955
3 1078.43 1474242
3 1078.43 1466911
3 1078.43 1456982
3 1078.43 1453026
3 1078.43 1425190
3 1078.43 1418746
3 1078.43 1409064
3 1078.43 1405262
3 1079.14 1403882
3 1079.14 1402849
3 1079.14 1392374
3 1079.14 1388992
3 1079.14 1385519
3 1079.14 1379983
3 1079.14 1376239
3 1079.14 1370822
3 1079.14 1369604
3 1079.82 1369300
3 1079.82 1368614
3 1079.82 1366614
3 1079.82 1354560
3 1079.82 1345439
3 1080.37 1339758
3 1080.92 1337316
3 1080.92 1332447
3 1081.44 1324035
3 1081.44 1323531
3 1082.46 1318858
3 1083.63 1318092
3 1083.63 1317549
3 1084.99 1315322
3 1084.99 1314977
3 1085.81 1312636
3 1087.49 1310992
3 1087.49 1308687
3 1087.49 1308655
3 1089.08 1308431
3 1089.08 1305758
3 1089.08 1305215
3 1092.33 1430562
3 1092.33 1424675
3 1092.33 1420869
3 1092.33 1414299
3 1092.33 1412113
3 1092.33 1390306
3 1092.33 1384412
3 1093.34 1377911
3 1093.34 1377814
3 1093.34 1371431
3 1093.34 1369874
3 1093.34 1368868
3 1094.18 1364998
3 1094.18 1362078
3 1094.18 1346408
3 1094.85 1339685
3 1094.85 1339264
3 1094.85 1336205
3 1094.85 1334767
3 1094.85 1333663
3 1096.67 1329684
3 1097.25 1327939
3 1097.77 1327679
3 1097.77 1326578
3 1106.46 1426140
3 1106.46 1424554
3 1106.46 1407752
3 1107.06 1403480
3 1107.06 1403099
3 1107.06 1394647
3 1107.06 1392690
3 1107.06 1388701
3 1107.63 1386360
3 1107.63 1385580
3 1107.63 1381648
3 1108.19 1372270
3 1108.72 1371237
3 1109.25 1370552
3 1109.77 1370009
3 1109.77 1363711
3 1109.77 1362141
3 1109.77 1356500
3 1110.31 1352914
3 1110.93 1351756
3 1110.93 1351717
3 1110.93 1349123
3 1110.93 1347318
3 1110.93 1347281
3 1111.83 1345381
3 1111.83 1344589
3 1111.83 1340414
3 1111.83 1340147
3 1111.83 1331133
3 1112.74 1330929
3 1113.49 1329562
3 1113.49 1329190
3 1114.01 1327633
3 1114.01 1327371
3 1114.54 1325292
3 1120.22 1480105
3 1120.22 1464326
3 1120.22 1461275
3 1120.22 1436421
3 1120.22 1407130
3 1120.22 1401518
3 1120.22 1393892
3 1120.92 1393078
3 1120.92 1392928
3 1120.92 1389370
3 1120.92 1388256
3 1120.92 1387203
3 1120.92 1373280
3 1120.92 1367063
3 1120.92 1361939
3 1121.57 1360617
3 1121.57 1351901
3 1122.07 1350730
3 1122.07 1347485
3 1122.07 1346862
3 1122.07 1343875
3 1123.12 1342091
3 1123.88 1340609
3 1125.43 1340059
3 1129.4 1337486
3 1130.03 1334125
3 1130.03 1332955
3 1130.03 1330553
3 1134.31 1431242
3 1134.31 1411817
3 1134.31 1409435
3 1134.31 1400424
3 1134.31 1395272
3 1134.31 1388765
3 1134.31 1382426
3 1134.31 1381883
3 1134.31 1379279
3 1135.29 1374700
3 1135.29 1366785
3 1135.29 1363048
3 1135.29 1343447
3 1135.29 1342679
3 1135.29 1341782
3 1136.18 1341219
3 1136.18 1338666
3 1136.18 1338661
3 1136.18 1334720
3 1136.18 1334658
3 1136.93 1334621
3 1136.93 1334584
3 1137.78 1331385
3 1137.78 1327455
3 1138.6 1321949
3 1138.6 1319600
3 1141.13 1318949
3 1141.13 1318298
3 1141.87 1317551
3 1141.87 1315868
3 1142.71 1315327
3 1142.71 1315066
3 1143.5 1314010
3 1145.17 1313973
3 1146.71 1313184
3 1146.71 1312008
3 1146.71 1309110
3 1148.47 1516908
3 1148.47 1491746
3 1148.47 1471066
3 1148.47 1469932
3 1148.47 1444670
3 1148.47 1444422
3 1148.47 1427747
3 1148.47 1405132
3 1148.47 1393834
3 1149.26 1392895
3 1149.26 1391177
3 1149.26 1382319
3 1149.26 1372432
3 1149.26 1365592
3 1150.12 1365113
3 1150.12 1359902
3 1150.12 1344591
3 1150.12 1343378
3 1150.12 1341061
3 1151.01 1339600
3 1151.01 1335452
3 1151.74 1334221
3 1151.74 1333118
3 1151.74 1332761
3 1151.74 1331194
3 1151.74 1330960
3 1152.77 1328408
3 1152.77 1328225
3 1153.4 1327682
3 1153.4 1319497
3 1156.68 1316796
3 1157.23 1315986
3 1161.44 1314618
3 1162.43 1425717
3 1162.43 1413152
3 1162.43 1399106
3 1162.43 1398399
3 1162.43 1396699
3 1162.43 1388467
3 1162.43 1368458
3 1163.1 1366572
3 1163.59 1365232
3 1163.59 1361674
3 1163.59 1359893
3 1163.59 1355908
3 1163.59 1354304
3 1163.59 1354237
3 1164.31 1352537
3 1164.31 1351987
3 1164.31 1351722
3 1164.88 1348318
3 1164.88 1347822
3 1164.88 1347279
3 1165.4 1341743
3 1165.95 1340613
3 1165.95 1339845
3 1165.95 1339668
3 1165.95 1338461
3 1165.95 1334572
3 1169.94 1334496
3 1176.32 1417590
3 1176.32 1410750
3 1176.32 1391732
3 1176.32 1389769
3 1176.32 1370115
3 1176.32 1361656
3 1176.32 1357406
3 1177.31 1356236
3 1177.31 1350656
3 1177.31 1350165
3 1177.31 1342973
3 1179.08 1341833
3 1179.08 1335198
3 1179.08 1333467
3 1179.82 1332179
3 1180.45 1331086
3 1183.23 1328820
3 1183.78 1326033
3 1183.78 1323943
3 1184.35 1321475
3 1184.35 1320805
3 1184.35 1317807
3 1185.13 1317770
3 1185.96 1314639
3 1186.64 1312946
3 1186.64 1312403
3 1186.64 1311677
3 1186.64 1310649
3 1187.27 1308738
3 1187.27 1303825
3 1188.77 1303607
3 1189.49 1302951
3 1190.33 1438968
3 1190.33 1437351
3 1190.33 1426910
3 1190.33 1423466
3 1190.33 1414770
3 1190.33 1413861
3 1190.33 1406554
3 1190.33 1403281
3 1190.33 1401934
3 1191.35 1401897
3 1191.35 1400590
3 1191.35 1391905
3 1192.21 1388013
3 1192.21 1382156
3 1192.21 1379594
3 1192.21 1378395
3 1192.21 1375619
3 1192.21 1375065
3 1192.21 1372886
3 1192.21 1366772
3 1192.21 1364982
3 1193.16 1355282
3 1193.16 1354438
3 1193.16 1349889
3 1193.16 1346070
3 1193.16 1343725
3 1193.9 1341958
3 1194.4 1341416
3 1194.4 1339239
3 1194.4 1339138
3 1194.4 1339127
3 1194.4 1331501
3 1194.4 1329957
3 1195.16 1329268
3 1195.65 1325072
3 1195.65 1324832
3 1195.65 1323979
3 1195.65 1323663
3 1195.65 1320746
3 1196.37 1319697
3 1196.37 1317684
3 1196.37 1315086
3 1197.03 1314903
3 1197.62 1314411
3 1197.62 1310654
3 1198.33 1310157
3 1200.31 1310111
3 1204.38 1492298
3 1204.38 1472231
3 1204.38 1397505
3 1204.38 1379395
3 1204.38 1376380
3 1204.38 1376368
3 1204.38 1375623
3 1205.1 1367209
3 1205.1 1363970
3 1205.95 1361744
3 1205.95 1359307
3 1206.49 1358913
3 1206.49 1357395
3 1206.49 1355417
3 1207.06 1352440
3 1207.06 1351185
3 1207.06 1350448
3 1207.06 1348626
3 1207.61 1347794
3 1209.07 1347410
3 1209.07 1344257
3 1209.99 1330330
3 1211.63 1330203
3 1212.32 1329053
3 1212.82 1328813
3 1212.82 1327878
3 1212.82 1327841
3 1213.55 1325229
3 1214.37 1324809
3 1215.86 1324493
3 1216.35 1324356
3 1216.86 1322144
3 1217.55 1320698
3 1217.55 1314540
3 1217.55 1313491
3 1218.41 1488017
3 1218.41 1471418
3 1218.41 1461414
3 1218.41 1460365
3 1218.41 1419193
3 1218.41 1418486
3 1218.41 1396679
3 1219.37 1391858
3 1219.37 1390042
3 1219.37 1384348
3 1219.37 1384255
3 1219.37 1382037
3 1219.37 1374779
3 1219.37 1372257
3 1219.37 1358196
3 1219.37 1356072
3 1219.37 1347640
3 1220.12 1346368
3 1220.12 1345027
3 1220.12 1339234
3 1220.7 1338947
3 1220.7 1337510
3 1220.7 1335193
3 1220.7 1334726
3 1221.78 1329281
3 1221.78 1327597
3 1221.78 1327033
3 1221.78 1325309
3 1223.78 1324842
3 1226.4 1324608
3 1226.4 1323879
3 1227.26 1321856
3 1227.26 1318503
3 1232.25 1554273
3 1232.25 1547248
3 1232.25 1513084
3 1232.25 1507915
3 1232.25 1504904
3 1232.25 1489771
3 1232.25 1479362
3 1232.25 1476893
3 1232.25 1440270
3 1232.25 1436211
3 1233.27 1392263
3 1233.27 1389924
3 1233.27 1381935
3 1233.27 1372139
3 1233.27 1364758
3 1233.27 1362838
3 1233.27 1354677
3 1234.21 1351017
3 1234.21 1349461
3 1234.21 1348905
3 1234.21 1347771
3 1234.21 1342289
3 1234.21 1341284
3 1235.12 1340837
3 1235.12 1340674
3 1235.12 1339203
3 1235.97 1338069
3 1235.97 1337884
3 1235.97 1334796
3 1235.97 1329672
3 1236.57 1324668
3 1237.08 1324379
3 1237.08 1321972
3 1237.6 1321849
3 1241.13 1321100
3 1241.13 1319370
3 1241.13 1319061
3 1241.71 1317728
3 1242.23 1316791
3 1242.77 1315704
3 1243.3 1315371
3 1246.4 1470268
3 1246.4 1463176
3 1246.4 1456837
3 1246.4 1430445
3 1246.4 1429311
3 1246.4 1420369
3 1247.38 1418431
3 1247.38 1416970
3 1247.38 1395588
3 1247.38 1393247
3 1248.28 1393053
3 1248.28 1389660
3 1248.28 1387088
3 1248.28 1381679
3 1248.28 1381042
3 1248.28 1378808
3 1249.21 1376732
3 1249.21 1374820
3 1249.21 1369880
3 1249.21 1364341
3 1249.21 1361624
3 1250.16 1359217
3 1250.16 1349561
3 1250.16 1347249
3 1250.75 1344105
3 1250.75 1342797
3 1250.75 1342602
3 1250.75 1331478
3 1250.75 1326982
3 1251.32 1325187
3 1251.32 1324322
3 1251.32 1320451
3 1251.88 1318095
3 1255.12 1317734
3 1255.12 1317479
3 1256.01 1315949
3 1256.91 1315608
3 1256.91 1315590
3 1257.74 1314033
3 1257.74 1310075
3 1260.01 1481245
3 1260.01 1468698
3 1260.01 1467156
3 1260.01 1465643
3 1260.01 1457136
3 1260.01 1451614
3 1260.01 1435478
3 1260.01 1414096
3 1261.05 1401676
3 1261.05 1394047
3 1261.05 1392555
1 1261.05 1385110
3 1261.05 1378055
3 1261.05 1375313
3 1261.96 1373163
3 1261.96 1372883
3 1261.96 1370849
3 1261.96 1364952
3 1261.96 1360347
3 1261.96 1350639
3 1262.82 1349606
3 1263.32 1349344
3 1263.83 1348659
3 1263.83 1345022
3 1263.83 1344538
3 1264.36 1342381
3 1264.36 1336196
3 1264.36 1335495
3 1264.36 1334293
3 1264.87 1333397
3 1264.87 1332835
3 1264.87 1332234
3 1265.38 1331119
3 1265.94 1330066
3 1266.5 1329570
3 1266.5 1328885
3 1266.5 1328263
3 1267.03 1327518
3 1267.03 1327393
3 1267.55 1326722
3 1268.05 1326037
3 1270.06 1325335
3 1271.61 1324574
3 1272.16 1324091
3 1272.16 1323140
3 1273.16 1320799
3 1274.11 1443282
3 1274.11 1437906
3 1274.11 1431413
3 1274.11 1414624
3 1274.11 1402093
3 1274.11 1392166
3 1274.11 1390884
3 1274.11 1390065
3 1274.11 1388447
3 1274.11 1386479
3 1275.04 1383643
3 1275.04 1382655
3 1275.04 1368802
3 1275.04 1366471
3 1275.88 1361663
3 1275.88 1357114
3 1275.88 1350479
3 1275.88 1344464
3 1275.88 1344070
3 1276.95 1341653
3 1276.95 1338547
3 1276.95 1336433
3 1276.95 1334223
3 1277.5 1332570
3 1277.5 1328125
3 1278.65 1323605
3 1278.65 1323031
3 1280.35 1322791
3 1281.87 1320730
3 1282.36 1320029
3 1283.48 1319865
3 1284.16 1317253
3 1284.16 1316959
3 1285 1316307
3 1288.28 1377166
3 1288.28 1374381
3 1288.28 1372594
3 1288.28 1372230
3 1288.28 1364193
3 1288.28 1352480
3 1289.24 1348872
3 1289.24 1348210
3 1290.13 1342025
3 1290.13 1339016
3 1291.01 1338321
3 1291.85 1335359
3 1292.7 1334835
3 1292.7 1334292
3 1293.35 1334130
3 1293.35 1333229
3 1294.22 1333192
3 1299.11 1328371
3 1302.3 1459334
3 1302.3 1424749
3 1302.3 1398310
3 1302.3 1396938
3 1302.3 1395226
3 1302.3 1392215
3 1302.3 1387084
3 1302.3 1382779
3 1302.3 1377655
3 1302.3 1366350
3 1302.3 1360450
3 1302.3 1352519
3 1303 1350754
3 1303 1349246
3 1303 1344893
3 1303 1342464
3 1303.57 1338854
3 1303.57 1338473
3 1303.57 1338380
3 1304.22 1335225
3 1304.76 1326326
3 1304.76 1324769
3 1304.76 1323302
3 1305.3 1319089
3 1305.3 1318622
3 1305.3 1318327
3 1305.3 1315986
3 1305.91 1315893
3 1305.91 1314832
3 1305.91 1314723
3 1306.44 1314043
3 1316.4 1448325
3 1316.4 1446752
3 1316.4 1437631
3 1316.4 1433902
3 1316.4 1432352
3 1316.4 1426565
3 1316.4 1419898
3 1316.4 1419818
3 1316.4 1419153
3 1316.4 1415477
3 1316.4 1409094
3 1317.06 1401713
3 1317.06 1396306
1 1317.06 1395858
3 1317.06 1391795
3 1317.06 1391250
3 1317.69 1387696
3 1317.69 1380326
3 1317.69 1376170
3 1317.69 1374286
3 1317.69 1374213
3 1317.69 1372894
3 1317.69 1369641
3 1318.36 1369520
3 1318.36 1365494
3 1318.36 1361679
3 1318.92 1354916
3 1318.92 1348577
3 1318.92 1344798
3 1319.66 1343899
3 1320.26 1343535
3 1322.47 1342376
3 1322.47 1342197
3 1322.47 1339778
3 1323.22 1336632
3 1323.87 1335657
3 1326.55 1333138
3 1329.8 1332861
3 1330.32 1449895
3 1330.32 1430502
3 1330.32 1419968
3 1330.32 1418287
3 1331.09 1403190
3 1331.09 1385196
3 1331.09 1384104
3 1331.09 1383618
3 1331.09 1379583
3 1331.09 1378184
3 1332.03 1376776
3 1333.37 1371972
3 1333.37 1357671
3 1333.91 1357344
3 1333.91 1354491
3 1334.98 1352196
3 1334.98 1348875
3 1335.66 1346607
3 1336.76 1345317
3 1336.76 1344817
3 1338 1343450
3 1339.01 1342570
3 1339.01 1341212
3 1339.01 1340569
3 1340.05 1335309
3 1341.03 1333492
3 1341.54 1331117
3 1343.06 1329142
3 1343.06 1326991
3 1344.68 1458872
3 1344.68 1458127
3 1344.68 1441452
3 1344.68 1439070
3 1344.68 1429273
3 1344.68 1422736
3 1344.68 1417751
3 1344.68 1398012
3 1344.68 1395516
3 1344.68 1376275
3 1344.68 1373946
3 1344.68 1366610
3 1344.68 1361659
3 1344.68 1350270
3 1346.64 1345579
3 1347.5 1343822
3 1348.33 1341114
3 1348.33 1339621
3 1348.33 1338061
3 1348.33 1336793
3 1348.33 1334522
3 1349.22 1331570
3 1350.05 1331490
3 1350.88 1331043
3 1350.88 1329398
3 1350.88 1328264
3 1350.88 1326636
3 1350.88 1321047
3 1353.85 1319998
3 1354.67 1319815
3 1355.49 1319409
3 1356.45 1317517
3 1356.45 1313202
3 1356.45 1312344
3 1357.28 1312048
3 1358.06 1438900
3 1358.06 1432561
3 1358.06 1419005
3 1358.06 1413458
3 1358.06 1397493
3 1358.06 1394347
3 1358.95 1387719
3 1358.95 1384901
3 1358.95 1377447
3 1358.95 1373889
3 1358.95 1372332
3 1358.95 1367910
3 1359.9 1350943
3 1359.9 1350216
3 1359.9 1347720
3 1360.83 1347060
3 1360.83 1345387
3 1360.83 1345309
3 1360.83 1343918
3 1360.83 1342439
3 1360.83 1341269
3 1361.73 1336100
3 1361.73 1332446
3 1363.92 1331312
3 1363.92 1330976
3 1372.2 1447479
3 1372.2 1432334
3 1372.2 1415994
3 1372.2 1408591
3 1372.2 1404924
3 1373.11 1399338
3 1373.11 1396312
3 1373.11 1395116
3 1374.04 1394409
3 1374.04 1394214
3 1374.04 1387166
3 1374.65 1372438
3 1374.65 1363707
3 1374.65 1357920
3 1376.23 1357327
3 1376.23 1353775
3 1376.23 1351426
3 1376.77 1349989
3 1377.54 1346341
3 1377.54 1343223
3 1377.54 1342214
3 1378.44 1340378
3 1379.31 1340265
3 1379.31 1330493
3 1379.91 1329230
3 1382 1327045
3 1382.71 1327008
3 1382.71 1326949
3 1383.37 1326189
3 1385.01 1325933
3 1385.01 1325499
3 1385.87 1320600
3 1385.87 1320375
3 1385.87 1320004
3 1386.71 1483045
3 1386.71 1458916
3 1386.71 1447611
3 1386.71 1426453
3 1386.71 1425640
3 1386.71 1421842
3 1386.71 1416696
3 1386.71 1415657
3 1386.71 1409318
3 1387.7 1404213
3 1387.7 1399685
3 1388.38 1397258
3 1388.38 1387449
3 1388.38 1378411
3 1388.38 1378125
3 1388.93 1375784
3 1388.93 1369117
3 1388.93 1362988
3 1389.5 1358357
3 1389.5 1354268
3 1390.01 1352826
3 1390.01 1351143
3 1390.01 1346246
3 1390.01 1340186
3 1390.01 1338278
3 1390.62 1335853
3 1392.06 1330728
3 1393.75 1329514
3 1393.75 1327797
3 1393.75 1326997
3 1393.75 1325143
3 1394.5 1325104
3 1394.5 1323056
3 1395.01 1321831
3 1400.17 1516069
3 1400.17 1511808
3 1400.17 1489760
3 1400.17 1476396
3 1400.17 1444937
3 1400.17 1435730
3 1400.17 1425017
3 1400.17 1417925
3 1400.17 1411586
3 1400.17 1405311
3 1400.17 1404080
3 1401.06 1401169
3 1401.06 1400303
3 1401.06 1394318
3 1401.06 1387971
3 1401.06 1379860
3 1401.06 1377236
3 1401.65 1376470
3 1401.65 1374736
3 1401.65 1372387
3 1401.65 1372065
3 1401.65 1371186
3 1402.46 1353342
3 1402.46 1351804
3 1403.31 1351767
3 1403.31 1350901
3 1404.16 1347992
3 1404.16 1341846
3 1404.16 1338591
3 1405.02 1335188
3 1408.23 1331139
3 1408.23 1326015
3 1414.08 1387053
3 1414.08 1386738
3 1414.08 1374260
3 1414.08 1368035
3 1414.08 1361850
3 1414.08 1352783
3 1414.08 1351142
3 1414.72 1349942
3 1414.72 1345750
3 1414.72 1343959
3 1414.72 1343252
3 1414.72 1339453
3 1416.9 1338839
3 1416.9 1337485
3 1418.79 1336719
3 1420.45 1336032
3 1420.45 1329416
3 1421.08 1328806
3 1421.08 1327859
3 1421.08 1326439
3 1421.97 1322881
3 1421.97 1319072
3 1421.97 1316924
3 1427.23 1315087
3 1428.38 1456666
3 1428.38 1449040
3 1428.38 1445966
3 1428.38 1428984
3 1428.38 1423197
3 1428.38 1409787
3 1428.38 1384922
3 1428.38 1376687
3 1428.38 1361752
3 1428.38 1354383
3 1430.16 1351956
3 1430.16 1350696
3 1430.16 1345656
3 1430.16 1336535
3 1430.81 1334745
3 1430.81 1329695
3 1432.15 1326194
3 1432.15 1325080
3 1442.45 1487435
3 1442.45 1459880
3 1442.45 1414021
3 1442.45 1408053
3 1442.45 1399918
3 1442.45 1399466
3 1442.45 1396067
3 1442.45 1380699
3 1442.45 1377758
3 1443.51 1374485
3 1443.51 1367868
3 1443.51 1359472
3 1443.51 1355080
3 1443.51 1352019
3 1443.51 1349530
3 1443.51 1342656
3 1444.45 1342525
3 1444.45 1340644
3 1444.45 1340607
3 1445.31 1332940
3 1445.31 1331740
3 1447.03 1329399
3 1447.9 1328705
3 1448.69 1327569
3 1449.25 1327151
3 1453.91 1326795
3 1455.53 1326135
3 1456.39 1434828
3 1456.39 1404262
3 1456.39 1401945
3 1456.39 1400388
3 1456.39 1391427
3 1456.39 1380865
3 1456.39 1373044
3 1456.39 1366531
3 1456.39 1363923
3 1457.33 1357584
3 1457.33 1355235
3 1457.33 1345348
3 1457.89 1342190
3 1457.89 1337294
3 1459.2 1332279
3 1463.58 1331378
3 1463.58 1331149
3 1470.25 1425443
3 1470.25 1425180
3 1470.25 1417554
3 1470.25 1409381
3 1470.25 1399584
3 1470.25 1392499
3 1470.25 1382916
3 1471.21 1382792
3 1471.21 1378020
3 1471.21 1376125
3 1471.21 1369786
3 1471.21 1364678
3 1472.11 1364358
3 1472.11 1361001
3 1472.11 1359943
3 1472.98 1359870
3 1473.63 1359685
3 1473.63 1346873
3 1474.15 1346184
3 1474.64 1345998
3 1474.64 1345721
3 1475.45 1337790
3 1475.45 1336616
3 1475.45 1334654
3 1476.33 1332208
3 1478.78 1331757
3 1478.78 1329258
3 1481.38 1326476
3 1482.4 1326140
3 1484.03 1455704
3 1484.03 1442038
3 1484.03 1440108
3 1484.03 1428665
3 1484.03 1427216
3 1484.03 1423230
3 1484.03 1420519
3 1484.03 1419094
3 1484.64 1413307
3 1484.64 1394412
3 1484.64 1394124
3 1485.48 1388717
3 1485.48 1386687
3 1485.48 1383954
1 1485.48 1380555
3 1485.48 1380518
3 1487.21 1379614
3 1487.21 1378484
3 1487.21 1374331
3 1488.09 1371300
3 1488.09 1371026
3 1489 1370674
3 1489 1362398
3 1489 1355763
3 1489 1351606
3 1489 1350828
3 1489.57 1350639
3 1489.57 1340509
3 1489.57 1338160
3 1489.57 1336979
3 1495.08 1335022
3 1498.39 1446266
3 1498.39 1440726
1 1498.39 1433773
3 1498.39 1432215
3 1498.39 1420233
3 1498.39 1417004
3 1498.39 1410235
3 1498.39 1406710
3 1499.18 1397589
3 1499.18 1397211
3 1499.18 1392154
3 1499.18 1391053
3 1499.18 1390828
3 1499.18 1389540
3 1499.18 1367305
3 1500.14 1366171
3 1500.14 1363846
3 1500.14 1363060
3 1500.14 1362943
3 1501.02 1358112
3 1501.02 1358075
3 1501.02 1357637
3 1501.66 1355179
3 1501.66 1351492
3 1502.26 1347219
3 1502.26 1346463
3 1505.68 1339659
3 1505.68 1339201
3 1506.53 1337601
3 1506.53 1336959
3 1506.53 1336191
3 1507.45 1335972
3 1507.45 1332029
3 1507.45 1331992
3 1512.6 1418231
3 1512.6 1410096
3 1512.6 1393315
3 1512.6 1389144
3 1512.6 1388010
3 1512.6 1385942
3 1512.6 1370382
3 1513.55 1365258
3 1513.55 1360865
3 1514.41 1360126
3 1514.41 1359070
3 1514.41 1357694
3 1514.41 1343283
3 1515.32 1341429
3 1515.32 1333818
3 1516.17 1331087
3 1516.17 1329835
3 1516.17 1328076
3 1517.03 1326509
3 1517.03 1326472
3 1517.03 1321774
3 1517.03 1319426
3 1517.03 1316915
3 1517.95 1316715
3 1519.56 1316027
3 1521.52 1315626
3 1521.52 1313285
3 1523.11 1310012
3 1526.16 1484727
3 1526.16 1474033
3 1526.16 1467694
3 1526.16 1452255
3 1526.16 1426524
3 1526.16 1416637
3 1526.16 1415768
3 1526.84 1411935
3 1526.84 1406811
3 1526.84 1402391
3 1526.84 1391818
3 1526.84 1386282
3 1527.41 1381105
3 1527.41 1376691
3 1527.41 1374389
3 1527.41 1371142
3 1528.1 1368354
3 1528.1 1361514
3 1530.59 1360292
3 1531.4 1357651
3 1533.03 1357264
3 1533.9 1357033
3 1534.75 1354090
3 1535.87 1354053
3 1540.1 1424437
3 1540.1 1423248
3 1540.1 1421792
3 1540.1 1419635
3 1541.06 1397450
3 1541.06 1396326
3 1541.06 1376676
3 1541.06 1374932
3 1541.99 1374417
3 1541.99 1370628
3 1541.99 1369494
3 1542.84 1369348
3 1542.84 1367546
3 1542.84 1366376
3 1542.84 1365117
3 1542.84 1362444
3 1543.54 1357116
3 1543.54 1356251
3 1543.54 1353062
3 1543.54 1352378
3 1544.24 1346723
3 1544.24 1345971
3 1544.89 1333441
3 1544.89 1329678
3 1546.79 1326667
3 1547.43 1324909
3 1548.55 1323992
3 1548.55 1321075
3 1554.35 1390637
3 1554.35 1371699
3 1554.35 1367799
3 1554.35 1365596
3 1554.35 1365059
3 1554.35 1358154
3 1554.35 1352260
3 1554.35 1348082
3 1555.15 1345464
3 1555.15 1343580
3 1555.15 1338403
3 1555.15 1328606
3 1555.15 1326689
3 1555.15 1326548
3 1556.04 1324335
3 1556.04 1322927
3 1556.91 1322811
3 1556.91 1320877
3 1557.56 1319976
3 1557.56 1318958
3 1557.56 1318468
3 1558.32 1316586
3 1559.76 1315578
3 1559.76 1315541
3 1560.36 1311983
3 1560.36 1310584
3 1560.36 1309494
3 1568.84 1502488
3 1568.84 1483640
3 1568.84 1475351
3 1568.84 1466244
3 1568.84 1430948
3 1568.84 1428911
3 1568.84 1425982
3 1568.84 1402519
3 1568.84 1384810
3 1568.84 1384021
3 1568.84 1383253
3 1569.97 1382257
3 1569.97 1380128
3 1569.97 1380091
3 1570.83 1368338
3 1571.57 1367372
3 1571.57 1366829
3 1571.57 1364731
3 1571.57 1356810
3 1571.57 1354931
3 1571.57 1343612
3 1572.3 1341800
3 1572.3 1339348
3 1572.93 1339311
3 1573.49 1338169
3 1574.5 1337204
3 1576.29 1330763
3 1576.8 1330714
3 1576.8 1328373
3 1577.49 1328232
3 1579.17 1325116
3 1579.17 1318849
3 1580.01 1318653
3 1581.68 1313230
3 1581.68 1313101
3 1582.33 1443594
3 1582.33 1426499
3 1582.33 1419832
3 1582.33 1407302
3 1582.33 1404698
3 1582.33 1380486
3 1582.33 1379017
3 1582.33 1372361
3 1582.33 1368996
3 1582.33 1364362
3 1583.63 1362068
3 1583.63 1360511
3 1583.63 1358185
3 1583.63 1354627
3 1584.5 1348288
3 1584.5 1347838
3 1584.5 1346064
3 1584.5 1346027
3 1585.3 1345080
3 1585.3 1344210
3 1585.9 1344028
3 1585.9 1340825
3 1585.9 1339747
3 1585.9 1338025
3 1585.9 1337252
3 1585.9 1336457
3 1585.9 1332216
3 1586.58 1329324
3 1587.19 1329092
3 1587.19 1329075
3 1587.79 1328263
3 1587.79 1323461
3 1588.39 1321722
3 1588.39 1320901
3 1588.39 1318218
3 1589.26 1317084
3 1589.26 1312522
3 1589.26 1312485
3 1590.14 1306300
3 1596.45 1443565
3 1596.45 1397217
3 1596.45 1392841
3 1596.45 1381061
3 1596.45 1376466
3 1596.45 1375013
3 1596.45 1374129
3 1597.4 1372714
3 1597.4 1372171
3 1597.4 1354620
3 1598.3 1353754
3 1598.3 1351489
3 1598.3 1347912
3 1598.3 1346359
3 1598.3 1345839
3 1598.3 1345154
3 1599.27 1338385
3 1599.27 1334808
3 1599.27 1332635
3 1599.27 1326784
3 1599.27 1323944
3 1599.27 1322116
3 1600.98 1320997
3 1600.98 1317994
3 1603.52 1316986
3 1603.52 1316277
3 1603.52 1315978
3 1604.1 1314339
3 1604.62 1310592
3 1604.62 1309383
3 1605.17 1309300
3 1605.17 1308900
3 1610.16 1414636
3 1610.16 1414235
3 1610.96 1406805
3 1610.96 1405515
3 1610.96 1402946
3 1610.96 1401142
3 1610.96 1393551
3 1610.96 1390833
3 1610.96 1385091
3 1610.96 1382269
3 1611.93 1380919
3 1611.93 1380674
3 1611.93 1373944
3 1611.93 1372635
3 1612.89 1371914
3 1612.89 1371399
3 1612.89 1370459
3 1613.81 1365335
3 1614.68 1354557
3 1614.68 1353689
3 1614.68 1351944
3 1614.68 1350810
3 1615.36 1350471
3 1616.45 1347197
3 1616.45 1345184
3 1616.45 1340925
3 1621.29 1336396
3 1622.85 1334925
3 1624.64 1535882
3 1624.64 1527191
3 1624.64 1491467
1 1624.64 1471728
3 1624.64 1466138
3 1624.64 1427913
3 1624.64 1420287
3 1624.64 1416852
3 1624.64 1409741
3 1624.64 1405638
3 1624.64 1393992
3 1625.67 1387937
3 1625.67 1383194
3 1625.67 1382060
3 1625.67 1360678
3 1626.26 1359060
3 1626.26 1356840
3 1626.26 1339937
3 1626.79 1334813
3 1628.86 1334387
3 1628.86 1332065
3 1628.86 1331849
3 1629.39 1331141
3 1630.06 1324506
3 1630.06 1322151
3 1631.57 1321625
3 1631.57 1320264
3 1632.32 1319600
3 1632.32 1317785
3 1632.86 1315658
3 1632.86 1315122
3 1633.6 1313036
3 1634.43 1311648
3 1638.23 1447711
3 1638.23 1436628
3 1638.23 1431459
3 1638.23 1400197
3 1638.23 1393672
3 1638.23 1371440
3 1638.23 1370306
3 1638.23 1359758
3 1638.23 1352132
3 1639.03 1349767
3 1639.03 1342675
3 1639.89 1341302
3 1639.89 1334919
3 1640.55 1332662
3 1640.55 1330411
3 1640.55 1330388
3 1641.09 1328137
3 1641.09 1326187
3 1641.09 1325275
3 1641.09 1321440
3 1641.09 1315101
3 1641.66 1313788
3 1643.07 1312371
3 1643.07 1310305
3 1643.07 1308269
3 1643.6 1306803
3 1652.65 1470465
3 1652.65 1456402
3 1652.65 1438068
3 1652.65 1416686
3 1652.65 1415020
3 1652.65 1381034
3 1652.65 1372352
3 1652.65 1368953
3 1652.65 1348849
3 1652.65 1342734
3 1653.91 1339975
3 1653.91 1339696
3 1654.54 1339432
3 1654.54 1338262
3 1655.22 1335574
3 1656.07 1334282
3 1656.07 1333376
3 1657.03 1332325
3 1657.03 1332187
3 1657.03 1331893
3 1658.07 1330387
3 1660.06 1330106
3 1660.06 1327331
3 1660.9 1327281
3 1660.9 1323313
3 1661.72 1323311
3 1662.29 1320975
3 1662.29 1319925
3 1666.7 1518024
3 1666.7 1499006
3 1666.7 1498783
3 1666.7 1472485
3 1666.7 1467361
3 1666.7 1455555
3 1666.7 1447048
3 1666.7 1437164
3 1666.7 1407798
3 1666.7 1395373
3 1666.7 1388997
3 1667.76 1388455
3 1667.76 1388237
3 1667.76 1384964
3 1667.76 1380456
3 1667.76 1376173
3 1667.76 1365922
3 1668.6 1359833
3 1669.56 1358422
3 1669.56 1344878
3 1669.56 1344269
3 1670.44 1341620
3 1672.66 1341557
3 1673.53 1341396
3 1673.53 1332782
3 1673.53 1331867
3 1674.64 1331305
1 1674.64 1330154
3 1674.64 1322846
3 1677.94 1320334
3 1680.46 1434270
3 1680.46 1390817
3 1680.46 1388412
3 1680.46 1386415
3 1681.04 1382368
3 1681.04 1379527
3 1681.04 1377244
3 1681.04 1374350
3 1681.64 1373054
3 1681.64 1366235
3 1681.64 1366050
3 1681.64 1352271
3 1681.64 1351635
3 1682.25 1340595
3 1682.79 1340136
3 1684.45 1338397
3 1684.98 1336165
3 1684.98 1336044
3 1684.98 1334995
3 1684.98 1334985
3 1684.98 1334353
3 1688.34 1326167
3 1688.34 1321342
3 1689 1318168
3 1690.12 1316977
3 1691.2 1316370
3 1694.1 1436480
3 1694.1 1421168
3 1694.1 1415339
3 1694.1 1411289
3 1694.1 1404569
3 1694.1 1403578
3 1694.1 1401159
3 1694.1 1396179
3 1694.1 1395446
3 1694.1 1393575
3 1694.1 1379954
3 1694.78 1371352
3 1694.78 1366939
3 1694.78 1362775
3 1694.78 1357107
3 1694.78 1351983
3 1694.78 1341270
3 1695.37 1334887
3 1695.37 1334298
3 1695.37 1330818
3 1695.99 1329571
3 1695.99 1328909
3 1696.55 1323122
3 1697.06 1320312
3 1697.06 1315818
3 1698.1 1314508
3 1698.1 1313374
3 1702.1 1313309
3 1705.92 1311991
3 1707.07 1307857
3 1708.78 1437006
3 1708.78 1416598
3 1708.78 1415265
3 1708.78 1410174
3 1708.78 1396289
3 1708.78 1396211
3 1708.78 1386414
3 1708.78 1380801
3 1709.78 1368113
3 1709.78 1367828
3 1709.78 1361021
3 1711.47 1355930
3 1711.47 1352901
3 1711.47 1352868
3 1711.47 1350321
3 1711.47 1348895
3 1712.35 1347972
3 1712.35 1344575
3 1713.2 1343746
3 1713.2 1342637
3 1714.05 1341760
3 1715.17 1338603
3 1715.68 1338524
3 1717.74 1336850
3 1718.38 1335330
3 1720.17 1331533
3 1721.1 1326409
3 1722.83 1531870
3 1722.83 1524244
3 1722.83 1518739
3 1722.83 1512464
3 1722.83 1490657
3 1722.83 1455185
3 1722.83 1452432
3 1722.83 1451426
3 1722.83 1435927
3 1722.83 1432408
3 1723.63 1432221
3 1723.63 1409970
3 1723.63 1404216
3 1723.63 1392553
3 1723.63 1392335
3 1723.63 1388670
3 1723.63 1388203
3 1723.63 1383825
3 1723.63 1382331
3 1723.63 1375151
3 1724.42 1368059
3 1724.42 1362806
3 1724.42 1358925
3 1724.42 1357043
3 1725.19 1355709
3 1726.06 1354609
3 1726.06 1352224
3 1726.89 1343811
3 1726.89 1341213
3 1727.68 1337727
3 1727.68 1336774
3 1729.19 1336089
3 1732.47 1331334
3 1732.47 1329937
3 1732.47 1326434
3 1733.21 1325521
3 1733.9 1325143
3 1736.1 1420525
3 1736.1 1415703
3 1736.1 1402487
3 1736.1 1392378
3 1736.1 1386654
3 1737.05 1376381
3 1737.05 1375879
3 1737.05 1370702
3 1740.79 1355678
3 1740.79 1355316
3 1740.79 1346501
3 1740.79 1346287
3 1741.39 1344152
3 1741.39 1342138
3 1743.56 1340902
3 1743.56 1340422
3 1743.56 1340295
3 1744.14 1339095
3 1744.78 1336827
3 1746.37 1336481
3 1750.48 1384475
3 1750.48 1380917
3 1750.48 1380210
3 1751.13 1379259
3 1751.13 1375960
3 1751.13 1373628
3 1751.13 1363409
3 1751.13 1363128
3 1751.13 1359225
3 1751.79 1356931
3 1751.79 1356284
3 1751.79 1355677
3 1751.79 1346075
3 1753.52 1343857
3 1753.52 1338591
3 1753.52 1337104
3 1754.22 1336336
3 1754.22 1334433
3 1754.22 1333890
3 1754.82 1332623
3 1754.82 1329065
3 1755.37 1328746
3 1756.12 1323693
3 1757.34 1323223
3 1757.34 1322136
3 1762.28 1321794
3 1762.82 1321417
3 1762.82 1320874
3 1764.75 1445285
3 1764.75 1437281
3 1764.75 1427733
3 1764.75 1419475
3 1764.75 1418157
3 1764.75 1394698
3 1764.75 1392741
3 1764.75 1384325
3 1764.75 1380753
3 1765.77 1379266
3 1765.77 1376171
3 1765.77 1367426
3 1765.77 1366292
3 1766.67 1361428
3 1766.67 1360945
3 1766.67 1358809
3 1766.67 1357943
3 1767.61 1348368
3 1768.48 1339882
3 1769.31 1337913
3 1769.31 1336483
3 1770.16 1334458
3 1770.16 1332432
3 1770.16 1331566
3 1772.51 1331533
3 1773.01 1329192
3 1773.77 1326702
3 1776.02 1323429
3 1778.37 1402845
3 1778.37 1399032
3 1778.37 1397832
3 1778.37 1388035
3 1778.37 1373314
3 1779.31 1361710
3 1779.31 1360302
3 1779.31 1359293
3 1779.31 1358757
3 1780.44 1354317
3 1780.44 1348714
3 1780.44 1345994
3 1780.44 1345263
3 1781.13 1344437
3 1781.13 1343767
3 1781.13 1336028
3 1781.13 1335699
3 1781.8 1335485
3 1792.31 1456499
3 1792.31 1452828
3 1792.31 1443470
3 1792.31 1437304
3 1792.31 1417568
3 1792.31 1413174
3 1792.31 1406778
3 1793 1396065
3 1793 1382180
3 1793 1373450
3 1793 1371037
3 1793 1370208
3 1793 1368806
3 1793 1361160
3 1793 1360944
3 1793.65 1357718
3 1793.65 1356875
3 1793.65 1351533
3 1793.65 1349783
3 1793.65 1347046
3 1794.51 1346809
3 1794.51 1341685
3 1794.51 1341674
3 1794.51 1340757
3 1794.51 1338807
3 1794.51 1335252
3 1795.41 1335117
3 1795.41 1333338
3 1795.41 1333235
3 1795.94 1329841
3 1798.2 1328423
3 1798.91 1326218
3 1798.91 1324685
3 1799.48 1324215
3 1801.68 1324115
3 1801.68 1324033
3 1802.51 1321766
3 1806.49 1443441
3 1806.49 1435421
3 1806.49 1408100
3 1806.49 1407332
3 1806.49 1406647
3 1806.49 1403594
3 1806.49 1403079
3 1806.49 1397255
3 1806.49 1387368
3 1806.49 1386641
3 1807.41 1373701
3 1807.41 1369114
3 1807.41 1360979
3 1807.41 1360801
3 1807.41 1349721
3 1807.41 1341288
3 1808.27 1337353
3 1808.27 1336088
3 1809.14 1332815
3 1811.6 1331233
3 1812.47 1331123
3 1815.04 1330539
3 1815.04 1326444
3 1817.31 1322881
3 1818.05 1322719
3 1819.76 1320548
3 1819.76 1317595
3 1820.46 1417241
3 1820.46 1401873
3 1820.46 1395688
3 1820.46 1370834
3 1820.46 1359618
3 1820.46 1354581
3 1820.46 1351874
3 1821.6 1347570
3 1821.6 1341306
3 1822.14 1337937
3 1822.65 1323719
3 1822.65 1320665
3 1823.44 1319709
3 1824.28 1319539
3 1829.25 1318158
3 1830.17 1317392
3 1830.17 1316545
3 1831.01 1316104
3 1834.43 1438183
3 1834.43 1404138
3 1834.43 1394105
3 1834.43 1385508
3 1834.43 1384308
3 1834.43 1383108
3 1834.43 1381894
3 1835.39 1379142
3 1835.39 1378467
3 1835.39 1372516
3 1836.29 1368519
3 1836.29 1362617
3 1836.29 1361825
3 1836.29 1359955
3 1836.29 1355158
3 1836.29 1349884
3 1837.48 1346922
3 1837.48 1344581
3 1837.48 1342905
3 1838.03 1342228
3 1839.01 1333276
3 1839.01 1332754
3 1839.53 1332591
3 1840.02 1328412
3 1844.47 1324759
3 1844.47 1323630
3 1845.47 1323235
3 1848.46 1511618
3 1848.46 1510484
3 1848.46 1501843
3 1848.46 1496405
3 1848.46 1489313
3 1848.46 1471875
3 1848.46 1471064
3 1848.46 1429892
3 1849.11 1400214
3 1849.11 1398433
3 1849.11 1391011
3 1849.11 1383385
3 1849.75 1366886
3 1849.75 1366287
3 1850.27 1359428
3 1850.27 1346344
3 1850.27 1341639
3 1850.96 1341537
3 1850.96 1339290
3 1851.9 1337328
3 1851.9 1337143
3 1852.9 1332020
3 1853.71 1331568
3 1853.71 1326277
3 1853.71 1323443
3 1854.6 1322223
3 1854.6 1317156
3 1855.45 1317155
3 1856.3 1315793
3 1856.3 1314467
3 1857.17 1313721
3 1858.55 1312521
3 1862.64 1395077
3 1862.64 1393940
3 1862.64 1391632
3 1862.64 1388962
3 1862.64 1386314
3 1862.64 1382623
3 1862.64 1381196
3 1862.64 1380377
3 1862.64 1373145
3 1863.33 1368009
3 1863.86 1366762
3 1864.85 1364754
3 1864.85 1364037
3 1865.43 1362432
3 1865.43 1362072
3 1865.43 1361786
3 1865.43 1361402
3 1865.43 1358588
3 1865.43 1350661
3 1865.43 1349998
3 1866.04 1348991
3 1866.77 1348466
3 1866.77 1345806
3 1867.53 1345292
3 1868.12 1341734
3 1868.7 1335837
3 1868.7 1333791
3 1869.22 1328228
3 1869.22 1327365
3 1869.22 1324595
3 1869.22 1323870
3 1869.77 1322349
3 1869.77 1321110
3 1876.58 1461357
3 1876.58 1453848
3 1876.58 1437656
3 1876.58 1430389
3 1876.58 1425982
3 1876.58 1394374
3 1877.32 1393560
3 1877.32 1392001
3 1877.32 1391139
3 1877.32 1385074
3 1878.28 1383996
3 1878.28 1379163
3 1878.28 1378234
3 1878.28 1377920
3 1879.17 1376826
3 1879.17 1365410
3 1879.17 1364787
3 1879.17 1360182
3 1879.17 1359639
3 1880.08 1357821
3 1880.9 1355472
3 1880.9 1349611
3 1880.9 1349459
3 1881.43 1347352
3 1881.43 1346475
3 1881.43 1342096
3 1881.94 1341351
3 1884.12 1340882
3 1884.12 1339401
3 1884.98 1336321
3 1885.49 1333770
3 1886.09 1333062
3 1890.12 1481972
3 1890.12 1481784
3 1890.12 1481113
3 1890.12 1444037
3 1890.12 1416020
3 1890.12 1410430
3 1890.12 1388143
3 1890.12 1374325
3 1890.12 1374288
3 1890.75 1370341
3 1890.75 1364016
3 1890.75 1363456
3 1890.75 1363359
3 1890.75 1358095
3 1890.75 1357552
3 1890.75 1356881
3 1891.33 1354885
3 1891.33 1352975
3 1891.33 1351213
3 1891.85 1350542
3 1892.91 1348729
3 1892.91 1345814
3 1892.91 1342478
3 1893.6 1340579
3 1893.6 1335132
3 1894.13 1331859
3 1895.52 1326735
3 1904.25 1500568
3 1904.25 1494293
3 1904.25 1472911
3 1904.25 1447443
3 1904.25 1437556
3 1904.25 1437076
3 1904.25 1429969
3 1904.25 1421462
3 1904.25 1414522
3 1904.25 1386686
3 1904.99 1378226
3 1904.99 1375263
3 1904.99 1372914
3 1904.99 1371908
3 1904.99 1365569
3 1905.58 1360997
3 1905.58 1360445
3 1905.58 1357984
3 1905.58 1351601
3 1905.58 1342206
3 1905.58 1338746
3 1905.58 1336337
3 1906.52 1333488
3 1906.52 1332672
3 1906.52 1332536
3 1906.52 1330331
3 1908.28 1328043
3 1908.28 1328008
3 1908.83 1322379
3 1908.83 1321604
3 1908.83 1320337
3 1910.59 1316516
3 1915.75 1313867
3 1916.87 1313567
3 1916.87 1311816
3 1918.63 1497044
3 1918.63 1475089
3 1918.63 1457489
3 1918.63 1456071
3 1918.63 1452722
3 1918.63 1434195
3 1918.63 1427612
3 1918.63 1407512
3 1918.63 1398435
3 1918.63 1392200
3 1919.69 1380472
3 1919.69 1377757
3 1919.69 1376189
3 1919.69 1375099
3 1919.69 1374354
3 1919.69 1366969
3 1919.69 1360784
3 1920.36 1359456
3 1920.36 1356784
3 1920.36 1355352
3 1920.89 1354149
3 1920.89 1354055
3 1920.89 1352485
3 1920.89 1346260
3 1921.43 1344934
3 1921.97 1344096
3 1921.97 1343606
3 1922.75 1340281
3 1923.62 1334563
3 1923.62 1334197
3 1924.3 1331366
3 1927.5 1326595
3 1927.5 1324458
3 1927.5 1322572
3 1927.5 1320713
3 1929.99 1320510
3 1929.99 1319460
3 1929.99 1317527
3 1931.06 1316616
3 1931.57 1315459
3 1932.06 1400180
3 1932.06 1399046
3 1932.06 1384443
3 1932.06 1372797
3 1932.06 1364882
3 1932.73 1350244
3 1932.73 1339980
3 1933.26 1337470
3 1933.26 1334561
3 1933.26 1331315
3 1933.26 1330730
3 1933.8 1325869
3 1934.77 1325184
3 1939.99 1324232
3 1939.99 1322219
3 1940.51 1321736
3 1941.47 1321585
3 1941.47 1319966
3 1941.47 1319920
3 1942.19 1316197
3 1943 1316012
3 1943.84 1315483
3 1945.41 1315391
3 1945.41 1313050
3 1946.4 1523372
3 1946.4 1501565
3 1946.4 1501155
3 1946.4 1500890
3 1946.4 1476863
3 1946.4 1452352
3 1946.4 1435047
3 1946.4 1432971
3 1946.4 1427505
3 1946.4 1423174
3 1946.4 1413958
3 1947.06 1402312
3 1947.06 1396525
3 1947.06 1364888
3 1947.06 1361580
3 1947.06 1359231
3 1947.61 1356539
3 1947.61 1355958
3 1948.13 1354913
3 1948.13 1341422
3 1948.69 1339092
3 1949.19 1337770
3 1949.19 1333830
3 1949.86 1332887
3 1949.86 1332646
3 1949.86 1331762
3 1950.42 1331453
3 1952.12 1331212
3 1952.12 1330628
3 1952.78 1327938
3 1952.78 1325383
3 1952.78 1324183
3 1956.18 1323256
3 1957.02 1323219
3 1960.18 1492430
3 1960.18 1474885
3 1960.18 1468502
3 1960.18 1453681
3 1960.18 1452147
3 1960.18 1445518
3 1960.18 1444512
3 1960.18 1432120
3 1960.18 1425900
3 1960.18 1418951
3 1960.18 1417812
3 1960.18 1409715
3 1961.03 1391361
3 1961.03 1389481
3 1961.03 1389012
3 1961.03 1385443
3 1961.03 1383208
3 1961.03 1378808
3 1961.91 1365875
3 1961.91 1365332
3 1961.91 1357961
3 1961.91 1352802
3 1961.91 1346926
3 1961.91 1345348
3 1962.82 1343294
3 1962.82 1333497
3 1963.34 1330870
3 1963.34 1327996
3 1963.34 1327491
3 1963.34 1319865
3 1964.01 1319743
3 1964.01 1318091
3 1964.86 1317516
3 1964.86 1314781
3 1965.7 1314628
3 1965.7 1314085
3 1967.43 1311018
3 1971.21 1310812
3 1974.24 1515284
3 1974.24 1491568
3 1974.24 1487285
3 1974.24 1478161
3 1974.24 1467448
3 1974.24 1450265
3 1974.24 1438004
3 1974.24 1430565
3 1974.24 1421203
3 1974.24 1412696
3 1974.24 1397575
3 1974.24 1394214
3 1974.24 1380470
3 1974.24 1372062
3 1974.24 1370580
3 1975.05 1361213
3 1975.05 1356695
3 1975.58 1356264
3 1975.58 1350700
3 1975.58 1348201
3 1976.15 1347836
3 1976.15 1346533
3 1976.15 1339866
3 1976.15 1338061
3 1976.15 1336422
3 1976.76 1332187
3 1977.75 1326488
3 1977.75 1326404
3 1978.31 1326042
3 1979.3 1324125
3 1979.3 1323990
3 1981.5 1323180
3 1983.42 1323119
3 1983.42 1321217
3 1985.88 1320370
3 1985.88 1319830
3 1985.88 1319466
3 1986.4 1318850
3 1988.09 1479053
3 1988.09 1443950
3 1988.09 1437611
3 1988.09 1415994
3 1988.09 1410501
3 1988.09 1405229
3 1988.09 1400614
3 1988.09 1398213
3 1988.09 1393197
3 1988.98 1386562
3 1988.98 1380029
3 1988.98 1362019
3 1989.68 1360619
3 1989.68 1357346
3 1989.68 1345959
3 1990.32 1342013
3 1990.32 1340442
3 1990.32 1335967
3 1990.32 1331111
3 1990.32 1329534
3 1990.32 1325958
3 1990.32 1324476
3 1990.32 1323592
3 1990.32 1320646
3 1990.32 1319512
3 1993.1 1318657
3 1993.63 1316431
3 1994.13 1315673
3 1994.13 1313089
3 1994.68 1313052
3 1996.7 1312302
3 2000.41 1310438
3 2000.96 1310152
3 2002.47 1485198
3 2002.47 1440518
3 2002.47 1419136
3 2002.47 1415833
3 2002.47 1392032
3 2003.11 1388243
3 2003.11 1386236
3 2003.11 1378356
3 2003.76 1373086
3 2003.76 1372027
3 2003.76 1365153
3 2003.76 1360029
3 2004.43 1359992
3 2004.43 1354092
3 2004.43 1353788
3 2005.09 1353004
3 2005.62 1352845
3 2005.62 1351645
3 2006.87 1349139
3 2006.87 1346901
3 2006.87 1346840
3 2009.52 1342933
3 2010.38 1342074
3 2012.06 1338198
3 2013.68 1337737
3 2013.68 1336319
3 2013.68 1336063
3 2013.68 1331950
3 2014.57 1331913
3 2014.57 1328980
3 2014.57 1327038
3 2014.57 1321914
3 2016.07 1489080
3 2016.07 1461244
3 2016.07 1461080
3 2016.07 1457711
3 2016.07 1456966
3 2016.07 1451644
3 2016.07 1444265
3 2016.07 1406574
3 2016.07 1401650
3 2016.07 1399267
3 2016.07 1398133
3 2016.86 1392938
3 2016.86 1386271
3 2016.86 1377316
3 2016.86 1373255
3 2016.86 1370570
3 2016.86 1365446
3 2017.76 1359107
3 2017.76 1354899
3 2017.76 1347574
3 2017.76 1334313
3 2017.76 1333774
3 2018.65 1332843
3 2018.65 1331273
3 2019.48 1331070
3 2020.04 1329558
3 2020.04 1326334
3 2020.04 1326297
3 2020.55 1321899
3 2020.55 1319558
3 2021.24 1315323
3 2022.68 1312719
3 2022.68 1312176
3 2023.36 1312107
3 2023.99 1310910
3 2023.99 1309248
3 2024.52 1308830
3 2025 1306907
3 2030.28 1443055
3 2030.28 1438999
3 2030.28 1433479
3 2030.28 1412152
3 2030.28 1411213
3 2030.28 1398383
3 2030.28 1396351
3 2030.28 1391656
3 2030.28 1387826
3 2030.28 1387099
3 2030.28 1385573
3 2030.28 1384838
3 2030.98 1382461
3 2030.98 1374941
3 2031.68 1373384
3 2031.68 1373046
3 2031.68 1372107
3 2031.68 1372043
3 2031.68 1365322
3 2032.3 1364846
3 2032.3 1362685
3 2032.3 1354378
3 2032.88 1354180
3 2032.88 1353713
3 2032.88 1352579
3 2033.76 1351640
3 2033.76 1350384
3 2033.76 1348802
3 2033.76 1348800
3 2033.76 1346927
3 2035.48 1341960
3 2037.97 1341195
3 2038.8 1340652
3 2038.8 1340469
3 2039.65 1328797
3 2040.57 1327939
3 2044.17 1412465
3 2044.17 1401606
3 2044.17 1394519
3 2044.17 1384726
3 2044.17 1377154
3 2044.17 1373062
3 2044.17 1361851
3 2044.17 1361034
3 2044.17 1352231
3 2044.92 1348454
3 2044.92 1348174
3 2044.92 1347191
3 2045.58 1343918
3 2046.21 1341524
3 2046.21 1340817
3 2046.21 1340274
3 2050.16 1339703
3 2050.16 1338401
3 2050.16 1335783
3 2051.01 1335673
3 2051.01 1334705
3 2051.01 1333888
3 2058.12 1415448
3 2058.12 1413735
3 2058.12 1410462
3 2058.12 1409065
3 2058.12 1402186
3 2058.12 1387745
3 2058.12 1384556
3 2058.12 1374210
3 2058.73 1370017
3 2058.73 1364893
3 2058.73 1358895
3 2059.27 1356710
3 2059.27 1350525
3 2059.27 1349279
3 2059.27 1343838
3 2059.88 1342964
3 2060.4 1342704
3 2060.91 1332134
3 2062 1330252
3 2062 1327343
3 2062.61 1325951
3 2063.18 1323935
3 2065.27 1322988
3 2066.39 1322252
3 2072.39 1473782
3 2072.39 1465647
3 2072.39 1451856
3 2072.39 1451837
3 2072.39 1443759
3 2072.39 1442625
3 2072.39 1434466
3 2072.39 1417664
3 2072.39 1415080
3 2072.39 1413790
3 2072.39 1407155
3 2072.39 1403882
3 2073.41 1385145
3 2073.41 1384425
3 2073.41 1380399
3 2074.28 1373134
3 2074.28 1372070
3 2074.28 1368164
3 2074.28 1365407
3 2074.28 1365311
3 2075.16 1360566
3 2075.16 1358515
3 2075.16 1353271
3 2076.82 1352193
3 2076.82 1351949
3 2076.82 1346162
3 2077.69 1342168
3 2082.05 1341914
3 2082.05 1340212
3 2082.92 1337988
3 2082.92 1335769
3 2083.71 1333638
3 2084.25 1332496
3 2085.24 1332124
3 2085.24 1330408
3 2085.24 1329850
3 2086.28 1435387
3 2086.28 1418963
3 2086.28 1403184
3 2086.28 1402384
3 2086.28 1397414
3 2086.28 1393029
3 2086.28 1366178
3 2088.06 1363741
3 2088.06 1362860
3 2088.06 1358537
3 2088.93 1357110
3 2088.93 1357073
3 2089.71 1351505
3 2089.71 1343206
3 2090.83 1333289
3 2091.34 1328341
3 2091.34 1324163
3 2092.5 1322593
3 2094 1322336
3 2094 1321136
3 2094.83 1319854
3 2096.6 1319647
3 2098.09 1319610
3 2100.19 1424803
3 2100.19 1406951
3 2100.19 1406914
3 2100.19 1406795
3 2100.19 1401626
3 2101.17 1400575
3 2101.17 1396776
3 2101.17 1393218
3 2101.17 1392402
3 2101.17 1389807
3 2102.08 1387278
3 2102.08 1378949
3 2102.97 1376107
3 2102.97 1375105
3 2102.97 1375030
3 2102.97 1369132
3 2102.97 1367938
3 2103.81 1366597
3 2103.81 1363583
3 2103.81 1357225
3 2103.81 1354984
3 2103.81 1354277
3 2103.81 1354252
3 2103.81 1353507
3 2104.47 1352437
3 2105.1 1349997
3 2105.1 1349699
3 2105.69 1348506
3 2105.69 1347338
3 2105.69 1346204
3 2107.43 1345159
3 2107.43 1340035
3 2108.37 1339697
3 2112.54 1336655
3 2112.54 1334756
3 2112.54 1332200
3 2113.45 1331713
3 2113.45 1328293
3 2113.45 1327000
3 2114.33 1409464
3 2114.33 1392662
3 2114.33 1389913
3 2114.33 1389812
3 2114.33 1378029
3 2115.27 1376824
3 2115.27 1369174
3 2115.27 1368145
3 2116.14 1364829
3 2116.79 1356643
3 2116.79 1350549
3 2117.45 1343189
3 2118.09 1341206
3 2118.09 1338889
3 2118.09 1337991
3 2118.09 1333788
3 2128.6 1469923
3 2128.6 1449619
3 2128.6 1443202
3 2128.6 1424354
3 2128.6 1420222
3 2128.6 1408576
3 2128.6 1392176
3 2129.54 1389827
3 2129.54 1379666
3 2129.54 1373896
3 2129.54 1363941
3 2129.54 1362516
3 2130.43 1353273
3 2130.43 1352528
3 2130.43 1344204
3 2130.43 1342174
3 2130.43 1339092
3 2131.31 1336331
3 2131.31 1332507
3 2132.15 1328789
3 2135.04 1328465
3 2135.04 1327063
3 2136.05 1326936
3 2136.05 1325484
3 2136.55 1324557
3 2137.19 1324180
3 2137.19 1321881
3 2137.19 1318716
3 2138.04 1316629
3 2142.7 1518874
3 2142.7 1510470
3 2142.7 1503093
3 2142.7 1491447
3 2142.7 1486081
3 2142.7 1470862
3 2142.7 1467379
3 2142.7 1461122
3 2142.7 1436611
3 2142.7 1435755
3 2142.7 1416374
3 2143.73 1415848
3 2143.73 1415831
3 2143.73 1415666
3 2143.73 1413602
3 2143.73 1412432
3 2143.73 1407821
3 2144.61 1407263
3 2144.61 1396854
3 2144.61 1389643
3 2144.61 1381479
3 2144.61 1366075
3 2144.61 1364929
3 2144.61 1364342
3 2144.61 1363307
3 2144.61 1360034
3 2144.61 1353367
3 2145.87 1346850
3 2145.87 1344952
3 2145.87 1343982
3 2149.39 1337129
3 2149.92 1336696
3 2149.92 1335971
3 2149.92 1334212
3 2150.55 1333564
3 2150.55 1332904
3 2156.07 1434060
3 2156.07 1427091
3 2156.07 1418285
3 2156.07 1415919
3 2156.07 1379037
3 2156.07 1369523
3 2156.67 1361897
3 2156.67 1347074
3 2158.19 1335622
3 2158.72 1334323
3 2158.72 1334250
3 2158.72 1333705
3 2159.43 1333189
3 2170.47 1417710
3 2170.47 1413427
3 2170.47 1412938
3 2170.47 1405043
3 2170.47 1393596
3 2170.47 1386172
3 2170.47 1383825
3 2170.47 1367423
3 2170.47 1367311
3 2171.42 1363186
3 2171.42 1359413
3 2171.42 1354606
3 2171.42 1344197
3 2172.35 1331852
3 2174.05 1325513
3 2174.05 1325482
3 2174.05 1323730
3 2174.05 1323246
3 2174.9 1318480
3 2174.9 1317476
3 2174.9 1316774
3 2175.49 1316409
3 2175.49 1314833
3 2175.49 1313193
3 2175.49 1310829
3 2176.18 1309271
3 2176.99 1309234
3 2180.08 1308651
3 2181.26 1307170
3 2182.26 1305421
3 2184.49 1463563
3 2184.49 1451792
3 2184.49 1434162
3 2184.49 1416429
3 2184.49 1414088
3 2184.49 1410703
3 2184.49 1404068
3 2184.49 1397416
3 2184.49 1395677
3 2184.49 1391143
3 2185.53 1390241
3 2185.53 1388897
3 2186.47 1386259
3 2186.47 1377138
3 2186.47 1375530
3 2186.47 1374611
3 2187.36 1373918
3 2187.36 1372404
3 2187.36 1362810
3 2187.91 1362298
3 2188.57 1357547
3 2188.57 1355466
3 2188.57 1348591
3 2189.52 1347801
3 2189.52 1346834
3 2189.52 1346319
3 2190.23 1340400
3 2191.37 1339917
3 2195.46 1334921
3 2195.46 1333223
3 2195.46 1332580
3 2197.12 1331038
3 2197.92 1323412
3 2198.59 1482435
3 2198.59 1463417
3 2198.59 1454497
3 2198.59 1445267
3 2198.59 1440989
3 2198.59 1435378
3 2198.59 1428639
3 2198.59 1407257
3 2198.59 1405092
3 2198.59 1398709
3 2198.59 1380150
3 2198.59 1379335
3 2199.43 1368140
3 2199.43 1367006
3 2199.43 1364316
3 2199.43 1363164
3 2199.97 1359940
3 2199.97 1356785
3 2199.97 1353162
3 2199.97 1344523
3 2199.97 1343128
3 2199.97 1342315
3 2200.55 1338004
3 2200.55 1337994
3 2201.58 1328752
3 2203.2 1326846
3 2204.01 1321669
3 2206.14 1315899
3 2208.2 1306778
3 2211.95 1305953
3 2212.76 1408085
3 2212.76 1378200
3 2212.76 1356271
3 2212.76 1348216
3 2212.76 1347016
3 2212.76 1344887
3 2212.76 1339715
3 2213.4 1336377
3 2213.91 1330874
3 2213.91 1327475
3 2214.47 1327231
3 2214.47 1326692
3 2215.52 1325203
3 2215.52 1323259
3 2215.52 1322506
3 2216.07 1317548
3 2216.59 1315414
3 2222.64 1315096
3 2223.18 1314512
3 2223.18 1314440
3 2223.18 1314280
3 2226.13 1515227
3 2226.13 1483768
3 2226.13 1470729
3 2226.13 1467344
3 2226.13 1440355
3 2226.13 1423396
3 2226.13 1405770
3 2227.08 1405406
3 2227.08 1402919
3 2227.08 1395395
3 2227.08 1388700
3 2227.08 1386984
3 2227.08 1381374
3 2227.08 1379033
3 2228.05 1362058
3 2228.05 1357162
3 2228.05 1342427
3 2228.05 1340360
3 2228.83 1335452
3 2228.83 1332450
3 2228.83 1330750
3 2229.43 1325174
3 2229.43 1324880
3 2229.43 1324238
3 2229.43 1323725
3 2230.11 1317030
3 2230.93 1313928
3 2230.93 1313143
3 2230.93 1311415
3 2231.77 1308150
1 2240.11 1415186
3 2240.11 1403925
3 2240.11 1401428
3 2240.11 1395748
3 2240.11 1393915
3 2241.04 1388138
3 2241.04 1385317
3 2241.04 1385109
3 2241.04 1373463
3 2241.69 1359622
3 2241.69 1358577
3 2241.69 1356236
3 2242.34 1354604
3 2242.34 1346917
3 2242.87 1344948
3 2242.87 1343748
3 2242.87 1324012
3 2243.41 1323565
3 2244.44 1322338
3 2244.44 1321663
3 2252.81 1314668
3 2253.38 1312892
3 2254.76 1529942
3 2254.76 1508560
3 2254.76 1494675
3 2254.76 1493258
3 2254.76 1459094
3 2254.76 1451712
3 2254.76 1429217
3 2254.76 1427912
3 2255.66 1417571
3 2255.66 1413981
3 2255.66 1411714
3 2255.66 1403254
3 2255.66 1395144
3 2255.66 1392470
3 2256.28 1381702
3 2256.28 1380989
3 2256.28 1365488
3 2256.28 1362568
3 2256.83 1359022
3 2256.83 1352771
3 2256.83 1349194
3 2256.83 1346324
3 2257.39 1345960
3 2257.39 1345355
3 2257.39 1345154
3 2257.39 1343756
3 2257.39 1338652
3 2257.39 1330087
3 2257.39 1326095
3 2257.97 1324484
3 2257.97 1320308
3 2257.97 1319598
3 2258.48 1316636
3 2259.05 1314465
3 2259.05 1313906
3 2259.05 1307608
3 2259.05 1307336
3 2268.4 1416535
3 2268.4 1391736
3 2268.4 1381849
3 2268.4 1379895
3 2268.4 1378325
3 2268.98 1364324
3 2268.98 1358743
3 2269.52 1351424
3 2269.52 1349986
3 2269.52 1340320
3 2270.39 1340189
3 2271.26 1339577
3 2271.26 1339165
3 2272.1 1337145
3 2272.61 1331842
3 2272.61 1331122
3 2272.61 1328076
3 2273.14 1327592
3 2273.14 1327555
3 2273.64 1326140
3 2274.14 1322857
3 2274.14 1319458
3 2274.74 1317918
3 2275.55 1317154
3 2276.92 1317117
3 2282.07 1555478
3 2282.07 1515306
3 2282.07 1508466
3 2282.07 1482382
3 2282.07 1478711
3 2282.07 1471085
3 2282.07 1461288
3 2282.07 1457892
3 2282.07 1447327
3 2282.07 1444323
3 2282.07 1434947
3 2282.07 1427521
3 2282.07 1418145
3 2282.07 1417523
3 2282.07 1413973
3 2283.2 1412781
3 2283.2 1411795
3 2283.2 1408839
3 2283.2 1405456
3 2283.2 1404322
3 2283.2 1397230
3 2283.2 1378950
3 2284.28 1376561
3 2284.28 1373844
3 2284.28 1357013
3 2284.28 1355948
3 2284.28 1352216
3 2285.18 1347092
3 2285.18 1341688
3 2286.93 1341397
3 2288.57 1339146
3 2290.2 1338504
3 2290.2 1335155
3 2292.62 1334476
3 2296.26 1409437
3 2296.26 1405836
3 2296.26 1401255
3 2296.26 1395703
3 2296.26 1390148
3 2296.26 1382818
3 2297.21 1379120
3 2297.21 1367976
3 2297.21 1358033
3 2297.21 1350688
3 2298.8 1350625
3 2298.8 1350052
3 2299.49 1347857
3 2299.49 1346128
3 2300.14 1345773
3 2300.14 1345649
3 2300.14 1343242
3 2300.14 1343034
3 2300.14 1341848
3 2300.14 1335380
3 2300.76 1332321
3 2300.76 1331207
3 2301.32 1325215
3 2301.32 1325178
3 2301.32 1323895
3 2310.42 1473084
3 2310.42 1437681
3 2310.42 1417945
3 2310.42 1401038
3 2310.42 1391380
3 2310.42 1387702
3 2310.42 1374013
3 2311.38 1373932
3 2311.38 1370574
3 2311.38 1365226
3 2311.38 1363183
3 2312.26 1351144
3 2312.26 1350661
3 2312.26 1349735
3 2312.26 1346548
3 2312.26 1343100
3 2313.23 1337976
3 2314.02 1336236
3 2314.6 1334268
3 2314.6 1325358
3 2315.32 1324283
3 2316.15 1321066
3 2317.01 1319519
3 2317.01 1316917
3 2317.01 1316374
3 2317.87 1315313
3 2317.87 1313634
3 2318.57 1313101
3 2324.42 1480934
3 2324.42 1477263
3 2324.42 1472139
3 2324.42 1441699
3 2324.42 1425702
3 2324.42 1403895
3 2324.42 1402248
3 2324.42 1397229
3 2324.42 1387917
3 2324.42 1383049
3 2324.42 1382564
3 2324.42 1376812
3 2325.16 1371688
3 2325.16 1370272
3 2325.16 1366812
3 2325.16 1366775
3 2326.02 1360988
3 2326.02 1360465
3 2326.02 1358984
3 2326.02 1354402
3 2326.56 1350848
3 2326.56 1345918
3 2326.56 1342907
3 2327.12 1342108
3 2327.12 1341258
3 2327.64 1335299
3 2328.24 1333939
3 2328.24 1333461
3 2328.24 1332876
3 2328.24 1329679
3 2329.06 1329414
3 2330.58 1327117
3 2330.58 1325362
3 2338.34 1417122
3 2338.34 1405151
3 2338.34 1400320
3 2338.34 1379165
3 2338.34 1371148
3 2338.34 1370519
3 2338.34 1370438
3 2338.34 1363771
3 2339.32 1354519
3 2339.32 1346556
3 2339.32 1340769
3 2339.32 1339107
3 2339.32 1336922
3 2340.01 1335871
3 2340.01 1332769
3 2340.76 1330979
3 2340.76 1326957
3 2341.61 1325856
3 2341.61 1325441
3 2341.61 1321829
3 2342.46 1319819
3 2342.46 1313284
3 2342.46 1309701
3 2343.33 1309494
3 2343.33 1309079
3 2344.98 1307464
3 2345.5 1307264
3 2346.01 1307227
3 2352.53 1471265
3 2352.53 1447079
3 2352.53 1416997
3 2352.53 1416311
3 2352.53 1399855
3 2352.53 1390080
3 2352.53 1389209
3 2352.53 1384438
3 2353.15 1375689
3 2353.15 1373763
3 2353.93 1370565
3 2353.93 1365791
3 2353.93 1365033
3 2353.93 1364700
3 2353.93 1364380
3 2354.65 1360981
3 2355.16 1359663
3 2355.16 1358640
3 2355.16 1357209
3 2355.16 1350976
3 2355.16 1349344
3 2355.83 1346676
3 2355.83 1344241
3 2356.35 1344000
3 2356.35 1343653
3 2356.35 1343026
3 2356.35 1339889
3 2356.35 1336841
3 2362.84 1332473
3 2362.84 1330234
3 2363.39 1330120
3 2363.88 1329400
3 2365.47 1327349
3 2366.3 1462282
3 2366.3 1445279
3 2366.3 1436257
3 2366.3 1404649
3 2366.3 1401091
3 2366.3 1396270
3 2366.3 1389816
3 2366.3 1388644
3 2367.09 1374624
3 2367.09 1374201
3 2367.09 1372202
3 2367.09 1368553
3 2367.81 1364881
3 2367.81 1363348
3 2367.81 1360176
3 2367.81 1358764
3 2367.81 1358085
3 2367.81 1354096
3 2367.81 1352563
3 2368.51 1349448
3 2368.51 1346883
3 2369.38 1343403
3 2369.38 1343318
3 2370.29 1341139
3 2371.2 1339223
3 2371.2 1338926
3 2371.73 1338029
3 2371.73 1337726
3 2372.25 1335952
3 2372.25 1334471
3 2373.89 1330591
3 2374.72 1330245
3 2375.6 1327780
3 2376.47 1327431
3 2378.17 1325874
3 2380.49 1436482
3 2380.49 1431528
3 2380.49 1423902
3 2380.49 1409459
3 2380.49 1402792
3 2380.49 1396041
3 2380.49 1390775
3 2381.25 1390412
3 2381.25 1383377
3 2381.25 1374344
3 2381.25 1373801
3 2381.81 1368572
3 2382.34 1365996
3 2382.34 1364439
3 2382.9 1363305
3 2382.9 1360997
3 2382.9 1352077
3 2384.08 1350089
3 2384.61 1347790
3 2384.61 1345967
3 2385.15 1338430
3 2385.84 1337202
3 2385.84 1336150
3 2387.42 1335664
3 2387.42 1335115
3 2388.34 1334694
3 2389.14 1331994
3 2389.14 1331806
3 2389.14 1330249
3 2389.66 1325523
3 2390.15 1324098
3 2390.15 1323107
3 2390.15 1322641
3 2390.96 1320300
3 2390.96 1314778
3 2392.33 1313720
3 2392.33 1313683
3 2392.33 1313150
3 2392.87 1311847
3 2394.37 1402598
3 2394.37 1390739
3 2394.37 1390196
3 2394.37 1387668
3 2394.37 1385204
3 2395.29 1380771
3 2395.29 1379329
3 2395.29 1378665
3 2395.29 1371152
3 2395.29 1364769
3 2395.29 1362420
3 2396.21 1358265
3 2396.21 1356823
3 2397.05 1352922
3 2397.05 1345094
3 2397.05 1333679
3 2397.05 1333178
3 2397.05 1331448
3 2397.05 1330142
3 2397.05 1328894
3 2397.05 1325187
3 2397.97 1323770
3 2399.46 1323431
3 2399.46 1323182
3 2400.92 1317209
3 2400.92 1316965
3 2401.91 1316398
3 2401.91 1313800
3 2401.91 1312271
3 2402.5 1311091
3 2408.16 1451258
3 2408.16 1444347
3 2408.16 1435226
3 2408.16 1419526
3 2408.16 1417018
3 2408.16 1415293
3 2408.16 1414198
3 2408.16 1409074
3 2408.16 1402675
3 2409.25 1399210
3 2409.25 1397241
3 2409.25 1393741
3 2409.25 1393485
3 2409.25 1392543
3 2409.25 1392050
3 2410 1389221
3 2410 1385721
3 2410 1383380
3 2410 1375721
3 2410.91 1374254
3 2410.91 1372979
3 2410.91 1367348
3 2410.91 1362322
3 2410.91 1357654
3 2410.91 1353983
3 2411.99 1352060
3 2411.99 1351850
3 2411.99 1350383
3 2412.52 1344254
3 2413.51 1344045
1 2414.03 1342959
3 2414.03 1342921
3 2414.57 1342121
3 2417.86 1338993
3 2418.7 1336801
3 2418.7 1336603
3 2418.7 1334629
3 2418.7 1333881
3 2419.4 1329452
3 2420.37 1327191
3 2420.37 1326644
3 2420.37 1325693
3 2420.37 1322439
3 2421.43 1321047
3 2421.95 1319877
3 2422.78 1478425
3 2422.78 1462986
3 2422.78 1457995
3 2422.78 1423831
3 2422.78 1422483
3 2422.78 1414022
3 2422.78 1411685
3 2422.78 1399563
3 2423.7 1399401
3 2423.7 1397656
3 2424.22 1381328
3 2424.22 1381217
3 2424.22 1374728
3 2424.22 1364955
3 2424.22 1364625
3 2424.22 1360864
3 2424.22 1356757
3 2424.22 1355386
3 2425 1349471
3 2425 1347625
3 2425 1345815
3 2425.88 1345584
3 2426.49 1341716
3 2426.49 1339228
3 2427.03 1331241
3 2427.03 1330832
3 2427.55 1324449
3 2427.55 1321176
3 2427.55 1319644
3 2427.55 1317406
3 2427.55 1317187
3 2428.99 1316164
3 2428.99 1315030
3 2431.44 1313721
3 2432.36 1312434
3 2433.13 1311264
3 2436.26 1413586
3 2436.26 1397926
3 2436.26 1397301
3 2436.26 1380561
3 2436.26 1375995
3 2436.26 1359655
3 2437.22 1354058
3 2437.22 1350970
3 2437.22 1350623
3 2437.22 1340709
3 2438.11 1340311
3 2438.11 1338507
3 2438.77 1334206
3 2438.77 1334060
3 2439.46 1332399
3 2439.46 1329490
3 2439.46 1328947
3 2440 1327586
3 2443.79 1327357
3 2443.79 1325668
3 2443.79 1324319
3 2443.79 1320865
3 2444.33 1319061
3 2445.56 1316431
3 2445.56 1316177
3 2446.29 1315312
3 2450.08 1421512
3 2450.08 1409314
3 2450.08 1402532
3 2450.08 1395486
3 2450.08 1388394
3 2450.86 1388301
3 2450.86 1385984
3 2450.86 1382173
3 2450.86 1371129
3 2450.86 1369816
3 2451.44 1363357
3 2451.44 1360234
3 2451.44 1359661
3 2452.02 1354252
3 2453.22 1346213
3 2454.27 1345642
3 2454.79 1344110
3 2454.79 1337602
3 2454.79 1337577
3 2455.32 1336965
3 2455.86 1332238
3 2456.37 1330428
3 2456.37 1329951
3 2462.87 1325202
3 2462.87 1324896
3 2463.74 1324468
3 2463.74 1321696
3 2463.74 1320779
3 2463.74 1317694
3 2464.29 1430400
3 2464.29 1428618
3 2464.29 1423957
3 2464.29 1409725
3 2464.29 1408676
3 2464.29 1401633
3 2464.29 1397518
3 2464.29 1393587
3 2464.29 1376683
3 2464.91 1375818
3 2464.91 1374618
3 2465.5 1374075
3 2465.5 1373458
3 2465.5 1367243
3 2465.5 1362849
3 2465.5 1356170
3 2466.14 1351384
3 2466.14 1351347
3 2466.14 1348176
3 2474.69 1347514
3 2475.52 1345599
3 2476.35 1345484
3 2476.35 1342976
3 2476.35 1342947
3 2477.2 1342390
3 2478.02 1473656
3 2478.02 1472650
3 2478.02 1467481
3 2478.02 1458179
3 2478.02 1451224
3 2478.02 1442705
3 2478.02 1435877
3 2478.02 1429110
3 2478.02 1423788
3 2478.02 1416577
3 2478.02 1391919
3 2478.02 1382736
3 2478.02 1381951
3 2478.02 1381072
3 2479.07 1379230
3 2479.07 1371883
3 2479.07 1369673
3 2479.07 1369151
3 2479.07 1367736
3 2479.07 1364723
3 2479.07 1362788
3 2480.33 1362650
3 2481.17 1362613
3 2481.17 1359453
3 2481.17 1357924
3 2481.17 1352768
3 2481.17 1350988
3 2481.17 1348291
3 2481.17 1348254
3 2481.17 1344496
3 2482.1 1343200
3 2482.1 1342657
3 2482.1 1342111
3 2483.84 1341504
3 2484.35 1338709
3 2485.41 1338529
3 2485.41 1338331
3 2486.46 1337881
3 2486.46 1337844
3 2488.1 1333231
3 2488.1 1322518
3 2492.22 1465898
3 2492.22 1448353
3 2492.22 1419062
3 2492.22 1412395
3 2492.22 1410501
3 2492.22 1406250
3 2492.22 1404211
3 2492.22 1403791
3 2492.22 1398004
3 2493.23 1376954
3 2493.23 1374125
3 2493.23 1374088
3 2493.23 1368402
3 2494.15 1361468
3 2494.15 1357743
3 2494.15 1354924
3 2494.15 1351334
3 2494.15 1349548
3 2494.15 1349447
3 2495.16 1347448
3 2495.16 1346461
3 2495.16 1339822
3 2496 1339279
3 2496 1338401
3 2496 1338364
3 2496 1336838
3 2496.62 1334223
3 2496.62 1333174
3 2496.62 1327768
3 2497.14 1327591
3 2497.14 1327197
3 2501.22 1326191
3 2501.22 1326072
3 2501.22 1320895
3 2502.73 1319246
3 2502.73 1318755
3 2503.25 1317624
3 2503.25 1315962
3 2503.78 1313387
3 2504.74 1313322
3 2504.74 1313285
3 2506.38 1493326
3 2506.38 1478941
3 2506.38 1475928
3 2506.38 1447065
3 2506.38 1442444
3 2506.38 1433291
3 2506.38 1427592
3 2506.38 1418471
3 2506.38 1408932
3 2506.38 1404907
3 2506.38 1403140
3 2507.28 1390552
3 2507.28 1386005
3 2507.28 1383171
3 2507.28 1359043
3 2507.28 1351939
3 2507.28 1350805
3 2508 1348897
3 2508 1348514
3 2508 1343567
3 2508.65 1340647
3 2508.65 1339339
3 2509.3 1339199
3 2509.3 1337751
3 2509.93 1337046
3 2509.93 1333132
3 2509.93 1331921
3 2510.61 1330990
3 2510.61 1330940
3 2511.88 1330671
3 2515.27 1328376
3 2520.34 1506916
3 2520.34 1503358
3 2520.34 1497019
3 2520.34 1453442
3 2520.34 1415267
3 2520.34 1414903
3 2520.34 1401905
3 2520.34 1394770
3 2521.06 1390357
3 2521.06 1385643
3 2521.06 1375335
3 2521.06 1370481
3 2521.06 1369405
3 2521.06 1365847
3 2521.83 1364135
3 2522.69 1361721
3 2522.69 1361629
3 2522.69 1359372
3 2523.58 1358249
3 2523.58 1355157
3 2523.58 1354769
3 2523.58 1353569
3 2526.15 1352255
3 2534.43 1426033
3 2534.43 1424782
3 2534.43 1401344
3 2534.43 1397955
3 2534.43 1393148
3 2534.43 1378582
3 2534.43 1377848
3 2534.43 1357073
3 2534.43 1355239
3 2535.69 1347613
3 2535.69 1344261
3 2535.69 1342671
3 2535.69 1341313
3 2535.69 1340745
3 2536.91 1339213
3 2536.91 1336852
3 2536.91 1335051
3 2536.91 1332734
3 2537.86 1330903
3 2538.71 1326363
3 2539.54 1325820
3 2540.58 1323874
3 2540.58 1322107
3 2542.34 1320907
3 2542.34 1320512
3 2543.25 1320090
3 2544.07 1317909
3 2544.07 1317826
3 2548.14 1523873
3 2548.14 1489709
3 2548.14 1468327
1 2548.14 1464656
3 2548.14 1444328
3 2548.14 1440229
3 2548.14 1426820
3 2548.14 1412393
3 2548.14 1411834
3 2548.14 1406754
3 2548.14 1404085
3 2548.14 1403296
3 2548.14 1402551
3 2548.14 1397382
3 2549.48 1395481
3 2549.48 1392037
3 2549.48 1385370
3 2549.48 1384827
3 2549.48 1378539
3 2549.48 1371434
3 2549.48 1362048
3 2550.54 1356879
3 2550.54 1350244
3 2551.43 1345881
3 2551.43 1341632
3 2551.43 1340115
3 2554 1339572
3 2555.85 1338930
3 2556.79 1337665
3 2556.79 1335316
3 2556.79 1328933
3 2557.74 1315594
3 2557.74 1315537
3 2558.56 1314056
3 2558.56 1313191
3 2562.54 1436323
1 2562.54 1432078
3 2562.54 1406311
3 2562.54 1400524
3 2562.54 1399947
3 2562.54 1396642
3 2563.78 1386755
3 2563.78 1386330
3 2563.78 1380481
3 2564.72 1379048
3 2564.72 1372665
3 2565.61 1370047
3 2565.61 1367828
3 2565.61 1364772
3 2566.55 1362665
3 2566.55 1354109
3 2567.43 1348181
3 2567.43 1346224
3 2567.43 1344807
3 2568.35 1343923
3 2569.13 1343760
3 2569.13 1343066
3 2570.13 1340067
3 2570.13 1338526
3 2571.13 1338251
3 2571.13 1334693
3 2571.13 1333400
3 2571.13 1333369
3 2572.11 1333184
3 2573.09 1327428
3 2573.09 1324340
3 2574.86 1318317
3 2575.72 1314017
3 2575.72 1313474
3 2576.6 1424583
3 2576.6 1418521
3 2576.6 1415248
3 2576.6 1407682
3 2576.6 1403171
3 2576.6 1402526
3 2576.6 1400940
3 2576.6 1398591
3 2576.6 1395032
3 2576.6 1393025
3 2576.6 1392628
3 2576.6 1390044
3 2577.83 1380599
3 2577.83 1376488
3 2577.83 1365861
3 2577.83 1364855
3 2578.85 1364818
3 2578.85 1364774
3 2578.85 1362305
3 2578.85 1361386
3 2578.85 1360829
3 2578.85 1358488
3 2580.14 1355478
3 2580.14 1355086
3 2580.14 1347707
3 2581.06 1346486
3 2581.06 1340316
3 2581.06 1330908
3 2581.06 1329708
3 2581.06 1324265
3 2582.04 1324003
3 2582.04 1319871
3 2582.04 1318912
3 2582.04 1317644
3 2582.97 1315639
3 2588.42 1313662
3 2588.42 1309899
3 2590.7 1403640
3 2590.7 1399047
3 2590.7 1398952
3 2590.7 1391269
3 2590.7 1386833
3 2590.7 1381472
3 2591.76 1377252
3 2591.76 1375962
3 2591.76 1373000
3 2591.76 1369166
3 2591.76 1366825
3 2592.87 1364590
3 2592.87 1363707
3 2592.87 1354524
3 2596.52 1350549
3 2596.52 1350142
3 2598.31 1348568
3 2598.31 1347350
3 2598.31 1346587
3 2598.31 1343807
3 2598.31 1343252
3 2599.3 1341153
3 2599.3 1340911
3 2601.44 1339564
3 2601.44 1339368
3 2601.44 1335893
3 2603.17 1335057
3 2603.17 1333500
3 2604.07 1500983
3 2604.07 1476129
3 2604.07 1472808
3 2604.07 1431636
3 2604.07 1420209
3 2604.07 1419169
3 2604.07 1408789
3 2604.07 1404759
3 2604.07 1389777
3 2604.07 1383818
3 2605.66 1382543
3 2605.66 1377620
3 2605.66 1373945
3 2605.66 1366277
3 2606.71 1364338
3 2607.64 1361286
3 2607.64 1356077
3 2607.64 1355493
3 2607.64 1350369
3 2608.65 1349139
3 2608.65 1344012
3 2608.65 1342553
3 2611.52 1340963
3 2611.52 1337348
3 2612.24 1336992
3 2612.24 1336907
3 2612.89 1336742
3 2612.89 1335385
3 2613.62 1335348
3 2614.87 1330610
3 2616.36 1330458
3 2617.55 1330403
3 2618.06 1447367
3 2618.06 1439381
3 2618.06 1415989
3 2618.06 1396128
3 2618.06 1395654
3 2618.06 1388699
3 2618.06 1382032
3 2618.06 1376292
3 2618.06 1371625
3 2618.06 1370089
3 2618.97 1369418
3 2618.97 1368372
3 2618.97 1368284
3 2619.56 1363836
3 2619.56 1348228
3 2619.56 1337819
3 2620.69 1332239
3 2620.69 1329613
3 2622.16 1325042
3 2623.2 1322135
3 2623.2 1319357
3 2623.8 1318067
3 2623.8 1315406
3 2624.68 1314525
3 2625.27 1313995
3 2625.27 1310575
3 2628.91 1308986
3 2629.74 1308310
3 2630.27 1308296
3 2630.82 1305495
3 2632.42 1439947
3 2632.42 1435884
3 2632.42 1429545
3 2632.42 1422878
3 2633.46 1418926
3 2633.46 1414123
3 2633.46 1409555
3 2633.46 1407772
1 2633.46 1404938
3 2633.46 1402921
3 2633.46 1400432
3 2633.46 1396102
3 2633.46 1391603
3 2633.46 1371047
3 2635.03 1367773
3 2635.03 1358862
3 2635.03 1357214
3 2635.03 1354372
3 2635.03 1350875
3 2635.03 1346797
3 2635.03 1346794
3 2635.03 1341037
3 2635.03 1338099
3 2635.03 1332668
3 2635.03 1329235
3 2637.05 1326329
3 2641.14 1326143
3 2641.14 1325983
3 2641.81 1323863
3 2642.64 1318948
3 2642.64 1316607
3 2643.32 1315286
3 2643.82 1315159
3 2646.31 1445639
3 2646.31 1436187
3 2646.31 1425474
3 2646.31 1411445
3 2646.31 1410311
3 2646.91 1400514
3 2646.91 1399098
3 2646.91 1398232
3 2646.91 1393055
3 2646.91 1388090
3 2646.91 1376253
3 2646.91 1369896
3 2647.59 1359165
3 2647.59 1356514
3 2648.18 1349685
3 2650.25 1348675
3 2653.21 1348089
3 2653.21 1346412
3 2654.23 1344743
3 2654.78 1338392
3 2654.78 1335532
3 2654.78 1334623
3 2655.55 1324834
3 2655.55 1319280
3 2656.43 1318326
3 2656.43 1317540
3 2657.94 1314937
3 2657.94 1314900
3 2657.94 1311395
3 2660.19 1426169
3 2660.19 1419830
3 2660.19 1413244
3 2660.19 1408732
3 2660.19 1402349
3 2660.19 1395714
3 2660.84 1370860
3 2660.84 1361265
3 2660.84 1357038
3 2660.84 1353681
3 2660.84 1349831
3 2661.65 1347733
3 2661.65 1347277
3 2662.39 1344112
3 2662.39 1342061
3 2662.39 1340927
3 2663.06 1338386
3 2663.58 1338223
3 2663.58 1331588
3 2667.57 1328394
3 2668.24 1328171
3 2668.83 1327647
3 2669.35 1327037
3 2674.12 1515511
3 2674.12 1494129
3 2674.12 1486603
3 2674.12 1442655
3 2674.12 1437486
3 2674.12 1431211
3 2674.12 1405064
3 2674.12 1394306
3 2674.12 1391159
3 2674.12 1386035
3 2674.12 1375891
3 2674.12 1375612
3 2675.31 1374110
3 2675.31 1373498
3 2675.31 1370096
3 2676.08 1369823
3 2677.53 1367930
3 2677.53 1349993
3 2677.53 1347460
3 2678.49 1345749
3 2678.49 1345329
3 2678.49 1344786
3 2681.44 1344651
3 2682.05 1339527
3 2682.69 1336649
3 2682.69 1333687
3 2688.51 1394567
3 2688.51 1385569
3 2688.51 1378902
3 2688.51 1378757
3 2689.45 1377031
3 2689.45 1373872
3 2689.97 1369781
3 2689.97 1368090
3 2689.97 1365186
3 2689.97 1362399
3 2689.97 1357222
3 2689.97 1352594
3 2690.96 1345884
3 2690.96 1342972
3 2690.96 1338496
3 2690.96 1337185
3 2690.96 1335360
3 2691.85 1334334
3 2691.85 1332017
3 2691.85 1331823
3 2691.85 1325440
3 2691.85 1324784
3 2692.67 1321511
3 2696.09 1319841
3 2696.6 1319634
3 2696.6 1318527
3 2697.16 1318459
3 2697.16 1317331
3 2697.68 1316974
3 2697.68 1316937
3 2698.99 1315653
3 2699.86 1314898
3 2701.13 1314830
3 2701.13 1313258
3 2701.13 1310752
3 2702.22 1418167
3 2702.22 1417685
3 2702.22 1410425
3 2702.22 1408520
3 2702.22 1389502
3 2702.22 1384569
3 2702.87 1374483
3 2702.87 1367430
3 2702.87 1364686
3 2703.44 1363840
3 2704.27 1354352
3 2704.27 1353122
3 2704.27 1351588
3 2705.22 1341581
3 2705.22 1337606
3 2712.07 1332229
3 2712.75 1325810
3 2716.45 1502042
3 2716.45 1449742
3 2716.45 1441607
3 2716.45 1440631
3 2716.45 1439732
3 2716.45 1405568
3 2717.42 1400322
3 2717.42 1395003
3 2717.42 1394137
3 2717.42 1384693
3 2717.42 1380096
3 2717.42 1372849
3 2717.42 1368372
3 2718.39 1366318
3 2718.39 1362680
3 2718.39 1361546
3 2719.25 1360017
3 2719.25 1354465
3 2719.25 1353786
3 2719.88 1350665
3 2719.88 1350140
3 2719.88 1347306
3 2720.93 1347145
3 2720.93 1334726
3 2721.44 1333068
3 2721.44 1332597
3 2721.44 1330287
3 2721.44 1330060
3 2722.48 1325598
3 2722.48 1323577
3 2722.48 1323401
3 2723.03 1322869
3 2723.52 1321838
3 2724.03 1320460
3 2726.79 1317745
3 2730.65 1494296
3 2730.65 1475448
3 2730.65 1466941
3 2730.65 1465651
3 2730.65 1462314
3 2730.65 1457044
3 2730.65 1452938
3 2730.65 1431556
3 2730.65 1424464
3 2730.65 1423766
3 2730.65 1408479
3 2730.65 1399866
3 2731.61 1398464
3 2731.61 1383096
3 2731.61 1381416
3 2731.61 1378320
3 2731.61 1370389
3 2732.53 1364269
3 2732.53 1359086
3 2732.53 1355930
3 2732.53 1355644
3 2732.53 1352228
3 2732.53 1345889
3 2733.57 1339760
3 2733.57 1338626
3 2733.57 1335353
3 2734.42 1334091
3 2734.42 1332473
3 2734.42 1328716
3 2735.32 1328190
3 2736.22 1326909
3 2736.22 1322939
3 2740.55 1320365
3 2741.24 1319896
3 2741.24 1316623
3 2741.93 1316360
3 2743.35 1315817
3 2744.52 1423982
3 2744.52 1422622
3 2744.52 1415016
3 2744.52 1395280
3 2745.17 1385483
3 2745.17 1379646
3 2745.71 1377937
3 2745.71 1375333
3 2746.32 1374185
3 2746.32 1368000
3 2747.08 1366329
3 2747.92 1365534
3 2747.92 1364401
3 2747.92 1361128
3 2747.92 1360390
3 2748.63 1357669
3 2748.63 1351831
3 2748.63 1351299
3 2749.3 1350883
3 2750 1349491
3 2750.88 1345036
3 2751.68 1341979
3 2752.49 1333571
3 2753.33 1329323
3 2756.05 1328561
3 2757.92 1327049
3 2758.5 1445711
3 2758.5 1422118
3 2758.5 1420278
3 2758.5 1417807
3 2758.5 1416114
3 2758.5 1412443
3 2758.5 1399740
3 2758.5 1397081
3 2758.5 1379780
3 2759.46 1374675
3 2759.46 1374574
3 2759.46 1370659
3 2759.46 1368661
3 2759.46 1354865
3 2759.46 1353420
3 2759.46 1348482
3 2760.32 1346133
3 2760.32 1342158
3 2760.84 1340200
3 2760.84 1333271
3 2761.45 1332574
3 2761.97 1326932
3 2761.97 1324343
3 2761.97 1323214
3 2761.97 1315480
3 2762.79 1310424
3 2763.63 1305737
3 2763.63 1305731
3 2763.63 1300607
3 2764.49 1300077
3 2772.1 1476712
3 2772.1 1463994
3 2772.1 1450109
3 2772.1 1449164
3 2772.1 1426979
3 2772.1 1400587
3 2772.1 1388275
3 2772.1 1381183
3 2773.02 1380819
3 2773.02 1379382
3 2773.02 1377184
3 2773.02 1376307
3 2773.02 1370368
3 2773.02 1369423
3 2773.97 1364998
3 2773.97 1362649
3 2773.97 1357828
3 2773.97 1351348
3 2775.02 1351328
3 2775.02 1351291
3 2775.02 1348250
3 2775.02 1342942
3 2775.02 1342723
3 2775.02 1341360
3 2776.78 1341185
3 2778.9 1337965
3 2778.9 1335191
3 2778.9 1331155
3 2778.9 1330951
3 2779.47 1330776
3 2779.47 1329660
3 2779.47 1328198
3 2783.94 1327408
3 2784.77 1325684
3 2785.45 1322411
3 2786.1 1416558
3 2786.1 1413187
3 2786.1 1388991
3 2786.1 1388603
3 2786.1 1386850
3 2787.02 1386382
3 2787.02 1382470
3 2787.02 1382004
3 2787.02 1376792
3 2787.95 1373111
3 2787.95 1372568
3 2787.95 1367711
3 2787.95 1365643
3 2787.95 1363765
3 2787.95 1359169
3 2787.95 1358626
3 2788.89 1357593
3 2788.89 1351254
3 2788.89 1348905
3 2789.79 1347922
3 2790.72 1347379
3 2790.72 1343731
3 2791.59 1342293
3 2791.59 1340239
3 2792.46 1336550
3 2793.3 1333844
3 2794.96 1332829
3 2794.96 1332286
3 2796.63 1326427
3 2796.63 1325499
3 2797.5 1323310
3 2799.11 1319712
query_times: 138
Score = 1321877
