    Blocking waiting for file lock on package cache
    Blocking waiting for file lock on package cache
    Blocking waiting for file lock on package cache
    Blocking waiting for file lock on package cache
    Finished release [optimized] target(s) in 0.04s
     Running `target/release/tester ../a.out 0035`
3 8.864 1487196
3 8.864 1478386
3 8.864 1477090
3 8.864 1450613
3 8.864 1442539
3 8.864 1435100
3 8.864 1424419
3 8.864 1419133
3 8.864 1418959
3 8.864 1413753
3 8.864 1413334
3 8.864 1409378
3 9.809 1404239
3 9.809 1400001
3 9.809 1387393
3 9.809 1384130
3 9.809 1383246
3 9.809 1382638
3 10.598 1380948
3 10.598 1380058
3 11.125 1377685
3 11.125 1376639
3 11.125 1374272
3 11.705 1372624
3 11.705 1370510
3 11.705 1369523
3 11.705 1366280
3 11.705 1365358
3 12.152 1365287
3 12.152 1360113
3 12.152 1355622
3 12.152 1354092
3 12.152 1350753
3 12.152 1349538
3 14.519 1431766
3 14.519 1415385
3 14.519 1409864
3 14.519 1406703
3 14.519 1405862
3 15.039 1404244
3 15.039 1403198
3 15.039 1399489
3 15.039 1397191
3 15.039 1395237
3 15.039 1394199
3 15.728 1388890
3 15.728 1384229
3 15.728 1382043
3 15.728 1381788
3 15.728 1379600
3 23.603 1372161
3 24.355 1371675
3 25.111 1371547
3 25.856 1369312
3 25.856 1366049
3 25.856 1363481
3 25.856 1361430
3 25.856 1357796
3 26.45 1357128
3 26.45 1355629
3 26.45 1354596
3 26.45 1354275
3 26.45 1353855
3 27.141 1353545
3 27.141 1350507
3 28.563 1441326
3 28.563 1424613
3 28.563 1415267
3 28.563 1410776
3 28.563 1393860
3 28.563 1393790
3 28.563 1393720
3 29.438 1389996
3 29.438 1388532
3 29.438 1387623
3 29.438 1384367
3 29.438 1382543
3 29.997 1379252
3 31.314 1377201
3 31.314 1377013
3 31.992 1375975
3 31.992 1373442
3 32.438 1373418
3 32.438 1371444
3 32.438 1371443
3 32.438 1370133
3 33.706 1368878
3 33.706 1363280
3 34.267 1360797
3 34.267 1360386
3 34.707 1359342
3 35.61 1359035
3 36.487 1358789
3 37.401 1358776
3 37.832 1357062
3 38.351 1356221
3 38.351 1355975
3 42.28 1404335
3 42.28 1403038
3 42.28 1397242
3 42.28 1385767
3 42.28 1382504
3 42.28 1380453
3 42.28 1380034
3 42.28 1378928
3 42.28 1375409
3 42.838 1374241
3 42.838 1371267
3 42.838 1367193
3 42.838 1363072
3 43.339 1362189
3 46.331 1361757
3 46.331 1360434
3 50.709 1360183
3 51.445 1359741
3 51.445 1359078
3 56.162 1467736
3 56.162 1455814
3 56.162 1452777
3 56.162 1449752
3 56.162 1434532
3 56.162 1428743
3 56.162 1428338
3 56.874 1425171
3 56.874 1419190
3 56.874 1410496
3 57.335 1409140
3 57.335 1407908
3 57.335 1407363
3 57.826 1404325
3 57.826 1398673
3 58.701 1396279
3 59.139 1392395
3 59.573 1388091
3 59.573 1383989
3 59.573 1383771
3 59.573 1381672
3 59.573 1379767
3 60.111 1378717
3 60.857 1377977
3 60.857 1375289
3 60.857 1372854
3 60.857 1372771
3 61.38 1372013
3 61.827 1370660
3 62.26 1368734
3 62.698 1368417
3 63.994 1364872
3 64.863 1363400
3 66.152 1362676
3 69.663 1362335
3 70.089 1465287
3 70.089 1457026
3 70.089 1425375
1 70.089 1416942
3 70.089 1416404
3 70.089 1410137
3 70.089 1397390
3 70.089 1396192
3 70.089 1391835
3 70.684 1384872
3 70.684 1373679
3 70.684 1362670
3 71.248 1362206
3 71.975 1360879
3 72.622 1360375
3 72.622 1360262
3 72.622 1357848
3 72.622 1357660
3 72.622 1356609
3 72.622 1355755
3 73.105 1353989
3 73.543 1350774
3 73.543 1349344
3 73.978 1347959
3 73.978 1346029
3 75.638 1345815
3 75.638 1345482
3 84.473 1504111
3 84.473 1496393
3 84.473 1469916
3 84.473 1453385
3 84.473 1450470
3 84.473 1450122
3 84.473 1445957
3 84.473 1432578
3 85.014 1419642
3 85.014 1413721
3 85.014 1411667
3 85.014 1408353
3 85.014 1407950
3 85.014 1407109
3 85.822 1390421
3 85.822 1380851
3 85.822 1367916
3 86.58 1367017
3 86.58 1365001
3 87.316 1363061
3 88.17 1362263
3 88.809 1362015
3 90.955 1361206
3 92.264 1358472
3 92.728 1356417
3 92.728 1354328
3 93.168 1352871
3 93.627 1349288
3 96.012 1348991
3 96.438 1348207
3 98.14 1513373
3 98.14 1512532
3 98.14 1507326
3 98.14 1505049
3 98.14 1456857
3 98.14 1449303
3 98.14 1436525
3 98.14 1435746
3 98.14 1431866
3 98.14 1426267
3 98.14 1412232
3 98.14 1411821
3 98.14 1411402
3 98.14 1408056
3 98.14 1399129
3 98.728 1395866
3 98.728 1393010
3 98.728 1390783
3 98.728 1389117
3 98.728 1389047
3 98.728 1385873
3 98.728 1383383
3 99.304 1383294
3 100.029 1382833
3 100.776 1380677
3 100.776 1378761
3 100.776 1376193
3 100.776 1371948
3 100.776 1365856
3 101.59 1362593
3 101.59 1361990
3 101.59 1357825
3 102.335 1357492
3 102.335 1356316
3 103.1 1354131
3 103.809 1353536
3 109.229 1352694
3 109.962 1351590
3 109.962 1350203
3 109.962 1346466
3 109.962 1345900
3 109.962 1341975
3 111.977 1339054
3 112.511 1477000
3 112.511 1470918
3 112.511 1469944
3 112.511 1463729
3 112.511 1437252
3 112.511 1429692
3 113.246 1427702
3 113.246 1423638
3 113.246 1410243
3 113.246 1409669
3 114.153 1409589
3 115.082 1405625
3 115.082 1400395
3 115.082 1398755
3 115.916 1397157
3 116.33 1393681
3 116.33 1393185
3 116.33 1392344
3 116.33 1391532
3 116.33 1391113
3 117.107 1387264
3 117.805 1383355
3 117.805 1379490
3 118.585 1378690
3 124.386 1375834
3 124.386 1374680
3 125.254 1374457
3 125.254 1374373
3 126.109 1408366
3 126.109 1402545
3 126.109 1398839
3 126.109 1386407
3 126.109 1385566
3 126.109 1385235
3 126.109 1379330
3 126.109 1379090
3 126.794 1375823
3 126.794 1374982
3 126.794 1365533
3 126.794 1363261
3 126.794 1359093
3 126.794 1354463
3 127.61 1350540
3 128.345 1349699
3 128.345 1345323
3 129.101 1342859
3 129.793 1340764
3 130.498 1340396
3 131.277 1339232
3 132.683 1338972
3 132.683 1337439
3 140.39 1482367
3 140.39 1461223
3 140.39 1456732
3 140.39 1438720
3 140.39 1419806
3 140.39 1418614
3 140.39 1410357
3 140.39 1406401
3 140.39 1406058
3 140.924 1399599
3 140.924 1398734
3 140.924 1397324
3 141.491 1395161
3 141.491 1393691
3 141.491 1389159
3 142.272 1387979
3 142.272 1386509
3 142.272 1383246
3 143.022 1380191
3 143.022 1377962
3 143.761 1376998
3 143.761 1375902
3 143.761 1373447
3 144.696 1369559
3 150.038 1357955
3 150.481 1355854
3 150.998 1354803
3 152.595 1354213
3 152.595 1352846
3 152.595 1352005
3 154.317 1458649
3 154.317 1442632
3 154.317 1442348
3 154.317 1441507
3 154.317 1436513
3 154.317 1424766
3 154.317 1424520
3 154.317 1418843
3 155.173 1415216
3 155.173 1411260
3 155.173 1403950
3 155.727 1389287
3 155.727 1388868
3 155.727 1385391
3 155.727 1385145
3 156.191 1380130
3 156.191 1379782
3 156.191 1379730
3 157.112 1379614
3 157.112 1379288
3 157.919 1377958
3 157.919 1377745
3 157.919 1377492
3 157.919 1375110
3 158.871 1374924
3 158.871 1366446
3 159.606 1366292
3 159.606 1365166
3 160.334 1360722
3 161.036 1358385
3 163.12 1357832
3 168.173 1462728
3 168.173 1458630
3 168.173 1454101
3 168.173 1453009
3 168.173 1447510
3 168.173 1445327
3 168.173 1440836
3 168.173 1436564
3 168.173 1435723
3 168.739 1426274
3 168.739 1425816
3 168.739 1424975
3 169.209 1416217
3 169.209 1413825
3 169.209 1411920
3 169.209 1407822
3 169.209 1394453
3 169.209 1390497
3 169.209 1389506
3 169.209 1388969
3 169.923 1388154
3 169.923 1387972
3 169.923 1385094
3 169.923 1385013
3 170.582 1383822
3 170.582 1383133
3 170.582 1382494
3 170.582 1381129
3 172.053 1379402
3 172.053 1377497
3 172.053 1371282
3 172.704 1369516
3 172.704 1369149
3 173.165 1368612
3 173.618 1368308
3 177.118 1367342
3 177.839 1366942
3 179.25 1366739
3 179.959 1366446
3 179.959 1364253
3 182.238 1456451
3 182.238 1451960
3 182.238 1442997
3 182.238 1427923
3 182.238 1417753
3 182.238 1405039
3 182.238 1396897
3 182.238 1393151
3 182.238 1391246
3 182.238 1388307
3 182.238 1384351
3 182.238 1383668
3 182.866 1381141
3 182.866 1381100
3 182.866 1374651
3 183.311 1373505
3 183.731 1371498
3 184.286 1371339
3 184.286 1370791
3 185.035 1370731
3 185.035 1369226
3 185.035 1369187
3 185.035 1368346
3 185.035 1368256
3 185.832 1365688
3 186.557 1363602
3 186.557 1362061
3 187.843 1361613
3 188.54 1361261
3 192.745 1359042
3 193.46 1358773
3 194.014 1358504
3 194.014 1357761
3 194.014 1357427
3 194.014 1357329
3 194.466 1353747
3 196.29 1464811
3 196.29 1436786
3 196.29 1435385
3 196.29 1430019
3 196.29 1409913
3 196.29 1408617
3 196.29 1407904
3 196.29 1401689
3 196.29 1396699
3 196.29 1395669
3 196.29 1391204
3 196.29 1390415
3 196.29 1386277
3 197.213 1384596
3 197.213 1383178
3 197.213 1379228
3 197.213 1379221
3 197.213 1373034
3 197.213 1368970
3 198.029 1366297
3 198.773 1365664
3 199.501 1361972
3 199.501 1361690
3 199.501 1353284
3 200.297 1351466
3 201 1348203
3 202.394 1348102
3 202.394 1346770
3 202.394 1344824
3 203.168 1344229
3 210.225 1455981
3 210.225 1453413
3 210.225 1453209
3 210.225 1448718
3 210.225 1441740
3 210.225 1437116
3 210.225 1436917
3 210.225 1428034
3 210.225 1427269
3 210.928 1427199
3 211.519 1423135
3 211.519 1417929
3 211.519 1417389
3 211.519 1410542
3 211.519 1404130
3 211.519 1403289
3 211.519 1402626
3 212.182 1400058
3 212.182 1398813
3 212.182 1393180
3 212.182 1389622
3 212.182 1388192
3 212.707 1386313
3 212.707 1382837
3 212.707 1381332
3 213.202 1379408
3 213.202 1375695
3 213.655 1374202
3 214.075 1373296
3 214.075 1370178
3 214.562 1369741
3 214.562 1367612
3 215.017 1365176
3 215.446 1364335
3 215.446 1362616
3 215.892 1361491
3 216.31 1360284
3 216.31 1358486
3 216.755 1356162
3 216.755 1355077
3 216.755 1353977
3 217.657 1353475
3 217.657 1353453
3 218.108 1352933
3 218.108 1351360
3 218.551 1349149
3 218.551 1348706
3 219.394 1346751
3 219.818 1345309
3 223.071 1344864
3 224.602 1461790
3 224.602 1449037
3 224.602 1428634
3 224.602 1402157
3 224.602 1401515
3 224.602 1396893
3 225.43 1393797
3 225.43 1390302
3 225.43 1389627
3 225.43 1387249
3 225.43 1386781
3 225.43 1378137
3 225.43 1368074
3 226.274 1363223
3 226.274 1360902
3 226.274 1360487
3 227.053 1360377
3 227.053 1359913
3 227.053 1358553
3 227.801 1357692
3 227.801 1357622
3 227.801 1357275
3 227.801 1356687
3 227.801 1354636
3 227.801 1353424
3 228.615 1351830
3 228.615 1351760
3 229.375 1351263
3 229.375 1349590
3 229.375 1349280
3 229.375 1347573
3 232.803 1345887
3 232.803 1344004
3 233.365 1343522
3 234.496 1342988
3 234.496 1342254
3 234.496 1340957
3 235.06 1340116
3 235.902 1339608
3 235.902 1339189
3 235.902 1337592
3 238.347 1496137
3 238.347 1492530
3 238.347 1480658
3 238.347 1475642
3 238.347 1471544
3 238.347 1465350
3 238.347 1456540
3 238.347 1452476
3 238.867 1451926
3 238.867 1448688
3 238.867 1446637
3 238.867 1440126
3 238.867 1405224
3 239.343 1404936
3 239.343 1398158
3 239.343 1393953
3 239.343 1392931
3 239.799 1391481
3 239.799 1386068
3 239.799 1385631
3 240.394 1383861
3 240.394 1383501
3 240.394 1383063
3 240.873 1381943
3 240.873 1381932
3 241.357 1379915
3 241.357 1379089
3 241.357 1377767
3 241.357 1375527
3 241.357 1371694
3 241.357 1370321
3 241.357 1369991
3 241.357 1368049
3 241.958 1364127
3 244.696 1360677
3 245.114 1356721
3 245.114 1356302
3 246.446 1355001
3 246.446 1354022
3 246.985 1352513
3 246.985 1352095
3 249.26 1349538
3 250.944 1349310
3 250.944 1348327
3 250.944 1346047
3 252.225 1464152
3 252.225 1441788
3 252.225 1414252
3 252.225 1405847
3 252.225 1399653
3 252.225 1392605
3 252.225 1389987
3 252.225 1389854
3 252.75 1388816
3 253.178 1387281
3 253.178 1382088
3 253.178 1380037
3 253.775 1379434
3 253.775 1375505
3 254.296 1375446
3 254.296 1373929
3 254.296 1373481
3 254.8 1369614
3 254.8 1369544
3 254.8 1368399
3 254.8 1364032
3 254.8 1361875
3 255.304 1360488
3 255.304 1356749
3 255.819 1355113
3 256.245 1351232
3 256.677 1351162
3 257.087 1350138
3 266.42 1484583
3 266.42 1475939
3 266.42 1470747
3 266.42 1451285
3 266.42 1436699
3 266.42 1435858
3 266.42 1428933
3 266.42 1427605
3 266.958 1423481
3 267.409 1419383
3 267.824 1417740
3 267.824 1416456
3 267.824 1414757
3 267.824 1414270
3 267.824 1410206
3 268.282 1403721
3 268.282 1403302
3 268.282 1397506
3 268.282 1394611
3 268.282 1392699
3 268.809 1380846
3 268.809 1369314
3 268.809 1369244
3 268.809 1368486
3 268.809 1364321
3 269.272 1363774
3 269.698 1357831
3 269.698 1355270
3 273.419 1352841
3 273.845 1352697
3 273.845 1351856
3 275.079 1349854
3 275.079 1349451
3 275.514 1349296
3 275.514 1349226
3 275.955 1347241
3 276.375 1346260
3 276.375 1345841
3 280.043 1469805
3 280.043 1458105
3 280.043 1457067
3 280.043 1448373
3 280.043 1437774
3 280.043 1423127
3 280.043 1421674
3 280.651 1414235
3 280.651 1403921
3 280.651 1400754
3 280.651 1398703
3 280.651 1391025
3 280.651 1387288
3 281.851 1380011
3 290.027 1378880
3 290.476 1378809
3 290.476 1374711
3 290.952 1374271
3 290.952 1371572
3 290.952 1370433
3 290.952 1370101
3 291.831 1370029
3 291.831 1369758
3 292.293 1368367
3 292.725 1366999
3 292.725 1365660
3 293.161 1360500
3 293.582 1360335
3 294.029 1418711
3 294.029 1417489
3 294.029 1415448
3 294.029 1411459
3 294.029 1410550
3 294.522 1409287
3 294.522 1408645
3 295.113 1403439
3 295.564 1399693
3 295.564 1394745
3 295.564 1385941
3 295.564 1384757
3 295.564 1381284
3 295.564 1380266
3 296.101 1379425
3 296.101 1378712
3 296.101 1375469
3 296.551 1375194
3 296.551 1373239
3 296.551 1372907
3 296.551 1372760
3 297.3 1372398
3 297.3 1371077
3 298.051 1368509
3 298.788 1367471
3 298.788 1360746
3 299.527 1360499
3 299.527 1360230
3 299.527 1357774
3 301.008 1354940
3 301.008 1350080
3 302.529 1348964
3 308.407 1435833
3 308.407 1434795
3 308.407 1433749
3 308.407 1432332
3 308.407 1430757
3 308.407 1423602
3 308.407 1415109
3 308.983 1413813
3 308.983 1407349
3 308.983 1406003
3 308.983 1401939
3 308.983 1398603
3 309.46 1397557
3 309.46 1387556
3 309.46 1386822
3 310.318 1386208
3 310.734 1379873
3 311.151 1378900
3 311.151 1372706
3 311.151 1372641
3 312.005 1369058
3 322.17 1420248
3 322.17 1417797
3 322.17 1404974
3 322.17 1400809
3 322.17 1397170
3 322.17 1393350
3 322.17 1382849
3 322.17 1379586
3 322.739 1375276
3 324.169 1370542
3 324.169 1369449
3 324.974 1369243
3 324.974 1367420
3 325.706 1367191
3 326.389 1363618
3 326.389 1361713
3 329.8 1357946
3 336.464 1424846
3 336.464 1421219
3 336.464 1409025
3 336.464 1408388
3 336.464 1402410
3 336.464 1402340
3 337.271 1399772
3 337.271 1398931
3 337.271 1397863
3 337.271 1394193
3 338.068 1390042
3 338.068 1385908
3 338.068 1385052
3 338.805 1383147
3 339.331 1383026
3 340.041 1382185
3 340.041 1382167
3 342.207 1382061
3 342.207 1381726
3 342.953 1379717
3 342.953 1377662
3 350.373 1459310
3 350.373 1448769
3 350.373 1444604
3 350.373 1433087
3 350.961 1432246
3 350.961 1428619
3 350.961 1421143
3 350.961 1415224
3 351.492 1414522
3 351.492 1412153
3 351.492 1408946
3 352.975 1404107
3 352.975 1399159
3 352.975 1391769
3 353.684 1389360
3 353.684 1384939
3 353.684 1383705
3 354.318 1380122
3 354.318 1377986
3 355.112 1374706
3 355.569 1374233
3 355.569 1370642
3 358.254 1369950
3 360.528 1369662
3 360.528 1369416
3 364.249 1500743
3 364.249 1490706
3 364.249 1485031
3 364.249 1474872
3 364.249 1473255
3 364.249 1453149
3 364.249 1446934
3 364.249 1446262
3 364.249 1439050
3 364.249 1416950
3 364.249 1416664
3 365.081 1415482
1 365.081 1412283
3 365.081 1401556
3 365.081 1397863
3 365.081 1397196
3 365.081 1396791
3 365.081 1396648
3 365.081 1396094
3 365.931 1394213
3 365.931 1393556
3 365.931 1380005
3 365.931 1377152
3 365.931 1375241
3 366.699 1374617
3 366.699 1371354
3 366.699 1358991
3 366.699 1358572
3 366.699 1352776
3 367.468 1352547
3 368.213 1351034
3 368.213 1350097
3 368.213 1347898
3 368.96 1347736
3 368.96 1346852
3 373.448 1346482
3 374.17 1346049
3 374.17 1345003
3 374.17 1344992
3 374.17 1341860
3 374.901 1341420
3 374.901 1341412
3 375.364 1340571
3 375.849 1339292
3 375.849 1339148
3 378.339 1477468
3 378.339 1471274
3 378.339 1427936
3 378.339 1419973
3 378.339 1419623
3 378.339 1416346
3 378.339 1409344
3 378.843 1408267
3 378.843 1406776
3 378.843 1405269
3 379.46 1403838
3 379.46 1401234
3 379.46 1400909
3 379.46 1398958
3 379.46 1398316
3 379.46 1390468
3 380.379 1390177
3 380.379 1386586
3 380.379 1383323
3 380.379 1380382
3 380.379 1379838
3 380.379 1376255
3 380.379 1370583
3 380.379 1364866
3 381.192 1360910
3 381.192 1359272
3 381.905 1358859
3 383.309 1358196
3 383.309 1357455
3 383.309 1355276
3 386.771 1350317
3 386.771 1348884
3 388.293 1348506
3 392.453 1472047
3 392.453 1471928
3 392.453 1469877
3 392.453 1465821
3 392.453 1462194
3 392.453 1430733
3 392.453 1430405
3 392.453 1429892
3 392.453 1422065
3 393.092 1421233
3 393.092 1416868
3 393.092 1409890
3 393.092 1407322
3 393.584 1406789
1 394.058 1399831
3 394.058 1399771
3 394.058 1396575
3 394.517 1395794
3 396.163 1395246
3 396.163 1387168
3 396.163 1385976
3 397.647 1382155
3 397.647 1374185
3 398.097 1373888
3 398.522 1370261
3 398.522 1362097
3 398.522 1352423
3 406.143 1521077
3 406.143 1514862
3 406.143 1474083
3 406.143 1466185
3 406.143 1453459
3 406.143 1448795
3 406.143 1447757
3 406.143 1441563
3 406.143 1417162
3 406.143 1412039
3 406.143 1403767
3 406.703 1395977
3 406.703 1393506
3 406.703 1392385
3 406.703 1384276
3 406.703 1378986
3 406.703 1377003
3 406.703 1374435
3 408.017 1371665
3 408.439 1368002
3 408.439 1367657
3 408.439 1364781
3 408.439 1364285
3 408.439 1363444
3 408.439 1362016
3 408.439 1361473
3 408.927 1359531
3 408.927 1358481
3 408.927 1357556
3 408.927 1355948
3 408.927 1353357
3 411.162 1351058
3 412.067 1350755
3 412.067 1350751
3 412.827 1350301
3 412.827 1349113
3 413.431 1347520
3 417.522 1347295
3 420.13 1492597
3 420.13 1488291
3 420.13 1487604
3 420.13 1487167
3 420.13 1486382
3 420.13 1468183
3 420.13 1462008
3 420.13 1458052
3 420.13 1455596
3 420.13 1452426
3 420.13 1425417
3 420.13 1412258
3 420.13 1411833
3 420.13 1408206
3 420.13 1406982
3 420.922 1406772
3 420.922 1406702
3 420.922 1405830
3 420.922 1400034
3 420.922 1399193
3 421.709 1393986
3 421.709 1387462
3 421.709 1386475
3 422.461 1385794
3 422.461 1385140
3 422.461 1383435
3 423.28 1382628
3 423.977 1381050
3 424.573 1377643
3 424.573 1376654
3 425.008 1374550
3 425.008 1374387
3 425.008 1371124
3 425.008 1370529
3 425.533 1363090
3 426.595 1362537
3 426.595 1356710
3 426.595 1356112
3 426.595 1351323
3 427.326 1350849
3 427.326 1349011
3 427.326 1348001
3 427.326 1345387
3 427.326 1341576
3 429.502 1341476
3 430 1341363
3 430.441 1340184
3 430.441 1339399
3 430.441 1339054
3 432.957 1338213
3 434.233 1451274
3 434.233 1424797
3 434.233 1424495
3 434.233 1424225
3 434.233 1419289
3 434.233 1402198
3 434.233 1401715
3 434.233 1401107
3 434.233 1399059
3 434.847 1394775
3 434.847 1391620
3 434.847 1391099
3 434.847 1390258
3 434.847 1390053
3 434.847 1389666
3 434.847 1389024
3 435.431 1380254
3 435.431 1379104
3 435.431 1378392
3 435.431 1378303
3 435.431 1377139
3 436.291 1376536
3 436.291 1375419
3 436.895 1369033
3 440.23 1368061
3 440.23 1365997
3 440.23 1365970
3 440.718 1365556
3 440.718 1365137
3 440.718 1362225
3 440.718 1361446
3 440.718 1360514
3 440.718 1359139
3 442.659 1351257
3 443.161 1351107
3 443.993 1349309
3 443.993 1348271
3 446.036 1348106
3 448.354 1411420
3 448.354 1405305
3 448.354 1398263
3 448.354 1391786
3 448.857 1384367
3 448.857 1382770
3 448.857 1379365
3 448.857 1375736
3 448.857 1374918
3 448.857 1374273
3 448.857 1374187
3 449.504 1368659
3 449.504 1367996
3 449.504 1367711
3 449.504 1365681
3 449.504 1362964
3 450.027 1362781
3 450.027 1362243
3 450.027 1361927
3 450.547 1361440
3 451.393 1360399
3 451.874 1356587
3 452.608 1352489
3 462.55 1494217
3 462.55 1489726
3 462.55 1463667
3 462.55 1463224
3 462.55 1458361
3 462.55 1445409
3 463.376 1445339
3 464.107 1439331
3 464.107 1434022
3 464.107 1430759
3 464.866 1425286
3 464.866 1422593
3 464.866 1413899
3 464.866 1410316
3 465.639 1405007
3 465.639 1402678
3 465.639 1397325
3 465.639 1394206
3 476.389 1469392
3 476.389 1466538
3 476.389 1456501
3 476.389 1449659
3 476.389 1418988
3 476.389 1414853
3 476.389 1411559
3 476.389 1409898
3 476.389 1404438
3 476.389 1400849
3 476.389 1398055
3 477.078 1391861
3 477.078 1388598
3 477.078 1379829
3 477.078 1373247
3 477.078 1371147
3 477.078 1370901
3 477.775 1369616
3 477.775 1363272
3 477.775 1359015
3 478.326 1353941
3 478.326 1353706
3 478.845 1352046
3 479.377 1351976
3 479.893 1351777
3 479.893 1347821
3 480.481 1346686
3 480.481 1343166
3 481.009 1341597
3 481.584 1339443
3 481.584 1339373
3 482.816 1337960
3 490.144 1435322
3 490.144 1415483
3 490.144 1409117
3 490.144 1404810
3 490.144 1402816
3 490.144 1399258
3 490.144 1396933
3 490.144 1389156
3 491.007 1386789
3 491.571 1385200
3 491.571 1384538
3 491.571 1383805
3 492.129 1383757
3 492.129 1380606
3 492.129 1377761
3 493.225 1372523
3 493.225 1372105
3 493.225 1370995
3 493.225 1368745
3 493.225 1366329
3 493.832 1365940
3 493.832 1363048
3 494.273 1361234
3 495.145 1360922
3 495.581 1360771
3 496.01 1360393
3 496.747 1356397
3 496.747 1354760
3 497.341 1354599
3 498.354 1352694
3 498.354 1352232
3 498.839 1351213
3 501.828 1350823
3 502.265 1349982
3 502.72 1349718
3 504.006 1492309
3 504.006 1482554
3 504.006 1413935
3 504.006 1407711
3 504.491 1405241
3 504.491 1405171
3 504.491 1404211
3 504.491 1400987
3 504.491 1400384
3 504.491 1398180
3 504.491 1391515
3 505.259 1388952
3 505.824 1387478
3 506.245 1383181
3 506.245 1378483
3 506.245 1377642
3 506.245 1373530
3 506.245 1372044
3 506.245 1369114
3 506.727 1368273
3 506.727 1367683
3 506.727 1367203
3 508.014 1367133
3 508.433 1365068
3 508.433 1364023
3 508.433 1363420
3 508.883 1363018
3 508.883 1362374
3 509.923 1361598
3 510.673 1358674
3 510.673 1357656
3 510.673 1356709
3 512.836 1353795
3 512.836 1352242
3 512.836 1351898
3 512.836 1351205
3 518.482 1496371
3 518.482 1492556
3 518.482 1491953
3 518.482 1486747
3 518.482 1471658
3 518.482 1465254
3 518.482 1462812
3 518.482 1462003
3 518.482 1457833
3 518.482 1455086
3 519.372 1448353
3 519.372 1447196
3 519.372 1443098
3 519.372 1438472
3 520.124 1433266
3 520.124 1429639
3 520.87 1425575
3 520.87 1423787
3 521.596 1423368
3 521.596 1422821
3 521.596 1421858
3 521.596 1419397
3 522.342 1419296
3 522.342 1394702
3 522.342 1392820
3 522.342 1380440
3 522.342 1375358
3 522.342 1367676
3 522.342 1367437
3 523.132 1365157
3 523.834 1365011
3 527.869 1361802
3 529.297 1360896
3 529.297 1360520
3 532.02 1437665
3 532.02 1427762
3 532.02 1422556
3 532.02 1398989
3 532.02 1392774
3 532.02 1387049
3 532.02 1370650
3 532.532 1367701
3 532.532 1364046
3 532.532 1362426
3 533.09 1361540
3 533.09 1360521
3 533.591 1360115
3 534.038 1356852
3 534.479 1351517
3 534.479 1349466
3 534.479 1347362
3 535.092 1345738
3 535.092 1343170
3 540.487 1342676
3 546.815 1503665
3 546.815 1501620
3 546.815 1497993
3 546.815 1493359
3 546.815 1482291
3 546.815 1477570
3 546.815 1461755
3 546.815 1455408
3 547.935 1449574
3 547.935 1447750
3 547.935 1444093
3 547.935 1443168
3 547.935 1440029
3 547.935 1433701
3 547.935 1431650
3 547.935 1420990
3 547.935 1412296
3 547.935 1411989
3 548.94 1408382
3 548.94 1399688
3 548.94 1397224
3 548.94 1393704
3 548.94 1392863
3 549.739 1392793
3 549.739 1390160
3 549.739 1390046
3 550.529 1389166
3 550.529 1383512
3 550.529 1377388
3 550.529 1375445
3 551.294 1374072
3 551.294 1373826
3 551.294 1373756
3 552.287 1372981
3 552.287 1370569
3 552.287 1369730
3 552.287 1369718
3 552.287 1365446
3 553.369 1362337
3 553.792 1360813
3 553.792 1360755
3 553.792 1360569
3 554.231 1360145
3 554.698 1360075
3 554.698 1358629
3 554.698 1356916
3 554.698 1355918
3 555.449 1355366
3 556.816 1352703
3 557.522 1350852
3 557.522 1349909
3 560.221 1445694
3 560.221 1443326
3 560.221 1439059
3 560.221 1437275
3 560.221 1433692
3 560.221 1428009
3 560.221 1418670
3 560.221 1415577
3 560.221 1411652
3 561.087 1401514
3 561.087 1395170
3 561.087 1391543
3 561.087 1390621
3 561.849 1388797
3 561.849 1384192
3 561.849 1381931
3 561.849 1380885
3 562.607 1378883
3 563.324 1378798
3 563.881 1373966
3 568.129 1373450
3 568.129 1368141
3 568.129 1363403
3 568.129 1362454
3 568.923 1359593
3 568.923 1358603
3 570.089 1356847
3 570.089 1356799
3 570.951 1356504
3 571.374 1356482
3 573.073 1356467
3 574.673 1486641
3 574.673 1482577
3 574.673 1450181
3 574.673 1444989
3 574.673 1438846
3 574.673 1437808
3 574.673 1437275
3 574.673 1434181
3 574.673 1429343
3 575.521 1424740
3 575.521 1424477
3 576.27 1424407
3 576.27 1423361
3 576.27 1419781
3 577.041 1403291
3 577.041 1401012
3 577.781 1398797
3 577.781 1398116
3 578.512 1395655
3 578.512 1395585
3 578.512 1393951
3 579.281 1385541
3 579.281 1384902
3 579.901 1384324
3 579.901 1383286
3 579.901 1381651
3 583.521 1378990
3 584.274 1377977
3 585.306 1375658
3 585.306 1374620
3 585.306 1373574
3 588.217 1411002
3 588.217 1407756
3 588.217 1402144
3 588.217 1398881
3 588.217 1392426
3 588.217 1391152
3 588.217 1390106
3 588.217 1389820
3 589.065 1388282
3 589.065 1387493
3 589.727 1383809
3 589.727 1375592
3 592.084 1372047
3 592.519 1370522
3 592.519 1370196
3 592.519 1370125
3 592.519 1368826
3 592.519 1368523
3 592.519 1367485
3 593.036 1366564
3 593.466 1366477
3 593.909 1366239
3 594.787 1365439
3 594.787 1364909
3 594.787 1362176
3 602.267 1505459
3 602.267 1501583
3 602.267 1485825
3 602.267 1471809
3 602.267 1436022
3 602.267 1434924
3 602.267 1429498
3 602.267 1425928
3 602.267 1425331
3 602.267 1424807
3 603.082 1420709
3 603.082 1408944
3 603.082 1408525
3 603.082 1402729
3 603.905 1398122
3 603.905 1397143
3 603.905 1393516
3 604.809 1393168
3 604.809 1392130
3 605.554 1389538
3 605.554 1388299
3 605.554 1383609
3 605.554 1380671
3 605.554 1373232
3 605.554 1372391
3 606.383 1371347
3 607.061 1366561
3 607.061 1365824
3 607.503 1362951
3 607.927 1361179
3 607.927 1360083
3 607.927 1359952
3 608.375 1359664
3 608.375 1359219
3 608.375 1357769
3 608.375 1356209
3 608.823 1352834
3 609.245 1351506
3 609.659 1350852
3 609.659 1350832
3 610.504 1349772
3 616.168 1514437
3 616.168 1502437
3 616.168 1482287
3 616.168 1478107
3 616.168 1477112
3 616.168 1472690
3 616.168 1472619
3 616.168 1467895
3 616.168 1461680
3 616.168 1457252
3 617.072 1448591
3 617.072 1447553
3 617.072 1446825
3 617.072 1442761
3 617.072 1439096
3 617.072 1437989
3 617.897 1436064
3 617.897 1434013
3 617.897 1431082
3 618.561 1425387
3 618.561 1412530
3 618.561 1403836
3 619.189 1400573
3 620.634 1400567
3 621.395 1399857
3 622.157 1398088
3 622.882 1394872
3 625.337 1393773
3 625.785 1390054
3 625.785 1381434
3 626.233 1378690
3 626.233 1374199
3 628.345 1373360
3 628.831 1372730
3 628.831 1370398
3 628.831 1368516
3 629.289 1367812
3 629.289 1366465
3 630.173 1499140
3 630.173 1491458
3 630.173 1447845
3 630.173 1440291
3 630.173 1436335
3 630.173 1431844
3 630.173 1427679
3 630.173 1421869
3 630.173 1418539
3 630.173 1411701
3 630.716 1409664
3 630.716 1406879
3 630.716 1405583
3 631.175 1403041
3 631.175 1401809
3 631.175 1398546
3 631.175 1392799
3 631.175 1385360
3 631.175 1377383
3 631.175 1376674
3 631.728 1375332
3 631.728 1374553
3 631.728 1372705
3 631.728 1372459
3 632.197 1371421
3 632.617 1368784
3 632.617 1368206
3 632.617 1363099
3 633.048 1359497
3 633.048 1359078
3 633.819 1356701
3 634.559 1356510
3 634.559 1353611
3 635.277 1352705
3 635.963 1350654
3 636.67 1350240
3 637.303 1348278
3 637.303 1347835
3 637.762 1347437
3 637.762 1346195
3 637.762 1345223
3 637.762 1344229
3 637.762 1343810
3 638.971 1343298
3 639.411 1342972
3 639.827 1342358
3 639.827 1342081
3 640.995 1340755
3 644.027 1506887
3 644.027 1506468
3 644.027 1490923
3 644.027 1481124
3 644.027 1480078
3 644.027 1477468
3 644.027 1454788
3 644.027 1448071
3 644.027 1446775
3 644.027 1442506
3 644.898 1442222
3 645.342 1422116
3 645.342 1420869
3 645.79 1414468
3 646.224 1403802
3 646.224 1402739
3 646.224 1401187
3 646.224 1399005
3 646.224 1394775
3 646.224 1392603
3 646.715 1391069
3 646.715 1389569
3 646.715 1389499
3 648.563 1389196
3 648.563 1389179
3 648.563 1388810
3 652.307 1386610
3 652.742 1380759
3 653.671 1380666
3 653.671 1379764
3 653.671 1378357
3 654.428 1377403
3 655.146 1375789
3 658.1 1469000
3 658.1 1438038
3 658.1 1421634
3 658.1 1421537
3 658.1 1417581
3 658.1 1415419
3 658.1 1408446
3 658.73 1402767
3 658.73 1400320
3 658.73 1392919
3 658.73 1389676
3 658.73 1385612
3 659.215 1385141
3 660.585 1384505
3 661.03 1380878
3 664.933 1379869
3 668.113 1375403
3 668.113 1373574
3 668.113 1373439
3 668.897 1371369
3 668.897 1367224
3 672.197 1455114
3 672.197 1440792
3 672.197 1433428
3 672.197 1429263
3 672.197 1426828
3 672.197 1407174
3 672.197 1406104
3 672.197 1404154
3 673.039 1403116
3 673.039 1402603
3 673.039 1400986
3 673.039 1399686
3 673.039 1386377
3 673.875 1379419
3 674.535 1378578
3 674.535 1378525
3 674.535 1375934
3 675.302 1369115
3 679.001 1366135
3 686.145 1453035
1 686.145 1440711
3 686.145 1436919
3 686.145 1432956
3 686.145 1425517
3 686.145 1422949
3 686.145 1422801
3 686.145 1415381
3 686.145 1411216
3 686.145 1410797
3 686.145 1409314
3 686.145 1404823
3 686.145 1402686
3 686.721 1396369
3 686.721 1388952
3 686.721 1376333
3 686.721 1374630
3 686.721 1370503
3 686.721 1369365
3 687.231 1367541
3 687.231 1365695
3 687.231 1364657
3 687.231 1363883
3 687.691 1363464
3 687.691 1362174
3 687.691 1360377
3 687.691 1359774
3 688.143 1358395
3 688.143 1358186
3 688.143 1357905
3 688.143 1356859
3 688.143 1356440
3 688.702 1355251
3 688.702 1354559
3 688.702 1353578
3 689.436 1353346
3 689.436 1352047
3 691.026 1351295
3 696.096 1350425
3 696.689 1350279
3 697.384 1349860
3 698.086 1346185
3 698.086 1346041
3 698.833 1344699
3 698.833 1343824
3 699.531 1343820
3 700.219 1482997
3 700.219 1463223
3 700.219 1455541
3 700.219 1447491
3 700.219 1425621
3 700.219 1423043
3 700.219 1422550
3 700.876 1416455
3 700.876 1416036
3 700.876 1415722
3 700.876 1414435
3 700.876 1410337
3 700.876 1394657
3 700.876 1390619
3 700.876 1388985
3 701.57 1386909
3 701.57 1386068
3 701.57 1382329
3 701.57 1381674
3 701.57 1381477
3 702.175 1380431
3 702.175 1379729
3 702.175 1377387
3 702.742 1376239
3 703.771 1376229
3 703.771 1375645
3 704.719 1373077
3 705.171 1372582
3 705.171 1371060
3 705.171 1369797
3 705.668 1368799
3 705.668 1367746
3 705.668 1367433
3 705.668 1366942
3 706.151 1366872
3 707.822 1361945
3 707.822 1361087
3 708.255 1360049
3 708.255 1359245
3 708.681 1358328
3 708.681 1355166
3 709.546 1353425
3 709.965 1352159
3 709.965 1351669
3 710.626 1350393
3 711.258 1349473
3 711.675 1349436
3 714.151 1411117
3 714.151 1404012
3 714.151 1401911
3 714.151 1389621
3 714.151 1386038
3 714.993 1381343
3 715.717 1379438
3 716.425 1378142
3 716.425 1376243
3 717.072 1371227
3 717.072 1369176
3 718.085 1360708
3 718.085 1358627
3 718.788 1357851
3 719.511 1352494
3 719.511 1351456
3 720.221 1351211
3 720.221 1348069
3 720.872 1347466
3 720.872 1346965
3 721.306 1344231
3 721.306 1344005
3 721.88 1343402
1 728.204 1485219
3 728.204 1450931
3 728.204 1444692
3 728.204 1443851
3 728.204 1439588
3 728.204 1437930
3 728.715 1437019
3 728.715 1435663
3 728.715 1429469
3 728.715 1424978
3 729.451 1421081
3 729.451 1416809
3 730.187 1414999
3 730.902 1411545
3 730.902 1410408
3 731.629 1406642
3 731.629 1402969
3 731.629 1398575
3 732.372 1397529
3 733.792 1395782
3 734.517 1385896
3 735.54 1383676
3 735.54 1380653
3 735.98 1376381
3 735.98 1375259
3 742.083 1449697
3 742.083 1433932
3 742.083 1418833
3 742.083 1408269
3 742.9 1402135
3 743.667 1400168
3 743.667 1399534
3 743.667 1395262
3 744.736 1393625
3 744.736 1392694
3 744.736 1390050
3 745.233 1388410
3 745.654 1386423
3 746.181 1382881
3 746.181 1380385
3 746.636 1375714
3 746.636 1375179
3 747.088 1371985
3 747.088 1370454
3 747.088 1370080
3 747.544 1369034
3 756.49 1507168
3 756.49 1504131
3 756.49 1489042
3 756.49 1465475
3 756.49 1459115
3 756.49 1453655
3 756.49 1444592
3 756.49 1441681
3 756.49 1415204
3 756.49 1414363
3 756.49 1407527
3 756.49 1400644
3 756.49 1399729
3 756.49 1397457
3 757.462 1395406
3 757.462 1384661
3 757.462 1377207
3 757.462 1373280
3 757.462 1365072
3 757.462 1363062
3 757.462 1360430
3 757.974 1360360
3 758.852 1358044
3 758.852 1357869
3 759.29 1357835
3 759.29 1355862
3 759.29 1353074
3 759.29 1350764
3 759.29 1347854
3 759.29 1347784
3 759.769 1346020
3 760.182 1345718
3 760.662 1345555
3 761.393 1345215
3 762.78 1344680
3 763.976 1344158
3 763.976 1343513
3 764.396 1343443
3 764.8 1342867
3 770.317 1419331
3 770.317 1414574
3 770.317 1412304
3 770.317 1408571
3 770.317 1404615
3 770.317 1404183
3 770.317 1403587
3 770.317 1397269
3 770.317 1394556
3 771.162 1387357
3 771.162 1385306
3 771.162 1384391
3 771.899 1384321
3 771.899 1383401
3 771.899 1380833
3 772.638 1373790
3 772.638 1372938
3 773.385 1372741
3 773.385 1368250
3 773.385 1367225
3 773.385 1366199
3 773.385 1360798
3 773.385 1360420
3 773.385 1359694
3 773.385 1359382
3 773.385 1357789
3 774.167 1356743
3 775.205 1356279
3 775.731 1355963
3 775.731 1354809
3 776.291 1353369
3 776.291 1352323
3 779.119 1352315
3 780.445 1352205
3 780.445 1351525
3 780.445 1351517
3 781.563 1351447
3 784.327 1473114
3 784.327 1459719
3 784.327 1438182
3 784.327 1419615
3 784.327 1416599
3 784.327 1416307
3 784.327 1415660
3 784.327 1410870
3 784.327 1406806
3 784.327 1398653
3 785.203 1395087
3 785.203 1394246
3 785.203 1389118
3 785.203 1388517
3 785.203 1385383
3 785.798 1382765
3 789.94 1381109
3 789.94 1376786
3 797.308 1376734
3 797.308 1375706
3 798.208 1518130
3 798.208 1482824
3 798.208 1472145
3 798.208 1459419
3 798.208 1437406
3 798.208 1429903
3 798.208 1417902
3 798.208 1415334
3 798.208 1404476
3 798.208 1394894
3 798.208 1387176
3 799.053 1387104
3 799.053 1386335
3 799.053 1381367
3 799.053 1381317
3 799.053 1368717
3 799.965 1368529
3 799.965 1368031
3 799.965 1367070
3 799.965 1365161
3 799.965 1364081
3 799.965 1363487
3 799.965 1361432
3 800.588 1360147
3 801.438 1357453
3 803.163 1354170
3 803.163 1353649
3 803.667 1352833
3 803.667 1350782
3 803.667 1350722
3 803.667 1349785
3 804.151 1348944
3 804.151 1347616
3 804.151 1347567
3 804.151 1347323
3 805.061 1345662
3 805.513 1344504
3 806.016 1344053
3 806.016 1343826
3 806.451 1343254
3 807.276 1342867
3 812.369 1453747
3 812.369 1447591
3 812.369 1443964
3 812.369 1433569
3 812.369 1415481
3 812.369 1401297
3 812.983 1396091
3 812.983 1382384
1 812.983 1381268
3 812.983 1379007
3 812.983 1378143
3 812.983 1376890
3 812.983 1375996
3 812.983 1368886
3 813.69 1363945
3 813.69 1360808
3 813.69 1359747
3 813.69 1358443
3 813.69 1356653
3 813.69 1355352
3 814.36 1353466
3 814.36 1353314
3 815.228 1352771
3 815.228 1352353
3 815.958 1350302
3 817.775 1350203
3 817.775 1350133
3 819.088 1345792
3 826.421 1395150
3 826.421 1392294
3 826.421 1384479
3 826.421 1383484
3 826.421 1374790
3 827.213 1374068
3 827.925 1371004
3 827.925 1370977
3 829.221 1370797
3 829.221 1364762
3 832.011 1360806
3 836.153 1360560
3 840.255 1511036
3 840.255 1492523
3 840.255 1491088
3 840.255 1487461
3 840.255 1486620
3 840.255 1477361
3 840.255 1461363
3 840.255 1437962
3 840.255 1436989
3 841.085 1421589
3 841.085 1412609
3 841.085 1408479
3 841.085 1408135
3 841.085 1406375
3 841.085 1400431
3 841.085 1399385
3 841.085 1393502
3 841.085 1389438
3 841.085 1384303
3 841.085 1376043
3 841.085 1368486
3 841.964 1368325
3 841.964 1364841
3 842.683 1364530
3 842.683 1363437
3 844.096 1362110
3 844.096 1356076
3 847.792 1354208
3 847.792 1354179
3 847.792 1351274
3 848.559 1346068
3 849.76 1345248
3 853.222 1345105
3 853.911 1343042
3 854.613 1501944
3 854.613 1488112
3 854.613 1482885
3 854.613 1480598
3 854.613 1474383
3 854.613 1458987
3 854.613 1449188
3 854.613 1440254
3 854.613 1427862
3 855.426 1426907
3 855.426 1421573
3 855.426 1421036
3 855.426 1420927
3 855.426 1410956
3 855.903 1400415
3 855.903 1399765
3 855.903 1398439
3 856.351 1397439
3 856.351 1397188
3 856.351 1393755
3 856.351 1390048
3 856.351 1386288
3 856.823 1385685
3 856.823 1384954
3 857.577 1384928
3 857.577 1380972
3 859.05 1368695
3 859.05 1367649
3 861.224 1367297
3 868.028 1516796
3 868.028 1502002
3 868.028 1497904
3 868.028 1486873
3 868.028 1482382
3 868.028 1475546
3 868.028 1471482
3 868.028 1467317
3 868.028 1428718
3 868.028 1427106
3 868.898 1424521
3 868.898 1422341
3 868.898 1414599
3 868.898 1413755
3 868.898 1412968
3 868.898 1395139
3 869.758 1394610
3 869.758 1392953
3 869.758 1392112
3 869.758 1388395
3 869.758 1383904
3 870.522 1365168
3 871.031 1364628
3 871.545 1363154
3 872.075 1362508
3 872.075 1360970
3 873.138 1356725
3 874.188 1352985
3 874.188 1352545
3 874.665 1352052
3 875.08 1350722
3 875.08 1350086
3 875.08 1349491
3 875.08 1344837
3 875.93 1344423
3 876.338 1344311
3 876.338 1342786
3 880.398 1342497
3 882.467 1483997
3 882.467 1457714
3 882.467 1457152
3 882.467 1449470
3 882.467 1393997
3 882.467 1392397
3 882.467 1389109
3 882.467 1387696
3 882.467 1387413
3 882.978 1386218
3 882.978 1382894
3 883.407 1381856
3 883.407 1374417
3 884.428 1371291
3 884.428 1368995
3 884.428 1367949
3 884.428 1360967
3 884.428 1360040
3 885.048 1359853
3 885.048 1358751
3 885.048 1356166
3 885.048 1356060
3 885.048 1356019
3 885.686 1354115
3 885.686 1353973
3 885.686 1353545
3 885.686 1352348
3 885.686 1352330
3 886.937 1351929
3 888.36 1350871
3 888.36 1350264
3 888.36 1348820
3 889.82 1347001
3 890.519 1346517
3 890.519 1343689
3 891.221 1342988
3 896.159 1433207
3 896.159 1432609
3 896.159 1429026
3 896.159 1425399
3 896.159 1394632
3 896.159 1389713
3 896.159 1388447
3 896.676 1386275
3 896.676 1380409
3 897.552 1377320
3 897.552 1376479
3 897.552 1371880
3 897.552 1371677
3 897.552 1363280
3 899.143 1362230
3 899.143 1359225
3 899.143 1353631
3 900.613 1350004
3 910.032 1467870
3 910.032 1451466
3 910.032 1418996
3 910.032 1414848
3 910.032 1405601
3 910.032 1396544
3 910.032 1395802
3 910.032 1394325
3 910.032 1388415
3 910.032 1387231
3 910.605 1373230
3 910.605 1367036
3 910.605 1364582
3 910.605 1363922
3 910.605 1360530
3 911.077 1360295
3 911.077 1356130
3 911.503 1356126
3 911.503 1355489
3 911.503 1354894
3 911.957 1354295
3 911.957 1353571
3 913.204 1350712
3 913.204 1350452
3 913.204 1350281
3 913.669 1349590
3 913.669 1349493
3 913.669 1349076
3 914.101 1348105
3 914.101 1346200
3 914.101 1345289
3 914.551 1345120
3 914.551 1344800
3 914.984 1344656
3 915.394 1344459
3 917.064 1343743
3 917.064 1343401
3 917.838 1343276
3 918.551 1342335
3 920.466 1341987
3 924.35 1422149
3 924.35 1420178
3 924.35 1415687
3 924.35 1414567
3 924.35 1411883
3 924.35 1403698
3 924.35 1403239
3 924.939 1402537
3 924.939 1402201
3 924.939 1401360
3 924.939 1400861
3 925.435 1400067
3 925.435 1399118
3 925.435 1398277
3 925.945 1397493
3 925.945 1392222
3 925.945 1391663
3 925.945 1386857
3 925.945 1385289
3 926.697 1380305
3 926.697 1380194
3 927.421 1379267
3 927.421 1379148
3 927.421 1379021
3 927.421 1374856
3 927.993 1364413
3 929.218 1364077
3 929.638 1363229
3 929.638 1363087
3 929.638 1361182
3 930.91 1361097
3 932.991 1360193
3 938.38 1463493
3 938.38 1459862
3 938.38 1456750
3 938.38 1443936
3 938.38 1430631
3 938.38 1430410
3 938.38 1429372
3 938.38 1424545
3 938.38 1423025
3 938.38 1421917
3 938.38 1406071
3 938.38 1403503
3 939.179 1401975
3 939.179 1399784
3 939.179 1396058
3 939.179 1395217
3 939.179 1389769
3 939.957 1389684
3 939.957 1382111
3 939.957 1382066
3 939.957 1382031
3 939.957 1377933
3 939.957 1375851
3 940.741 1374813
3 940.741 1373328
3 940.741 1370645
3 940.741 1367382
3 941.514 1365772
3 942.934 1359933
3 945.697 1357329
3 945.697 1357078
3 946.236 1355360
3 946.236 1353281
3 946.772 1352726
3 946.772 1348829
3 946.772 1344774
3 946.772 1344135
3 947.824 1343688
3 947.824 1343294
3 948.854 1342373
3 949.361 1340673
3 949.872 1339523
3 952.384 1458621
3 952.384 1455358
3 952.384 1454088
3 952.384 1453050
3 952.384 1439655
3 952.384 1435874
3 952.384 1426492
3 952.384 1422394
3 952.384 1406106
3 952.384 1401350
3 952.947 1384541
3 952.947 1383306
3 952.947 1380453
3 952.947 1377708
3 952.947 1373961
3 952.947 1373014
3 953.446 1372035
3 954.927 1371087
3 954.927 1368560
3 954.927 1368414
3 954.927 1368330
3 955.866 1367544
3 955.866 1364976
3 955.866 1361771
3 956.645 1359720
3 957.615 1358867
3 958.036 1357884
3 958.036 1357814
3 958.547 1356835
3 958.965 1353327
3 964.805 1352737
3 966.615 1479590
3 966.615 1470780
3 966.615 1469939
3 966.615 1469872
3 966.615 1457231
3 966.615 1457067
3 966.615 1454499
3 966.615 1451236
3 966.615 1449013
3 967.525 1442403
3 967.525 1442194
3 967.525 1431642
3 967.525 1420756
3 967.525 1417493
3 967.525 1412591
3 967.525 1410258
3 968.342 1409272
3 968.342 1405217
3 968.342 1401089
3 969.091 1396577
3 969.091 1390053
3 969.091 1385260
3 969.871 1378051
3 969.871 1375483
3 970.626 1373255
3 972.063 1372733
3 972.063 1372652
3 972.782 1371617
3 978.382 1370747
3 980.413 1509568
3 980.413 1506398
3 980.413 1495655
3 980.413 1487072
3 980.413 1477693
3 980.413 1477623
3 980.413 1472808
3 980.413 1466614
3 980.413 1464709
3 981.156 1463868
3 981.156 1458792
3 981.156 1454900
3 981.156 1451637
3 981.156 1432890
3 981.156 1429817
3 981.156 1424090
3 981.156 1421522
3 981.156 1420444
3 981.156 1413121
3 981.875 1411050
3 981.875 1411020
3 981.875 1410642
3 981.875 1409262
3 982.334 1407687
3 982.334 1404834
3 982.334 1401207
3 983.217 1397718
3 983.217 1391861
3 983.662 1389443
3 983.662 1389399
3 983.662 1389024
3 984.098 1384746
3 984.098 1383466
3 984.618 1380039
3 985.128 1378353
3 985.128 1378070
3 987.217 1376603
3 987.686 1374440
3 988.088 1372848
3 988.511 1371546
3 994.367 1444397
3 994.367 1442747
3 994.367 1431002
3 994.367 1427365
3 994.367 1417138
3 994.367 1409326
3 994.367 1406758
3 994.367 1398175
3 995.253 1393217
3 995.253 1388726
3 995.253 1383803
3 996.025 1377168
3 996.025 1376500
3 996.025 1373330
3 996.025 1371655
3 996.025 1370953
3 996.552 1370443
3 996.552 1368836
3 998.717 1367555
3 999.169 1366830
3 999.169 1366120
3 999.169 1364845
3 1000.1 1362553
3 1008.34 1545562
3 1008.34 1538652
3 1008.34 1531490
3 1008.34 1526999
3 1008.34 1522901
3 1008.34 1518024
3 1008.34 1509217
3 1008.34 1495683
3 1008.34 1482609
3 1008.34 1478437
3 1008.34 1472243
3 1008.34 1471824
3 1009.22 1471531
3 1009.22 1469002
3 1009.22 1459553
3 1009.22 1436911
3 1009.22 1433284
3 1009.22 1428035
3 1009.22 1402846
3 1009.22 1402521
3 1010.04 1402293
3 1010.04 1369032
3 1010.04 1369009
3 1010.8 1368277
3 1010.8 1366464
3 1010.8 1365802
3 1010.8 1363881
3 1011.55 1362539
3 1011.55 1359127
3 1011.55 1358746
3 1011.55 1357333
3 1012.5 1356795
3 1012.5 1353964
3 1012.97 1353729
3 1013.9 1351299
3 1016.12 1350006
3 1017.38 1348593
3 1017.38 1348523
3 1022.08 1423776
3 1022.08 1411213
3 1022.08 1410387
3 1022.08 1408336
3 1022.08 1407796
3 1022.08 1404227
3 1022.08 1403179
3 1022.08 1397168
3 1022.08 1395088
3 1022.08 1391493
3 1022.61 1389438
3 1022.61 1384210
3 1022.61 1383978
3 1022.61 1383737
3 1022.61 1383223
3 1022.61 1376286
3 1022.61 1375884
3 1022.61 1373661
3 1023.73 1373560
3 1024.3 1364670
3 1024.3 1362349
3 1024.3 1355677
3 1024.3 1354689
3 1025.42 1354233
3 1025.42 1352452
3 1025.42 1349890
3 1025.9 1346853
3 1025.9 1344209
3 1028.73 1344135
3 1029.15 1343709
3 1029.15 1343294
3 1036.18 1483093
3 1036.18 1481065
3 1036.18 1452925
3 1036.18 1444258
3 1036.18 1430279
3 1036.18 1425380
3 1036.18 1420530
3 1036.18 1414857
3 1036.18 1409550
3 1036.18 1408812
3 1037.28 1408736
3 1037.28 1388630
3 1037.28 1386585
3 1037.28 1378949
3 1037.28 1374799
3 1038.12 1374570
3 1038.12 1374091
3 1038.68 1373835
3 1038.68 1373388
3 1038.68 1373122
3 1038.68 1372135
3 1038.68 1370084
3 1039.14 1369858
3 1039.14 1365029
3 1039.14 1364652
3 1039.7 1364539
3 1039.7 1362731
3 1039.7 1361276
3 1039.7 1358247
3 1040.49 1356915
3 1041.22 1356845
3 1041.22 1355214
3 1041.96 1354730
3 1042.38 1354632
3 1042.79 1352505
3 1042.79 1351527
3 1043.22 1351467
3 1047.82 1348999
3 1047.82 1347096
3 1047.82 1346965
3 1048.55 1346456
3 1048.55 1344622
3 1048.55 1342240
3 1049.27 1339392
3 1049.27 1338213
3 1050.65 1503763
3 1050.65 1492780
3 1050.65 1492511
3 1050.65 1489943
3 1050.65 1487404
3 1050.65 1462506
3 1050.65 1449716
3 1051.45 1443192
3 1051.45 1439565
3 1051.45 1431589
3 1051.45 1428842
3 1051.45 1422648
3 1051.45 1409059
3 1051.45 1406759
3 1052.25 1402798
3 1052.25 1398734
3 1052.25 1397893
3 1052.25 1391930
3 1052.25 1390955
3 1053.02 1385276
3 1053.02 1378351
3 1053.02 1377187
3 1053.02 1370972
3 1053.02 1366778
3 1053.77 1365941
3 1053.77 1364919
3 1053.77 1363240
3 1053.77 1363170
3 1053.77 1363151
3 1056.58 1360058
3 1056.58 1359931
3 1058.24 1359115
3 1058.24 1355469
3 1059.86 1355187
3 1059.86 1354295
3 1061.25 1353132
3 1061.25 1352738
3 1061.99 1352505
3 1061.99 1352095
3 1064.31 1435598
3 1064.31 1430734
3 1064.31 1424200
3 1064.31 1423914
3 1064.31 1420102
3 1064.31 1419925
3 1064.31 1418531
3 1064.31 1417979
3 1064.31 1417122
3 1064.31 1415223
3 1065.15 1410985
3 1065.15 1409475
3 1065.15 1402941
3 1065.88 1398018
3 1065.88 1396707
3 1065.88 1395481
3 1066.59 1392662
3 1066.59 1389824
3 1066.59 1389379
3 1067.06 1382715
3 1067.06 1371832
3 1067.06 1371635
3 1067.06 1371393
3 1067.06 1370355
3 1067.06 1368111
3 1067.06 1361896
3 1067.56 1361201
3 1067.97 1361055
3 1067.97 1360559
3 1068.39 1360293
3 1068.39 1359309
3 1068.39 1356863
3 1068.39 1354418
3 1068.89 1353577
3 1078.01 1428494
3 1078.01 1419201
3 1078.01 1413007
3 1078.01 1412434
3 1078.01 1408943
3 1078.01 1404995
3 1078.01 1389531
3 1078.01 1386926
3 1078.01 1383558
3 1078.01 1382828
3 1078.01 1382198
3 1078.01 1381779
3 1078.01 1379628
3 1079.58 1373219
3 1079.58 1368013
3 1080.19 1366591
3 1080.19 1365750
3 1081.65 1363706
3 1081.65 1363607
3 1082.32 1363385
3 1084.8 1361532
3 1085.36 1361468
3 1085.36 1361458
3 1085.36 1361015
3 1085.36 1359790
3 1085.36 1358974
3 1087.45 1356884
3 1087.45 1355237
3 1087.45 1354379
3 1092.13 1426534
3 1092.13 1426104
3 1092.13 1425858
3 1092.13 1421760
3 1092.13 1417246
3 1092.13 1396671
3 1092.63 1395040
3 1092.63 1394753
3 1092.63 1390689
3 1092.63 1385770
3 1094.93 1381612
3 1094.93 1380828
3 1095.53 1376181
3 1095.53 1372131
3 1095.53 1368067
3 1095.53 1363927
3 1095.53 1357752
3 1095.53 1356316
3 1097.49 1352774
3 1097.91 1350101
3 1106.08 1419308
3 1106.08 1414699
3 1106.08 1412114
3 1106.08 1398375
3 1106.08 1392181
3 1106.08 1390855
3 1106.08 1388497
3 1106.08 1385142
3 1106.08 1382513
3 1106.95 1381044
3 1106.95 1379102
3 1106.95 1374611
3 1106.95 1371433
3 1107.76 1367581
3 1107.76 1365596
3 1107.76 1363751
3 1108.69 1362514
3 1108.69 1361658
3 1108.69 1360990
3 1108.69 1359108
3 1108.69 1357782
3 1108.69 1354155
3 1108.69 1351621
3 1109.68 1351445
3 1111.26 1349595
3 1111.95 1349297
3 1112.63 1347573
3 1115.92 1345670
3 1120.19 1477397
3 1120.19 1472906
3 1120.19 1460061
3 1120.84 1449278
3 1120.84 1438679
3 1120.84 1430948
3 1120.84 1425419
3 1120.84 1412173
3 1120.84 1405979
3 1120.84 1405471
3 1121.48 1402919
3 1121.48 1401881
3 1121.48 1399386
3 1121.48 1396584
3 1121.48 1395743
3 1122.08 1385894
3 1122.08 1378357
3 1122.08 1376551
3 1122.08 1373155
3 1122.08 1373134
3 1122.54 1373085
3 1122.54 1372955
3 1122.54 1370886
3 1123.43 1368210
3 1124.68 1367964
3 1134.15 1492858
3 1134.15 1452079
3 1134.15 1449447
3 1134.15 1442771
3 1134.15 1425698
3 1134.15 1419031
3 1134.15 1417469
3 1134.96 1413405
3 1134.96 1413335
3 1134.96 1407418
3 1134.96 1406911
3 1134.96 1403564
3 1135.73 1403144
3 1135.73 1401896
3 1135.73 1394663
3 1135.73 1390599
3 1135.73 1387306
3 1136.5 1382822
3 1136.5 1382798
3 1136.5 1382379
3 1136.5 1380154
3 1136.5 1375720
3 1137.26 1375524
3 1137.26 1368193
3 1137.26 1367352
3 1137.97 1364931
3 1137.97 1361765
3 1137.97 1361150
3 1137.97 1359214
3 1137.97 1357261
3 1139.36 1356683
3 1139.36 1356523
3 1139.36 1355614
3 1140.53 1354577
3 1140.53 1352567
3 1141.25 1351024
3 1141.25 1348402
3 1144.16 1347983
3 1144.16 1347441
3 1146.21 1346845
3 1146.21 1346769
3 1146.74 1345806
3 1148.18 1463206
3 1148.18 1460638
3 1148.18 1450295
3 1148.18 1447243
3 1148.18 1441631
3 1148.18 1437140
3 1148.18 1423667
3 1148.76 1416703
3 1148.76 1414246
3 1148.76 1413643
3 1148.76 1411935
3 1148.76 1409822
3 1148.76 1409625
3 1148.76 1395773
3 1149.26 1395292
3 1149.72 1392453
3 1149.72 1388631
3 1149.72 1385440
3 1150.16 1382640
3 1150.16 1382037
3 1150.16 1379714
3 1150.63 1379401
3 1151.53 1375530
3 1151.97 1373062
3 1152.85 1370545
3 1152.85 1368342
3 1152.85 1366425
3 1152.85 1363513
3 1152.85 1362842
3 1154.92 1358372
3 1157.06 1357974
3 1157.77 1357890
3 1157.77 1357049
3 1157.77 1356065
3 1159.21 1355804
3 1162.22 1524858
3 1162.22 1520902
3 1162.22 1484121
3 1162.22 1481851
3 1162.22 1475427
3 1162.22 1465978
3 1162.22 1459421
3 1162.22 1447687
3 1162.22 1445805
3 1162.9 1438696
3 1162.9 1434531
3 1162.9 1430027
3 1162.9 1419496
3 1162.9 1415005
3 1162.9 1414586
3 1163.74 1411323
3 1163.74 1410539
3 1164.16 1405607
3 1164.16 1404766
3 1164.57 1399637
3 1164.57 1397592
3 1164.57 1397522
3 1165.27 1395584
3 1165.27 1394238
3 1165.27 1391996
3 1166.03 1391628
3 1166.77 1388803
3 1167.22 1388733
3 1169.39 1388257
3 1169.39 1386592
3 1170.03 1385751
3 1170.03 1385405
3 1170.03 1384461
3 1176.24 1516632
3 1176.24 1507938
3 1176.24 1503773
3 1176.24 1493559
3 1176.24 1485877
3 1176.24 1479683
3 1176.24 1471454
3 1176.74 1454748
3 1176.74 1450257
3 1176.74 1427532
3 1176.74 1414137
3 1177.2 1406698
3 1177.2 1406332
3 1177.2 1400138
3 1177.69 1397709
3 1177.69 1396627
3 1177.69 1394597
3 1177.69 1393756
3 1177.69 1392087
3 1177.69 1386475
3 1178.17 1385533
3 1178.17 1384281
3 1178.17 1382275
3 1178.17 1381191
3 1178.17 1373509
3 1178.67 1373311
3 1178.67 1372469
3 1179.69 1370803
3 1184.2 1370349
3 1184.67 1363153
3 1190.11 1447187
3 1190.11 1444619
3 1190.11 1424513
3 1190.11 1414714
3 1190.11 1410650
3 1190.11 1406518
3 1190.11 1400324
3 1190.11 1399538
3 1190.11 1383159
3 1190.11 1379095
3 1190.11 1376245
3 1190.79 1375768
3 1190.79 1368029
3 1190.79 1359009
3 1191.31 1358541
3 1191.74 1358512
3 1192.16 1357844
3 1193.08 1351871
3 1193.08 1350014
3 1193.55 1349368
3 1193.55 1347239
3 1193.55 1346479
3 1194.12 1344162
3 1197.13 1343802
3 1197.13 1343656
3 1204.12 1418129
3 1204.12 1414093
3 1204.12 1413252
3 1204.12 1412969
3 1204.72 1407350
3 1204.72 1407263
3 1204.72 1407100
3 1204.72 1400082
3 1205.33 1398851
3 1205.33 1382703
3 1205.33 1382575
3 1205.33 1379811
3 1205.33 1378084
3 1206.28 1371900
3 1206.28 1369849
3 1206.74 1368803
3 1207.18 1368158
3 1207.18 1365647
3 1207.66 1365044
3 1207.66 1362476
3 1210.28 1357849
3 1211.69 1355120
3 1212.89 1354808
3 1212.89 1353755
3 1213.32 1351868
3 1214.16 1351493
3 1214.16 1350534
3 1218.32 1492688
3 1218.32 1490969
3 1218.32 1486871
3 1218.32 1486418
3 1218.32 1476375
3 1218.32 1475079
3 1218.32 1453916
3 1218.32 1434300
3 1218.32 1434282
3 1218.32 1432167
3 1218.32 1417760
3 1218.32 1414134
3 1218.87 1408950
3 1219.29 1406906
3 1219.29 1405705
3 1219.29 1396274
3 1219.29 1395778
3 1221.41 1392195
3 1221.84 1392079
3 1221.84 1390001
3 1221.84 1389160
3 1221.84 1389085
3 1222.36 1387571
3 1222.8 1386932
3 1222.8 1383429
3 1222.8 1382860
3 1222.8 1382441
3 1222.8 1381628
3 1222.8 1379060
3 1223.31 1378353
3 1223.31 1376426
3 1224.71 1375711
3 1225.12 1374427
3 1225.59 1374192
3 1225.59 1370942
3 1226.41 1369261
3 1228.5 1369191
3 1232.04 1483612
3 1232.04 1483093
3 1232.04 1471004
3 1232.04 1460769
3 1232.82 1458094
3 1232.82 1453177
3 1232.82 1446994
1 1232.82 1444933
3 1232.82 1441107
3 1232.82 1430883
3 1232.82 1429837
3 1232.82 1424890
3 1232.82 1420826
3 1232.82 1420437
3 1232.82 1407820
3 1233.51 1406979
3 1233.51 1406764
3 1233.51 1399082
3 1233.51 1395149
3 1233.51 1392941
3 1233.51 1389678
3 1233.51 1382051
3 1234.05 1371531
3 1234.05 1371317
3 1234.56 1371255
3 1234.56 1369078
3 1234.56 1368566
3 1234.56 1368459
3 1234.56 1366001
3 1235.7 1365917
3 1235.7 1364590
3 1235.7 1364367
3 1235.7 1362738
3 1235.7 1360492
3 1236.36 1358779
3 1236.36 1358555
3 1236.79 1354712
3 1236.79 1354642
3 1246.01 1475706
3 1246.01 1474243
3 1246.01 1472192
3 1246.01 1452558
3 1246.01 1449428
3 1246.01 1444119
3 1247.03 1440492
3 1247.93 1431338
3 1247.93 1430300
3 1247.93 1429191
3 1247.93 1425677
3 1248.88 1424647
3 1251.76 1423566
3 1251.76 1419982
1 1254.41 1419289
3 1254.41 1404502
3 1255.04 1401229
3 1260.1 1451319
3 1260.1 1438070
3 1260.1 1428621
3 1260.1 1410540
3 1260.1 1392566
3 1260.1 1390742
3 1260.1 1389704
3 1260.1 1384395
3 1260.1 1378456
3 1261.01 1374596
3 1261.01 1368807
3 1261.01 1365224
3 1261.82 1364927
3 1261.82 1364752
3 1261.82 1362656
3 1261.82 1354153
3 1261.82 1353846
3 1264.7 1353747
3 1274.5 1455760
3 1274.5 1454953
3 1274.5 1453907
3 1274.5 1450656
3 1274.5 1442870
3 1274.5 1413664
3 1275.37 1408987
3 1275.37 1404458
3 1275.37 1396275
3 1276.14 1393306
3 1276.14 1386975
3 1276.14 1383712
3 1276.14 1382161
3 1276.92 1378750
3 1276.92 1378640
3 1277.7 1378291
3 1277.7 1378017
3 1277.7 1377615
3 1277.7 1374850
3 1277.7 1374117
3 1277.7 1374112
3 1277.7 1373382
3 1278.44 1370941
3 1278.44 1367919
3 1278.44 1366296
3 1278.44 1364112
3 1278.44 1364008
3 1278.92 1360108
3 1279.37 1359062
3 1279.81 1358691
3 1280.24 1356836
3 1280.24 1356270
3 1280.71 1354268
3 1288.18 1481684
3 1288.18 1465896
3 1288.18 1435728
3 1288.18 1435060
3 1288.18 1434219
3 1288.18 1425598
3 1288.18 1416788
3 1289.11 1415177
3 1289.11 1413272
3 1289.11 1411383
3 1289.11 1410345
3 1289.91 1408651
3 1290.38 1401957
3 1290.38 1397385
3 1290.38 1388650
3 1290.38 1386599
3 1290.87 1386297
3 1290.87 1384694
3 1291.78 1384498
3 1291.78 1382119
3 1291.78 1381278
3 1293.6 1381223
3 1294.36 1376816
3 1295.97 1375975
3 1302.27 1439061
3 1302.27 1438107
3 1302.27 1432427
3 1302.27 1421860
3 1302.27 1414881
3 1302.27 1414367
3 1302.27 1411104
3 1302.27 1410925
3 1302.27 1407477
3 1302.27 1405342
3 1302.27 1403075
3 1302.27 1393951
3 1302.27 1393862
3 1302.27 1389764
3 1302.91 1381907
3 1302.91 1380754
3 1303.34 1377942
3 1303.34 1376859
3 1303.78 1375581
3 1303.78 1374740
3 1303.78 1373702
3 1304.23 1370310
3 1304.23 1369572
3 1304.66 1368979
3 1304.66 1363378
3 1305.52 1359868
3 1305.52 1356330
3 1305.52 1355284
3 1305.52 1355214
3 1305.97 1354774
3 1305.97 1354730
3 1305.97 1353528
3 1305.97 1352790
3 1307.59 1351467
3 1309.32 1347836
3 1309.32 1344774
3 1309.32 1344135
3 1311.02 1343543
3 1311.02 1343294
3 1316.06 1441075
3 1316.06 1434694
3 1316.06 1430298
3 1316.06 1429645
3 1316.06 1426841
3 1316.06 1426233
3 1316.63 1426045
3 1316.63 1414957
3 1316.63 1409320
3 1316.63 1403990
3 1316.63 1399597
3 1317.14 1395558
3 1317.14 1392867
3 1317.14 1390438
3 1317.14 1389348
3 1317.62 1386964
3 1318.06 1382057
3 1318.06 1380099
3 1318.54 1377928
3 1318.54 1376882
3 1318.98 1376187
3 1320.28 1375031
3 1320.28 1366130
3 1320.28 1364809
3 1320.28 1363584
3 1320.77 1363347
3 1320.77 1360195
3 1320.77 1358023
3 1321.27 1357434
3 1321.27 1355529
3 1321.27 1355515
3 1321.27 1354545
3 1321.27 1354030
3 1321.78 1353793
3 1322.2 1353187
3 1323.08 1351873
3 1323.52 1351282
3 1330.47 1469211
3 1330.47 1449371
3 1330.47 1448333
3 1330.47 1445345
3 1331.14 1445070
3 1331.14 1443787
3 1331.14 1443521
3 1331.14 1426347
3 1331.14 1424703
3 1331.84 1422321
3 1331.84 1414776
3 1331.84 1408561
3 1332.61 1404958
3 1333.32 1392892
3 1337.55 1391914
3 1338.26 1386219
3 1338.26 1384817
3 1339 1383784
3 1339.75 1381443
3 1339.75 1378557
3 1340.5 1377816
3 1340.5 1376770
3 1344.11 1474742
3 1344.11 1467490
3 1344.11 1463392
3 1344.11 1457571
3 1344.11 1447658
3 1344.11 1432569
3 1344.11 1400929
3 1344.11 1398731
3 1344.11 1397892
3 1344.11 1395104
3 1344.11 1391745
3 1344.11 1386006
3 1344.11 1379557
3 1345.07 1378485
3 1345.07 1370319
3 1345.07 1367228
3 1345.07 1366581
3 1345.77 1364013
3 1346.22 1363387
3 1346.22 1363135
3 1346.66 1360334
3 1346.66 1359362
3 1346.66 1358503
3 1347.14 1357509
3 1348.51 1357056
3 1349.21 1356986
3 1351.27 1356451
3 1351.97 1356195
3 1358.33 1469933
3 1358.33 1445266
3 1358.33 1435048
3 1358.33 1408437
3 1358.33 1406574
3 1358.33 1400050
3 1358.33 1397765
3 1358.33 1393591
3 1358.33 1382427
3 1358.89 1382176
3 1358.89 1380596
3 1358.89 1378913
3 1359.36 1370638
3 1359.36 1370568
3 1359.81 1366941
3 1359.81 1366695
3 1359.81 1364535
3 1359.81 1363494
3 1360.27 1362981
3 1361.4 1361077
3 1361.4 1361059
3 1361.4 1359657
3 1361.4 1356726
3 1361.4 1355885
3 1361.4 1355415
3 1362.08 1348542
3 1364.57 1346688
3 1364.57 1346436
3 1372.25 1474917
3 1372.25 1473888
3 1372.25 1459749
3 1372.25 1457586
3 1372.25 1440151
3 1372.25 1435660
3 1372.25 1428221
3 1372.25 1415758
3 1372.25 1411427
3 1372.25 1409376
3 1372.25 1403919
3 1372.25 1403094
3 1372.25 1401559
3 1373.19 1401351
3 1373.19 1396670
3 1373.19 1384166
3 1373.19 1365007
3 1373.19 1362099
3 1374.68 1361839
3 1375.1 1361769
3 1375.1 1360078
3 1375.1 1358173
3 1375.54 1356760
3 1375.54 1354192
3 1377.99 1352779
3 1379.04 1352609
3 1379.8 1345430
3 1379.8 1344609
3 1381.26 1342880
3 1381.74 1342810
3 1386.58 1410564
3 1386.58 1409279
3 1386.58 1401444
3 1386.58 1398181
3 1387.35 1396712
3 1387.35 1391506
3 1388.09 1391342
3 1388.09 1391168
3 1388.09 1389210
3 1388.09 1386869
3 1388.09 1384759
3 1388.82 1383003
3 1388.82 1375839
3 1388.82 1375597
3 1388.82 1374838
3 1389.28 1374272
3 1389.28 1370107
3 1389.73 1369990
3 1390.15 1367023
3 1390.58 1365985
3 1390.58 1365144
3 1391.04 1363651
3 1391.46 1354820
3 1391.46 1351820
3 1391.46 1350336
3 1391.46 1349843
3 1392.11 1347314
3 1400.44 1512149
3 1400.44 1504075
3 1400.44 1492823
3 1400.44 1487617
3 1400.44 1486846
3 1400.44 1479164
3 1400.44 1478340
3 1401.07 1474713
3 1401.07 1473523
3 1401.07 1464472
3 1401.62 1459521
3 1401.62 1446846
3 1401.62 1446190
3 1401.62 1445753
3 1402.21 1433557
3 1402.21 1432930
3 1402.65 1428063
3 1402.65 1422400
3 1402.65 1418664
3 1403.13 1414499
3 1403.13 1412448
3 1403.13 1408384
3 1403.13 1403337
3 1403.13 1402588
3 1403.13 1397345
3 1403.13 1396394
3 1403.62 1394554
3 1403.62 1394082
3 1404.05 1390908
3 1404.05 1383469
3 1404.05 1379804
3 1404.51 1372122
3 1404.97 1369245
3 1404.97 1369071
3 1405.4 1368652
3 1405.4 1366915
3 1405.4 1366898
3 1405.4 1364445
3 1405.4 1363849
3 1405.93 1362811
3 1405.93 1360524
3 1407.2 1360292
3 1407.2 1358241
3 1407.63 1357514
3 1408.46 1356918
3 1409.68 1356500
3 1409.68 1356135
3 1410.23 1355716
3 1412.35 1353894
3 1413.26 1352133
3 1414.06 1497401
3 1414.06 1476040
3 1414.06 1473585
3 1414.06 1469958
3 1414.06 1469539
3 1414.06 1468772
3 1414.06 1466600
3 1414.06 1462536
3 1414.06 1460874
3 1414.95 1442950
3 1414.95 1438816
3 1414.95 1436735
3 1414.95 1434008
3 1414.95 1427030
3 1415.7 1425848
3 1415.7 1425007
3 1415.7 1420516
3 1415.7 1412809
3 1415.7 1410985
3 1415.7 1403720
3 1415.7 1398514
3 1416.35 1390796
3 1416.35 1384581
3 1416.35 1377939
3 1416.84 1377142
3 1416.84 1367891
3 1417.7 1365571
3 1419.71 1363437
3 1419.71 1355223
3 1419.71 1352898
3 1419.71 1351208
3 1420.49 1350722
3 1420.49 1348789
3 1420.49 1348102
3 1420.49 1347948
3 1421.24 1347878
3 1421.24 1346732
3 1422.57 1345904
3 1423.04 1344164
3 1423.86 1343656
3 1428.39 1504505
3 1428.39 1497105
3 1428.39 1471307
3 1428.39 1470750
3 1428.39 1449583
3 1428.39 1444377
3 1428.39 1433991
3 1428.39 1429927
3 1428.97 1420236
3 1428.97 1419449
3 1428.97 1416231
3 1428.97 1412710
3 1428.97 1409219
3 1428.97 1407434
3 1429.69 1405956
3 1429.69 1397985
3 1429.69 1389291
3 1429.69 1387952
3 1429.69 1382966
3 1430.49 1381717
3 1430.49 1381579
3 1430.49 1380592
3 1431.26 1380295
3 1431.26 1380093
3 1431.79 1378758
3 1431.79 1376137
3 1431.79 1373552
3 1431.79 1371493
3 1431.79 1370839
3 1432.36 1367916
3 1432.92 1366688
3 1439.55 1366304
3 1442.37 1446134
3 1442.37 1444207
3 1442.37 1431770
3 1442.37 1429202
3 1442.37 1428956
3 1442.37 1421104
3 1442.37 1419540
3 1442.94 1418501
3 1442.94 1414841
3 1442.94 1414595
3 1442.94 1411035
3 1442.94 1404066
3 1442.94 1401896
3 1442.94 1398564
3 1443.51 1392800
3 1443.51 1381731
3 1443.51 1381416
3 1444.08 1381018
3 1444.08 1378450
3 1444.08 1378263
3 1444.08 1375917
3 1444.08 1374067
3 1444.59 1369899
3 1444.59 1365734
3 1444.59 1364321
3 1444.59 1362328
3 1447.06 1362271
3 1447.63 1361313
3 1447.63 1360319
3 1447.63 1359065
3 1450.68 1358597
3 1451.13 1356773
3 1451.13 1356669
3 1451.13 1353190
3 1451.58 1350764
3 1451.58 1350161
3 1451.58 1345272
3 1453.13 1345202
3 1456.51 1453640
3 1456.51 1448949
3 1456.51 1448577
3 1456.51 1444479
3 1456.51 1441268
3 1456.51 1432720
3 1456.51 1404703
3 1456.51 1403100
3 1457.33 1388989
3 1457.33 1387943
3 1457.33 1380783
3 1457.33 1375577
3 1457.33 1374539
3 1458.09 1372056
3 1458.09 1367042
3 1458.09 1366780
3 1458.09 1365939
3 1458.82 1365200
3 1458.82 1362590
3 1458.82 1360329
3 1460.02 1357329
3 1461.48 1355605
3 1461.48 1343543
3 1461.92 1343294
3 1463.15 1341459
3 1465.02 1340251
3 1465.87 1339523
3 1465.87 1339410
3 1470.3 1403549
3 1470.3 1401644
3 1470.3 1401225
3 1470.3 1398657
3 1470.3 1397149
3 1470.3 1396308
3 1470.3 1390356
3 1470.3 1386099
3 1470.3 1385712
3 1470.3 1384560
3 1471.16 1382003
3 1471.16 1377763
3 1471.89 1377010
3 1471.89 1373383
3 1484.33 1453545
3 1484.33 1449918
3 1484.33 1443622
3 1484.33 1439666
3 1484.33 1415530
3 1484.33 1410660
3 1484.33 1406720
3 1484.33 1402555
3 1484.33 1400570
3 1485.18 1399470
3 1485.18 1399224
3 1485.95 1382875
3 1485.95 1382730
3 1485.95 1380917
3 1486.53 1379871
3 1486.53 1379651
3 1486.53 1378706
3 1486.53 1373863
3 1486.53 1373022
3 1486.53 1370422
3 1490.98 1370160
3 1490.98 1369541
3 1490.98 1369375
3 1490.98 1369249
3 1491.46 1367496
3 1491.46 1366681
3 1498.75 1492197
3 1498.75 1484758
3 1498.75 1469669
3 1498.75 1459840
3 1498.75 1453290
3 1498.75 1446297
3 1498.75 1436758
3 1498.75 1425252
3 1498.75 1422181
3 1498.75 1405777
3 1498.75 1402829
3 1498.75 1402759
3 1499.46 1399496
3 1499.46 1393848
3 1499.46 1391676
3 1499.46 1391292
3 1500.33 1391095
3 1500.33 1383443
3 1500.33 1379379
3 1501.27 1368832
3 1502.09 1368413
3 1502.09 1366144
3 1502.09 1362881
3 1502.9 1362219
3 1503.8 1361672
3 1504.64 1361016
3 1504.64 1356814
3 1505.36 1355776
3 1505.36 1355644
3 1505.36 1354841
3 1506.09 1354457
3 1507.5 1351863
3 1508.21 1350013
3 1508.21 1348600
3 1510.1 1345763
3 1512.28 1425210
3 1512.28 1422452
3 1512.28 1421426
3 1512.28 1414770
3 1512.28 1414332
3 1512.28 1413708
3 1512.28 1407932
3 1512.28 1407215
3 1512.28 1406400
3 1512.28 1398521
3 1512.99 1397785
3 1512.99 1394457
3 1512.99 1393978
3 1512.99 1387010
3 1512.99 1384959
3 1512.99 1383054
3 1513.62 1376009
3 1513.62 1375202
3 1514.17 1373966
3 1514.17 1368072
3 1514.17 1365083
3 1514.17 1363863
3 1514.17 1361800
3 1515.28 1361677
3 1515.28 1360534
3 1515.28 1359753
3 1515.28 1358817
3 1515.28 1358147
3 1516.09 1357744
3 1516.09 1357637
3 1516.09 1356664
3 1516.84 1356594
3 1518.28 1355861
3 1518.28 1352115
3 1518.96 1347145
3 1525.19 1347072
3 1525.74 1346500
3 1526.17 1470813
3 1526.17 1432809
3 1526.17 1429520
3 1526.17 1411118
3 1526.17 1406107
3 1526.17 1392712
3 1526.73 1386088
3 1526.73 1382667
3 1526.73 1381187
3 1526.73 1374949
3 1526.73 1374108
3 1527.24 1367893
3 1527.24 1364161
3 1527.24 1364011
3 1527.24 1362119
3 1527.74 1358259
3 1527.74 1356913
3 1527.74 1356759
3 1528.17 1354482
3 1528.79 1353496
3 1534.04 1353330
3 1538.1 1351095
3 1538.1 1350907
3 1538.64 1350562
3 1538.64 1349869
3 1538.64 1348050
3 1538.64 1347447
3 1538.64 1346534
3 1538.64 1345998
3 1540.13 1453572
3 1540.13 1449945
3 1540.13 1442263
3 1540.13 1419107
3 1540.13 1407561
3 1540.13 1392472
3 1540.95 1391477
3 1540.95 1388127
3 1540.95 1384029
3 1541.7 1371365
3 1541.7 1371252
3 1541.7 1362442
3 1541.7 1356361
3 1541.7 1355326
3 1541.7 1351261
3 1542.49 1348588
3 1542.49 1347836
3 1545.29 1346047
3 1549.22 1345887
3 1549.22 1345732
3 1554.62 1467904
3 1554.62 1459210
3 1554.62 1444056
3 1554.62 1425442
3 1554.62 1423950
3 1554.62 1419227
3 1554.62 1418744
3 1554.62 1415600
3 1554.62 1412555
3 1554.62 1408260
3 1554.62 1408064
3 1554.62 1401870
3 1555.47 1399295
3 1555.47 1396018
3 1555.47 1395339
3 1555.93 1395088
3 1555.93 1393816
3 1556.84 1387598
3 1556.84 1387423
3 1557.76 1386528
3 1557.76 1384399
3 1557.76 1383647
3 1558.25 1383265
3 1568.49 1431539
3 1568.49 1430024
3 1569.04 1428336
3 1569.04 1423304
3 1569.04 1422701
3 1569.04 1419820
3 1569.55 1415227
3 1569.55 1414386
3 1569.55 1413967
3 1570.28 1409914
3 1571.01 1408868
3 1571.76 1404635
3 1572.49 1402853
3 1572.49 1397383
3 1572.49 1394834
3 1572.49 1393818
3 1573.32 1393157
3 1573.32 1392007
3 1574.05 1389059
3 1574.05 1388756
3 1574.05 1386036
3 1574.88 1384962
3 1574.88 1378431
3 1574.88 1378361
3 1575.64 1374220
3 1576.37 1369509
3 1576.37 1367058
3 1576.37 1365926
3 1576.37 1364445
3 1577.63 1360489
3 1579.03 1358418
3 1579.03 1358410
3 1579.03 1358057
3 1582.63 1432971
3 1582.63 1432470
3 1582.63 1412086
3 1582.63 1386310
3 1582.63 1384643
3 1582.63 1384510
3 1583.2 1375591
3 1583.2 1373338
3 1583.62 1371494
3 1583.62 1369248
3 1583.62 1369166
3 1583.62 1363694
3 1583.62 1363624
3 1584.07 1361573
3 1584.5 1359486
3 1584.5 1356265
3 1584.5 1355973
3 1584.5 1353801
3 1585.41 1352180
3 1585.41 1351142
3 1596.26 1523688
3 1596.26 1504054
3 1596.26 1494117
3 1596.26 1491328
3 1596.26 1480253
3 1596.26 1456362
3 1596.26 1456282
3 1596.26 1446781
3 1596.26 1444892
3 1596.26 1443453
3 1596.26 1440794
3 1596.26 1437159
3 1597.18 1427710
3 1597.18 1427575
3 1597.18 1418881
3 1597.18 1411199
3 1597.18 1406481
3 1598 1404080
3 1598 1402417
3 1598 1395022
3 1598 1384253
3 1598 1383412
3 1598 1382316
3 1598 1382126
3 1598.83 1379692
3 1598.83 1379580
3 1598.83 1379546
3 1598.83 1379335
3 1598.83 1377907
3 1599.6 1377283
3 1600.34 1377110
3 1600.34 1373527
3 1600.34 1372388
3 1601.12 1371768
3 1601.84 1371424
3 1601.84 1370386
3 1601.84 1368980
3 1602.63 1365253
3 1602.63 1364085
3 1602.63 1363246
3 1603.38 1361540
3 1603.38 1361341
3 1604.1 1360343
3 1604.63 1359939
3 1605.17 1357611
3 1605.17 1356770
3 1606.32 1355683
3 1606.32 1354647
3 1606.76 1353343
3 1607.43 1352742
3 1610.48 1509809
3 1610.48 1488340
3 1610.48 1458870
3 1610.48 1456825
3 1610.48 1442080
3 1610.48 1440282
3 1610.48 1433037
3 1610.48 1430865
3 1610.48 1428703
3 1610.48 1428436
3 1610.48 1425173
3 1610.48 1419967
3 1610.48 1418800
3 1611.39 1416930
3 1611.39 1416860
3 1611.39 1414400
3 1611.39 1404193
3 1611.39 1389104
3 1611.39 1385420
3 1611.39 1373455
3 1612.08 1369391
3 1612.62 1369195
3 1613.45 1367884
3 1613.95 1362832
3 1613.95 1362670
3 1614.39 1360827
3 1614.39 1359592
3 1614.81 1356849
3 1614.81 1355855
3 1614.81 1355260
3 1615.26 1354092
3 1615.26 1354022
3 1616.49 1351600
3 1616.49 1351306
3 1617.85 1350517
3 1618.69 1349310
3 1623.71 1349061
3 1623.71 1348745
3 1624.24 1492460
1 1624.24 1456040
3 1624.24 1434755
3 1624.24 1421660
3 1624.24 1419853
3 1624.24 1417619
3 1624.24 1416707
3 1624.24 1413080
3 1624.24 1412207
3 1624.24 1411597
3 1625.12 1410058
3 1625.12 1405960
3 1625.12 1404379
3 1625.12 1401417
3 1625.12 1389122
3 1625.12 1388914
3 1625.12 1388084
3 1625.12 1386921
3 1625.12 1386785
3 1625.12 1384749
3 1625.72 1384632
3 1625.72 1380387
3 1626.14 1379444
3 1626.14 1367928
3 1626.14 1365608
3 1626.57 1363535
3 1626.57 1363287
3 1626.57 1361385
3 1627.32 1359682
3 1627.32 1358659
3 1627.32 1357114
3 1627.32 1353298
3 1630.86 1349941
3 1630.86 1347817
3 1631.58 1346215
3 1635.01 1345271
3 1635.7 1344816
3 1636.31 1341558
3 1636.73 1340520
3 1638.38 1529140
3 1638.38 1515560
3 1638.38 1508121
3 1638.38 1504858
3 1638.38 1492239
3 1638.38 1486779
3 1638.38 1485716
3 1638.38 1485470
3 1638.38 1473146
3 1638.38 1466973
3 1638.38 1443406
3 1638.38 1435688
3 1638.38 1419284
3 1638.38 1415605
3 1638.38 1410847
3 1638.38 1409168
3 1638.99 1408551
3 1638.99 1404386
3 1639.44 1387311
3 1639.44 1385431
3 1639.44 1381250
3 1639.44 1377186
3 1639.9 1375352
3 1639.9 1373356
3 1639.9 1371297
3 1640.36 1367670
3 1640.36 1365511
3 1640.9 1365008
3 1640.9 1361771
3 1641.78 1360714
3 1641.78 1359203
3 1642.65 1358754
3 1642.65 1356871
3 1643.12 1356801
3 1644.05 1354642
3 1645.77 1354120
3 1645.77 1353082
3 1646.23 1350784
3 1648 1348686
3 1648.64 1346686
3 1652.36 1476021
3 1652.36 1466521
3 1652.36 1460674
3 1652.36 1453422
3 1652.36 1433984
3 1652.36 1433143
3 1652.36 1429684
3 1652.97 1427307
3 1652.97 1426152
3 1652.97 1423584
3 1652.97 1421421
3 1653.74 1417615
3 1653.74 1413659
3 1653.74 1409595
3 1653.74 1404286
3 1653.74 1399142
3 1653.74 1396415
3 1654.54 1388024
3 1655.28 1383120
3 1655.28 1379214
3 1656.03 1378935
3 1656.77 1376181
3 1658.28 1376078
3 1658.28 1375832
3 1658.28 1375460
3 1659.04 1375436
3 1659.04 1371877
3 1659.04 1370839
3 1661.23 1369135
3 1661.23 1367034
3 1661.69 1366567
3 1663.13 1365852
3 1663.99 1364452
3 1664.7 1363548
3 1664.7 1363414
3 1666.17 1475890
3 1666.17 1468208
3 1666.17 1467170
3 1666.17 1454762
3 1666.17 1449556
3 1666.17 1436474
3 1666.97 1432847
3 1666.97 1430890
3 1666.97 1417381
3 1666.97 1414118
3 1666.97 1411662
3 1666.97 1407819
3 1666.97 1398971
3 1667.77 1395842
3 1668.47 1392273
3 1668.47 1389875
3 1668.47 1386667
3 1668.47 1384936
3 1668.47 1375560
3 1669.24 1371339
3 1669.24 1366848
3 1669.24 1366006
3 1669.24 1362807
3 1669.24 1362492
3 1669.24 1360741
3 1670.02 1360482
3 1670.02 1360251
3 1670.02 1359109
3 1670.02 1357253
3 1670.02 1356614
3 1671.48 1354944
3 1671.48 1354475
3 1672.19 1354341
3 1672.19 1353169
3 1672.92 1352738
3 1672.92 1352099
3 1672.92 1352029
3 1672.92 1351800
3 1673.66 1351188
3 1675.03 1351013
3 1676.61 1350929
3 1676.61 1350892
3 1677.6 1350466
3 1677.6 1350351
3 1680.62 1515099
3 1680.62 1505264
3 1680.62 1465217
3 1680.62 1463785
3 1680.62 1452850
3 1680.62 1444156
3 1680.62 1440953
3 1680.62 1440112
3 1680.62 1437378
3 1680.62 1433602
3 1680.62 1425528
3 1680.62 1408650
3 1681.56 1399051
3 1681.56 1395868
3 1681.56 1392347
3 1681.56 1392017
1 1681.56 1392011
3 1681.56 1389656
3 1681.56 1389551
3 1682.39 1377173
3 1682.92 1376063
3 1683.35 1373373
3 1683.35 1367628
3 1683.35 1365633
3 1684.13 1365214
3 1688.43 1362062
3 1689.68 1361423
3 1690.1 1361337
3 1690.1 1361039
3 1690.1 1360430
3 1694.45 1502187
3 1694.45 1458550
3 1694.45 1457389
3 1694.45 1455117
3 1694.45 1443455
3 1694.45 1440580
3 1694.45 1436308
3 1694.45 1417735
3 1694.45 1416051
3 1695.35 1408111
3 1695.35 1407510
3 1695.35 1401401
3 1695.35 1400205
3 1695.35 1398642
3 1696.11 1397620
3 1696.11 1392232
3 1696.11 1386105
3 1696.11 1382961
3 1696.11 1382623
3 1696.59 1381703
3 1697.46 1381663
3 1697.46 1380822
3 1697.46 1380572
3 1698.9 1378247
3 1698.9 1378006
3 1699.79 1377744
3 1700.62 1372538
3 1700.62 1370829
3 1701.06 1369532
3 1701.06 1367858
3 1701.55 1367634
3 1701.55 1366588
3 1702.43 1363325
3 1708.44 1444816
3 1708.44 1442149
3 1708.44 1440864
3 1708.44 1439818
3 1708.44 1415689
3 1708.44 1406863
3 1708.44 1402765
3 1708.44 1400254
3 1708.44 1395229
3 1708.44 1389035
3 1708.44 1388760
3 1709.39 1387059
3 1709.39 1382894
3 1709.39 1381306
3 1709.39 1381103
3 1709.39 1375576
3 1709.39 1370677
3 1709.91 1363697
3 1709.91 1363229
3 1709.91 1360661
3 1710.4 1357651
3 1710.4 1357265
3 1710.89 1356859
3 1710.89 1355059
3 1716.74 1354943
3 1718.63 1354223
3 1718.63 1352423
3 1718.63 1352057
3 1719.8 1350949
3 1720.31 1350879
3 1722.54 1497332
3 1722.54 1493588
3 1722.54 1489650
3 1722.54 1483648
3 1722.54 1473893
3 1722.54 1471483
3 1722.54 1459605
3 1722.54 1451849
3 1722.54 1451778
3 1722.54 1445161
3 1722.54 1442151
3 1723.48 1441862
3 1723.48 1439725
3 1724.23 1428922
3 1724.23 1416735
3 1724.23 1415894
3 1724.23 1411005
3 1724.23 1408631
3 1724.23 1404140
3 1724.23 1403721
3 1724.23 1398528
3 1725.08 1398491
3 1725.08 1397925
3 1725.08 1396762
3 1725.08 1385694
3 1725.08 1378255
3 1725.08 1369445
3 1725.08 1368740
3 1725.08 1368149
3 1726.42 1368079
3 1726.91 1364827
3 1727.4 1360387
3 1727.4 1360336
3 1728.26 1354365
3 1728.26 1353906
3 1728.72 1353836
3 1729.15 1353704
3 1731.45 1352168
3 1733.46 1351962
3 1734.18 1350872
3 1734.18 1350500
3 1734.18 1349854
3 1734.18 1349497
3 1734.18 1349055
3 1734.72 1348440
3 1735.13 1348232
3 1735.13 1347641
3 1736.36 1464165
3 1736.36 1460067
3 1736.36 1457023
3 1736.36 1456771
3 1736.36 1449516
3 1736.36 1446134
3 1736.36 1444083
3 1736.36 1443351
3 1736.36 1440201
3 1737.1 1439705
3 1737.1 1435427
3 1737.1 1431631
3 1737.84 1429266
3 1737.84 1428368
3 1737.84 1425385
3 1738.34 1424615
3 1738.34 1414705
3 1738.34 1406011
3 1738.92 1383809
3 1738.92 1381807
3 1738.92 1381655
3 1740.35 1380803
3 1740.97 1379087
3 1750.2 1478803
3 1750.2 1474739
3 1750.2 1458944
3 1750.2 1452416
3 1750.2 1444168
3 1750.2 1439306
3 1750.2 1434887
3 1750.2 1434815
3 1750.2 1431645
3 1750.2 1424467
3 1750.2 1420369
3 1750.81 1418318
3 1750.81 1416582
3 1750.81 1413892
3 1750.81 1411037
3 1751.39 1408469
3 1751.39 1405579
3 1751.39 1404915
3 1752.12 1404074
3 1752.12 1403973
3 1752.12 1400658
3 1752.12 1396257
3 1752.12 1395416
3 1753.62 1389687
3 1753.62 1387891
3 1753.62 1387185
3 1753.62 1384617
3 1754.27 1383155
3 1754.27 1376334
3 1754.27 1374496
3 1754.27 1370913
3 1754.89 1365059
3 1755.34 1364174
3 1755.34 1360218
3 1758.44 1359799
3 1762.03 1357961
3 1764.3 1433458
3 1764.3 1429308
3 1764.3 1428853
3 1764.3 1425681
3 1764.89 1423632
3 1764.89 1422586
3 1764.89 1421920
3 1764.89 1413050
3 1765.37 1405634
3 1765.37 1401389
3 1765.37 1394766
3 1765.85 1393710
3 1765.85 1392762
3 1765.85 1389499
3 1765.85 1389080
3 1765.85 1387414
3 1766.33 1386282
3 1766.33 1385244
3 1766.77 1383853
3 1767.21 1383022
3 1767.21 1372156
3 1767.65 1371018
3 1767.65 1370077
3 1767.65 1368026
3 1767.65 1364281
3 1771.7 1363660
3 1771.7 1358724
3 1772.57 1357622
3 1773.07 1353849
3 1773.07 1349567
3 1773.07 1348268
3 1773.07 1346167
3 1773.07 1346094
3 1774.04 1346039
3 1775.32 1344020
3 1775.32 1343297
3 1778.47 1491854
3 1778.47 1472092
3 1778.47 1469534
3 1778.47 1463813
3 1778.47 1456424
3 1778.47 1456383
3 1778.47 1451179
3 1778.47 1450338
1 1778.47 1448658
3 1778.47 1447995
3 1779.38 1445427
3 1779.38 1421860
3 1779.38 1415645
3 1779.38 1407510
3 1779.38 1407073
3 1780.01 1405019
3 1780.01 1401272
3 1780.01 1400592
3 1780.01 1399687
3 1780.01 1396494
3 1780.01 1387908
3 1780.51 1387640
3 1780.51 1387266
3 1780.51 1383802
3 1780.51 1380983
3 1780.99 1380970
3 1780.99 1380925
3 1780.99 1379118
3 1781.49 1378459
3 1781.49 1377374
3 1781.49 1376296
3 1781.99 1375036
3 1781.99 1375021
3 1782.42 1370982
3 1782.42 1370929
3 1783.63 1369916
3 1784.36 1368306
3 1785.05 1364736
3 1785.05 1364607
3 1785.05 1362702
3 1788.85 1362470
3 1788.85 1360856
3 1791.06 1360194
3 1791.06 1357229
3 1792.47 1497189
3 1792.47 1472168
3 1792.47 1459691
3 1792.47 1456064
3 1792.47 1449003
3 1792.47 1447713
3 1792.47 1428499
3 1792.47 1419708
3 1792.47 1418856
3 1792.47 1418243
3 1793.26 1417687
3 1793.26 1414616
3 1793.26 1404908
3 1793.86 1404305
3 1793.86 1401155
3 1794.34 1399706
3 1794.34 1397900
3 1794.34 1389206
3 1794.34 1387366
3 1794.34 1385921
3 1795.14 1384764
3 1797.37 1383923
3 1797.37 1383117
3 1798.13 1380549
3 1798.13 1378498
3 1798.13 1372352
3 1806.05 1471208
3 1806.05 1469071
3 1806.05 1468557
3 1806.05 1460204
3 1806.05 1453148
3 1806.05 1450580
3 1806.05 1441844
3 1806.05 1441280
3 1806.05 1437182
3 1806.05 1429500
3 1806.89 1429081
3 1806.89 1423772
3 1806.89 1416068
3 1807.35 1413485
3 1807.35 1406269
3 1808.23 1403094
3 1808.23 1398975
3 1809.12 1398523
3 1819.78 1394695
3 1820.23 1495338
3 1820.23 1475808
3 1820.23 1470348
3 1820.23 1468297
3 1820.23 1460183
3 1820.23 1459653
3 1820.23 1457748
3 1820.23 1451555
3 1820.23 1450714
3 1820.23 1448520
3 1820.23 1444442
3 1820.89 1443857
1 1820.89 1443167
3 1820.89 1442326
3 1820.89 1437835
3 1820.89 1434208
3 1820.89 1428267
3 1820.89 1423355
3 1821.48 1421832
3 1821.48 1421047
1 1821.48 1420174
3 1821.48 1419495
3 1821.48 1415431
3 1821.48 1407749
3 1821.48 1399634
3 1821.48 1394044
3 1822 1392369
3 1822 1390461
3 1822 1388799
3 1822 1386397
3 1822.5 1376722
3 1822.5 1375881
3 1822.5 1369962
3 1823 1366082
3 1823 1366012
3 1828.78 1365855
3 1834.35 1454938
3 1834.35 1428631
3 1834.35 1423469
3 1834.35 1423425
3 1834.35 1407334
3 1834.35 1406493
3 1834.35 1406363
3 1835.21 1405686
3 1835.21 1396924
3 1835.21 1396321
3 1835.97 1395275
3 1835.97 1388848
3 1835.97 1386078
3 1836.78 1383963
3 1837.53 1381536
3 1837.53 1381004
3 1838.25 1380846
3 1838.78 1378278
3 1838.78 1376544
3 1839.24 1375847
3 1841.03 1373699
3 1842.38 1371289
3 1842.84 1371249
3 1843.27 1370501
3 1844.16 1368596
3 1844.16 1364018
3 1844.88 1362508
3 1845.58 1359902
3 1848.31 1474639
3 1848.31 1448162
3 1848.31 1443651
3 1848.31 1442567
3 1848.31 1440517
3 1848.31 1439676
3 1848.31 1438859
3 1848.31 1438789
3 1848.31 1418683
3 1848.95 1412828
3 1848.95 1412468
3 1848.95 1403658
3 1848.95 1403521
3 1848.95 1401441
3 1848.95 1397497
3 1849.43 1395670
3 1849.43 1386843
3 1849.43 1383105
3 1849.43 1381922
3 1849.43 1378295
3 1849.9 1376734
3 1849.9 1375271
3 1849.9 1374587
3 1850.35 1372748
3 1850.35 1370697
3 1850.35 1370029
3 1850.8 1368345
3 1851.22 1364194
3 1851.65 1363353
3 1852.06 1362129
3 1852.48 1356050
3 1852.48 1355383
3 1852.48 1355313
3 1852.93 1355302
3 1852.93 1354122
3 1853.37 1349341
3 1853.37 1347928
3 1854.67 1347531
3 1862.4 1423800
3 1862.4 1423613
3 1862.4 1421045
3 1862.4 1403215
3 1862.4 1400485
3 1862.4 1398217
3 1862.4 1395649
3 1862.4 1387685
3 1863.15 1387506
3 1863.15 1386295
3 1863.15 1383032
3 1863.15 1381611
3 1863.15 1381018
3 1863.15 1380502
3 1863.15 1379142
3 1864 1378549
3 1864 1376014
3 1865.11 1375691
3 1865.11 1372192
3 1865.11 1371660
3 1865.65 1369793
3 1865.65 1368755
3 1865.65 1365492
3 1866.1 1363182
3 1866.1 1362432
3 1866.1 1361394
3 1872.68 1360792
3 1873.36 1359290
3 1873.36 1359197
3 1873.36 1359080
3 1873.36 1358188
3 1873.36 1356093
3 1873.36 1356000
3 1873.36 1352982
3 1874.01 1352856
3 1874.46 1350989
3 1875.3 1350919
3 1875.87 1350386
3 1876.4 1520110
3 1876.4 1499418
3 1876.4 1456080
3 1876.4 1449384
3 1876.4 1447560
3 1876.4 1443894
3 1876.4 1433578
3 1876.4 1432450
3 1876.4 1430249
3 1877.05 1428165
3 1877.05 1421950
3 1877.05 1395473
3 1877.05 1390037
3 1877.05 1380881
3 1877.05 1378522
3 1877.05 1370974
3 1877.05 1370840
3 1877.05 1370777
3 1877.05 1370358
3 1878.07 1368307
3 1878.07 1362176
3 1878.07 1358078
3 1878.07 1353913
3 1878.76 1351344
3 1878.76 1348720
3 1878.76 1348500
3 1878.76 1347302
3 1879.23 1346919
3 1879.23 1344208
3 1880.68 1344157
3 1880.68 1343531
3 1881.13 1343383
3 1881.58 1342989
3 1881.58 1342919
3 1882.87 1341994
3 1882.87 1341927
3 1883.31 1341587
3 1886.29 1341427
3 1890.48 1509766
3 1890.48 1503572
3 1890.48 1499081
3 1890.48 1493314
3 1890.48 1487702
3 1890.48 1487434
3 1890.48 1486593
3 1890.48 1460116
3 1890.48 1452638
3 1890.48 1452035
3 1890.48 1445079
3 1890.48 1435355
3 1890.48 1430847
3 1890.48 1428796
3 1890.48 1424631
3 1891.13 1419163
3 1891.13 1411481
3 1891.13 1409754
3 1891.13 1406381
3 1891.13 1405870
3 1891.13 1403491
3 1891.62 1400923
3 1891.62 1398509
3 1891.62 1397803
3 1891.62 1387389
3 1891.62 1386716
3 1891.62 1380306
3 1891.62 1372962
3 1891.62 1371267
3 1891.62 1369014
3 1891.62 1368222
3 1892.13 1367311
3 1892.13 1366446
3 1892.13 1364063
3 1892.13 1363219
3 1892.13 1363108
3 1892.63 1361374
3 1893.47 1360610
3 1893.93 1360540
3 1893.93 1358084
3 1894.77 1357141
3 1894.77 1356151
3 1894.77 1355463
3 1894.77 1352432
3 1895.22 1350978
3 1895.66 1349932
3 1896.08 1349917
3 1896.08 1349862
3 1897.04 1349656
3 1897.04 1349616
3 1898.85 1349524
3 1899.29 1349153
3 1899.72 1348458
3 1900.22 1347952
3 1900.22 1346952
3 1900.69 1346187
3 1904.32 1465529
3 1904.32 1459883
3 1904.32 1458125
3 1904.32 1457247
3 1904.32 1451664
3 1904.32 1450666
3 1904.32 1449082
3 1904.32 1448859
3 1904.32 1447429
3 1904.32 1446816
3 1904.32 1442752
3 1904.32 1440580
3 1904.32 1440166
3 1904.32 1432235
3 1904.32 1431394
3 1904.32 1425614
3 1904.93 1420212
3 1904.93 1413006
3 1904.93 1401312
3 1904.93 1399576
3 1904.93 1398049
3 1904.93 1383723
3 1904.93 1383710
3 1905.63 1380595
3 1905.63 1374380
3 1905.63 1372235
3 1905.63 1367861
3 1905.63 1363325
3 1905.63 1361454
3 1906.42 1360341
3 1906.42 1358949
3 1906.42 1356933
3 1906.94 1355931
3 1906.94 1354885
3 1913.45 1352873
3 1917.22 1348998
3 1917.68 1348077
3 1917.68 1344603
3 1918.11 1498647
3 1918.11 1490167
3 1918.11 1487005
3 1918.11 1482733
3 1918.11 1465594
3 1918.11 1463422
3 1918.11 1453973
3 1918.11 1453854
3 1918.11 1414586
3 1918.11 1412165
3 1919.01 1410260
3 1919.01 1407482
3 1919.01 1407326
3 1919.68 1404136
3 1919.68 1402505
3 1919.68 1400868
3 1920.26 1397535
3 1920.26 1397259
3 1920.26 1397137
3 1920.88 1396091
3 1920.88 1389311
3 1920.88 1387076
3 1920.88 1384944
3 1920.88 1384199
3 1921.48 1381172
3 1921.48 1375861
3 1921.48 1373460
3 1921.48 1368769
3 1921.48 1365475
3 1924.87 1365305
3 1932.4 1451601
3 1932.4 1435341
3 1932.4 1430834
3 1932.4 1427493
3 1932.4 1423116
3 1932.4 1418044
3 1932.4 1398280
3 1932.4 1394305
3 1932.4 1382928
3 1932.4 1369213
3 1932.4 1364993
3 1932.4 1361531
3 1932.96 1361159
3 1932.96 1359306
3 1933.5 1357531
3 1933.94 1356493
3 1933.94 1356078
3 1934.53 1351872
3 1935.26 1351587
3 1946.19 1414771
3 1946.19 1412203
3 1946.19 1412027
3 1946.19 1411094
3 1946.19 1410253
3 1946.19 1403911
3 1946.19 1398295
3 1946.19 1395447
3 1946.19 1393396
3 1946.19 1389314
3 1946.19 1386413
3 1946.91 1384935
3 1947.52 1379083
3 1947.52 1378285
3 1947.52 1372871
3 1948.04 1372698
3 1948.04 1372434
3 1948.57 1367739
3 1948.57 1366216
3 1949.01 1366159
3 1949.57 1365688
3 1950.31 1364254
3 1960.08 1516140
3 1960.08 1500303
3 1960.08 1497735
3 1960.08 1480115
3 1960.08 1479850
3 1960.08 1463257
3 1960.08 1423021
3 1960.08 1422478
3 1960.08 1419215
3 1960.95 1417493
3 1960.95 1408688
3 1960.95 1407738
3 1960.95 1402182
3 1961.7 1384582
3 1961.7 1380626
3 1961.7 1378615
3 1962.43 1374887
3 1962.43 1373578
3 1962.43 1373090
3 1963.83 1372400
3 1963.83 1371039
3 1964.54 1368618
3 1964.54 1367045
3 1965.51 1366983
3 1965.94 1365227
3 1966.35 1365146
3 1966.35 1363081
3 1966.35 1361616
3 1966.35 1359565
3 1966.35 1358550
3 1966.35 1355609
3 1966.35 1355444
3 1966.84 1354484
3 1967.25 1353632
3 1974.17 1508067
3 1974.17 1491663
3 1974.17 1484224
3 1974.17 1459356
3 1974.17 1454056
3 1974.17 1450227
3 1974.17 1450030
3 1974.17 1438174
3 1974.17 1436147
3 1974.17 1430456
3 1974.17 1430407
3 1974.17 1414248
3 1974.17 1406809
3 1975.14 1406341
3 1975.14 1391252
3 1975.92 1391083
3 1975.92 1387913
3 1975.92 1387908
3 1975.92 1382898
3 1975.92 1381898
3 1976.71 1379533
3 1976.71 1379315
3 1976.71 1376095
3 1976.71 1371007
3 1976.71 1367065
3 1976.71 1366007
3 1976.71 1362744
3 1977.27 1362351
3 1977.27 1360152
3 1977.69 1360108
3 1977.69 1359311
3 1977.69 1358325
3 1977.69 1357894
3 1977.69 1357097
3 1978.15 1355684
3 1988.35 1497159
3 1988.35 1473592
3 1988.35 1447115
3 1988.35 1439408
3 1988.35 1436851
3 1988.35 1436576
3 1988.35 1428858
3 1988.35 1416742
3 1988.35 1414262
3 1988.89 1408711
3 1988.89 1402439
3 1988.89 1401680
3 1988.89 1399792
3 1988.89 1398153
3 1988.89 1383886
3 1989.37 1381749
3 1989.79 1380711
3 1989.79 1372396
3 1989.79 1371640
3 1989.79 1371390
3 1990.3 1371329
3 1990.3 1366764
3 1990.73 1365135
3 1990.73 1364940
3 1990.73 1364923
3 1991.17 1362412
3 1991.58 1361162
3 1992.6 1360967
3 1992.6 1360116
3 1992.6 1359118
3 1992.6 1358030
3 1993.25 1356439
3 1993.25 1354019
3 1993.25 1352205
3 1993.81 1349468
3 1993.81 1345793
3 1994.27 1344755
3 1994.27 1344518
3 1994.27 1343709
3 1995.1 1342474
3 1995.1 1341061
3 1997.62 1340894
3 2002.35 1431630
3 2002.35 1428367
3 2002.35 1427672
3 2002.35 1417454
3 2002.35 1416779
3 2002.35 1411856
3 2002.35 1404803
3 2002.35 1404391
3 2002.91 1396673
3 2002.91 1395992
3 2002.91 1391799
3 2002.91 1390786
3 2002.91 1387820
3 2002.91 1385215
3 2002.91 1383329
3 2003.4 1365147
3 2003.83 1365080
3 2004.25 1359688
3 2004.77 1356105
3 2004.77 1356031
3 2005.22 1354468
3 2005.22 1354448
3 2006.51 1353014
3 2007.39 1352595
3 2008.62 1345655
3 2008.62 1343751
3 2009.07 1341700
3 2009.52 1341079
3 2009.92 1341005
3 2016.55 1441329
3 2016.55 1418569
3 2016.55 1417523
3 2016.55 1411200
3 2016.55 1410359
3 2017.29 1409226
3 2017.29 1408188
3 2017.29 1402946
3 2017.29 1402262
3 2017.93 1402192
3 2017.93 1400721
3 2018.67 1399081
3 2018.67 1398035
3 2018.67 1397421
3 2018.67 1392700
3 2019.44 1390638
3 2019.44 1385652
3 2020.17 1385038
3 2020.17 1379832
3 2028.74 1379313
3 2029.5 1378472
3 2029.5 1378402
3 2029.5 1377023
3 2030.25 1497819
3 2030.25 1486073
3 2030.25 1476109
3 2030.25 1475268
3 2030.25 1471852
3 2030.25 1469807
3 2030.25 1468278
3 2030.25 1460997
3 2030.25 1453110
3 2030.25 1451406
3 2030.25 1448259
3 2030.25 1444094
3 2030.25 1438169
3 2030.25 1419970
3 2031.21 1413511
3 2031.21 1408490
3 2031.21 1408299
3 2031.21 1407261
3 2031.21 1399579
3 2031.99 1391888
3 2031.99 1389320
3 2031.99 1385737
3 2032.46 1382825
3 2032.46 1381487
3 2032.91 1381215
3 2032.91 1375991
3 2032.91 1372408
3 2032.91 1369840
3 2033.39 1367118
3 2033.39 1363002
3 2033.39 1361912
3 2033.39 1358507
3 2033.84 1354047
3 2033.84 1353377
3 2033.84 1352339
3 2033.84 1351977
3 2034.28 1350824
3 2034.91 1348227
3 2034.91 1347475
3 2035.64 1347047
3 2036.82 1344907
3 2036.82 1344736
3 2038.86 1344621
3 2044.27 1447246
3 2044.27 1444214
3 2044.27 1440587
3 2044.27 1432835
3 2044.27 1432648
3 2044.27 1427494
3 2044.27 1424952
3 2044.27 1424066
3 2044.27 1423225
3 2044.82 1414581
3 2044.82 1411632
3 2044.82 1408005
3 2045.3 1399195
3 2045.3 1396697
3 2045.75 1392903
3 2046.2 1392301
3 2046.2 1386384
3 2046.2 1381365
3 2046.65 1380651
3 2046.65 1379810
3 2046.65 1377984
3 2047.09 1376276
3 2047.09 1373248
3 2047.56 1371839
3 2047.56 1370290
3 2048.31 1367123
3 2049.34 1366409
3 2049.34 1365568
3 2052.14 1365348
3 2053.82 1365200
3 2053.82 1364678
3 2053.82 1363640
3 2058.24 1499740
3 2058.24 1480114
3 2058.24 1480106
3 2058.24 1469411
3 2058.24 1463846
3 2058.24 1449463
3 2058.24 1436744
3 2058.24 1432978
3 2058.24 1430957
3 2058.24 1428471
3 2058.24 1427591
3 2058.24 1425866
3 2058.24 1415412
3 2059.13 1414565
3 2059.13 1411221
3 2059.13 1407970
3 2059.13 1385163
3 2059.13 1379957
3 2059.91 1379714
3 2059.91 1377067
3 2059.91 1366904
3 2060.65 1365887
3 2060.65 1365560
3 2060.65 1365046
3 2060.65 1364459
3 2061.4 1362417
3 2061.4 1362089
3 2061.4 1361331
3 2061.4 1358067
3 2062.14 1357625
3 2062.84 1355815
3 2062.84 1355612
3 2063.55 1355322
3 2064.23 1355132
3 2064.23 1354284
3 2064.66 1353569
3 2064.66 1353165
3 2065.09 1352552
3 2066.04 1352133
3 2072.52 1442325
3 2072.52 1439024
3 2072.52 1419264
3 2072.52 1413355
3 2072.52 1413059
3 2072.52 1408864
3 2072.52 1400454
3 2072.52 1397191
3 2073.24 1397059
3 2073.24 1391408
3 2073.24 1389866
3 2073.24 1388775
3 2074 1387737
3 2074 1383427
3 2074 1380859
3 2074 1380320
3 2074.46 1378698
3 2074.46 1378415
3 2074.91 1376691
3 2074.91 1376104
3 2075.38 1375476
3 2075.93 1371834
3 2079.96 1368879
3 2079.96 1364934
3 2081.34 1364853
3 2082 1364233
3 2082 1362803
3 2085.3 1358159
3 2085.98 1356699
3 2085.98 1356276
3 2085.98 1355661
3 2086.7 1459990
3 2086.7 1436921
3 2086.7 1434353
3 2086.7 1432923
3 2086.7 1431856
3 2086.7 1424946
3 2086.7 1420917
3 2086.7 1420781
3 2086.7 1420754
3 2086.7 1419716
3 2087.67 1400738
3 2087.67 1390399
3 2087.67 1389870
3 2087.67 1386248
3 2088.21 1384487
3 2088.21 1382985
3 2088.21 1381543
3 2088.76 1378719
3 2088.76 1375130
3 2088.76 1372544
3 2088.76 1372525
3 2088.76 1371595
3 2089.55 1371259
3 2089.55 1369182
3 2090.16 1366519
3 2090.16 1365303
3 2090.16 1363991
3 2090.16 1363572
3 2090.73 1360071
3 2090.73 1358379
3 2091.18 1357538
3 2091.62 1356935
3 2092.95 1355968
3 2093.49 1350762
3 2094.82 1350662
3 2095.52 1348363
3 2095.52 1346706
3 2096.56 1346553
3 2096.56 1346333
3 2096.56 1345912
3 2097.14 1345879
3 2098.46 1345440
3 2098.46 1345271
3 2099.78 1345201
3 2100.26 1487078
3 2100.26 1466689
3 2100.26 1462384
3 2100.26 1458318
3 2100.26 1456543
3 2100.26 1454492
3 2100.26 1439403
3 2100.26 1434882
3 2100.8 1423200
3 2100.8 1423086
3 2100.8 1420617
3 2100.8 1419580
3 2101.3 1413365
3 2101.3 1410177
3 2101.3 1409200
3 2101.77 1408122
3 2103.32 1399798
3 2103.87 1399195
3 2103.87 1398819
3 2104.81 1394755
3 2105.71 1393044
3 2105.71 1392008
3 2106.47 1391645
3 2106.47 1390607
1 2107.24 1389753
3 2107.24 1384942
3 2107.91 1384054
3 2108.35 1382610
3 2108.35 1380624
3 2108.35 1377473
3 2108.35 1376526
3 2108.83 1375031
3 2108.83 1374972
3 2108.83 1372899
3 2114.15 1443486
3 2114.15 1423551
3 2114.15 1417741
3 2114.15 1413836
3 2114.15 1408813
3 2114.15 1407608
3 2114.15 1405760
3 2114.15 1403602
3 2114.15 1402966
3 2114.76 1391205
3 2114.76 1389228
3 2114.76 1388809
3 2114.76 1383684
3 2114.76 1383013
3 2115.29 1380361
3 2115.29 1376730
3 2115.75 1376374
3 2116.18 1375684
3 2117.24 1373906
3 2117.24 1373633
3 2123.75 1373533
3 2124.83 1372930
3 2128.41 1489397
3 2128.41 1488351
3 2128.41 1486300
3 2128.41 1483732
3 2128.41 1478982
1 2128.41 1452751
3 2128.41 1449124
3 2128.41 1422171
3 2128.41 1412979
3 2128.41 1408776
3 2128.41 1407491
3 2128.41 1402285
3 2128.41 1399338
3 2128.41 1399086
3 2129.03 1395247
3 2129.03 1391618
3 2129.03 1388871
3 2129.03 1382683
3 2129.57 1381141
3 2129.57 1380632
3 2129.57 1380472
3 2130.05 1380175
3 2130.05 1375677
3 2130.52 1373446
3 2130.52 1370878
3 2130.52 1367975
3 2131.01 1367134
3 2132.23 1365239
3 2134.24 1361749
3 2134.24 1361612
3 2134.69 1361165
3 2142.21 1460652
3 2142.21 1413961
3 2142.21 1408655
3 2142.21 1406604
3 2142.21 1406114
3 2142.21 1406097
3 2142.21 1393489
3 2142.21 1385390
3 2142.21 1382190
3 2142.99 1380366
3 2142.99 1376205
3 2143.56 1371564
3 2143.56 1368332
3 2144.28 1366785
3 2144.28 1366372
3 2144.28 1365201
3 2144.28 1364371
3 2144.28 1361108
3 2145.34 1360062
3 2145.77 1358949
3 2146.18 1357495
3 2146.65 1354885
3 2156.2 1458832
3 2156.2 1455569
3 2156.2 1446875
3 2156.2 1436980
3 2156.2 1436180
3 2156.2 1430384
3 2156.2 1421593
3 2156.2 1420752
3 2156.2 1405519
3 2156.2 1403614
3 2156.2 1388930
3 2156.84 1384765
3 2156.84 1383667
3 2156.84 1379293
3 2156.84 1377242
3 2156.84 1377105
3 2156.84 1377035
3 2157.62 1375994
3 2157.62 1375990
3 2157.62 1375868
3 2157.62 1374157
3 2157.62 1373111
3 2158.39 1372423
3 2158.39 1372355
3 2158.39 1371370
3 2158.39 1371115
3 2159.15 1371045
3 2159.15 1370442
3 2159.15 1369855
3 2159.15 1366780
3 2159.15 1365997
3 2159.93 1358732
3 2159.93 1358679
3 2159.93 1353486
3 2161.78 1353266
3 2163.06 1349316
3 2163.06 1347573
3 2169.7 1347070
3 2169.7 1345670
3 2170.13 1486070
3 2170.13 1482006
3 2170.13 1470878
3 2170.13 1458041
3 2170.13 1454610
3 2170.13 1445800
3 2170.13 1442173
3 2170.13 1441570
3 2170.13 1426602
3 2170.69 1425818
3 2170.69 1424548
3 2170.69 1424478
3 2170.69 1424328
3 2170.69 1423990
3 2171.18 1422952
3 2172.04 1422226
3 2172.47 1422156
3 2172.9 1419144
3 2172.9 1418799
3 2174.25 1413463
3 2174.25 1413393
3 2174.25 1411445
3 2174.25 1408774
3 2174.25 1398290
3 2174.25 1398220
3 2174.78 1397600
3 2174.78 1394030
3 2174.78 1392532
3 2175.24 1390000
3 2175.24 1387269
3 2175.24 1383002
3 2175.24 1380503
3 2175.88 1380100
3 2176.63 1380005
3 2177.4 1378461
3 2177.85 1378391
3 2177.85 1378053
3 2177.85 1377634
3 2178.3 1376769
3 2184.22 1539360
3 2184.22 1531642
3 2184.22 1495958
3 2184.22 1480943
3 2184.22 1474728
3 2184.22 1471677
3 2184.22 1467566
3 2184.22 1459952
3 2184.22 1456509
3 2184.22 1451609
3 2184.22 1444170
3 2184.22 1440709
3 2184.87 1440005
3 2184.87 1438839
3 2184.87 1435612
3 2184.87 1432504
3 2184.87 1428406
3 2185.43 1423280
3 2185.43 1423159
3 2185.43 1422696
3 2185.43 1419433
3 2185.43 1403755
3 2185.43 1402851
3 2185.43 1399423
3 2185.43 1391167
3 2186.03 1385858
3 2186.03 1385632
3 2186.03 1381568
3 2186.48 1381211
3 2186.48 1377147
3 2186.48 1369852
3 2186.48 1363658
3 2186.48 1362469
3 2186.48 1360564
3 2186.95 1360031
3 2187.44 1359562
3 2187.44 1359461
3 2188.32 1358796
3 2188.74 1357943
3 2189.2 1357444
3 2189.61 1357411
3 2189.61 1356992
3 2189.61 1356326
3 2192.53 1354037
3 2192.98 1352934
3 2198.37 1476741
3 2198.37 1476671
3 2198.37 1455202
3 2198.37 1432646
3 2198.37 1425786
3 2198.37 1425208
3 2198.37 1422232
3 2198.37 1418969
3 2198.37 1413863
3 2198.37 1410236
3 2199.07 1408474
3 2199.07 1407660
3 2199.07 1396787
3 2199.07 1394091
3 2199.07 1384355
3 2199.55 1383936
3 2199.55 1378504
3 2199.55 1375243
3 2199.55 1373958
3 2200.09 1373888
3 2200.09 1367384
3 2200.09 1367242
3 2200.09 1364217
3 2200.84 1363979
3 2201.61 1362096
3 2201.61 1362074
3 2201.61 1358635
3 2201.61 1357240
3 2202.35 1354965
3 2203.07 1352756
3 2203.07 1352047
3 2206.03 1351444
3 2212.38 1455870
3 2212.38 1451379
3 2212.38 1450387
3 2212.38 1439289
3 2212.38 1437600
3 2212.38 1424215
3 2212.89 1419597
3 2212.89 1419167
3 2212.89 1418401
3 2212.89 1407852
3 2212.89 1399158
3 2212.89 1396768
3 2213.43 1395124
3 2213.43 1395054
3 2213.43 1387013
3 2213.43 1383287
3 2213.43 1381051
3 2213.91 1380047
3 2213.91 1379785
3 2213.91 1378944
3 2213.91 1378483
3 2213.91 1372268
3 2213.91 1371367
3 2213.91 1369030
3 2213.91 1368720
3 2214.41 1365436
3 2214.41 1363826
3 2214.85 1363385
3 2214.85 1362564
3 2215.28 1359996
3 2215.28 1354996
3 2215.28 1353958
3 2215.28 1353715
3 2215.76 1350522
3 2215.76 1349648
3 2216.18 1349144
3 2216.6 1348886
3 2216.6 1348467
3 2217.17 1348351
3 2217.17 1346598
3 2217.17 1345552
3 2218.63 1342974
3 2219.32 1340334
3 2226.47 1514204
3 2226.47 1505510
3 2226.47 1501883
3 2226.47 1501042
3 2226.47 1472299
3 2226.47 1471458
3 2226.47 1463152
3 2226.47 1450544
3 2226.47 1440676
3 2226.47 1430454
3 2226.47 1428115
3 2226.47 1423157
3 2226.47 1421106
3 2226.47 1414891
3 2227.52 1414089
3 2227.52 1410025
3 2228.43 1409174
3 2228.43 1403823
3 2229.15 1402216
3 2229.15 1400636
3 2229.71 1395071
3 2229.71 1391325
3 2229.71 1382590
3 2229.71 1380831
3 2230.2 1377248
3 2230.2 1373275
3 2230.2 1372889
3 2230.67 1372852
3 2230.67 1371843
3 2234.41 1368077
3 2234.41 1362590
3 2234.41 1361883
3 2234.41 1361521
3 2235 1358679
3 2235 1356774
3 2235 1356640
3 2235.66 1355687
3 2235.66 1355577
3 2235.66 1355144
3 2235.66 1354649
3 2236.44 1353515
3 2236.44 1352488
3 2237.16 1352418
3 2237.16 1352303
3 2240.02 1476986
3 2240.02 1468292
3 2240.02 1453234
3 2240.02 1444753
3 2240.02 1436926
3 2240.02 1436372
3 2240.02 1433614
3 2240.02 1431010
3 2240.87 1430044
3 2240.87 1428139
3 2240.87 1420133
3 2240.87 1419131
3 2241.7 1417009
3 2241.7 1409389
3 2241.7 1409291
3 2241.7 1408278
3 2242.57 1403725
3 2242.57 1401293
3 2242.57 1400946
3 2243.03 1399786
3 2243.03 1397777
3 2243.48 1397531
3 2243.48 1388082
3 2243.48 1382618
3 2243.48 1382354
3 2243.48 1374407
3 2246.5 1371288
3 2252.92 1370948
3 2252.92 1370411
3 2253.58 1369507
3 2253.58 1367069
3 2253.58 1362729
3 2254.23 1478487
3 2254.23 1467827
3 2254.23 1465598
3 2254.23 1444317
3 2254.23 1443172
3 2254.79 1441482
3 2254.79 1438254
3 2254.79 1433982
3 2254.79 1429380
3 2254.79 1424316
3 2255.49 1423572
3 2255.49 1417960
3 2255.49 1417863
3 2255.49 1409169
3 2255.49 1408566
3 2255.49 1396134
3 2256.31 1395916
3 2256.31 1395407
3 2256.31 1395143
3 2257.08 1393601
3 2257.08 1390455
3 2257.08 1390002
3 2257.83 1387395
3 2260.04 1385612
3 2261.96 1383892
3 2262.39 1381861
3 2262.39 1380577
3 2263.09 1379298
3 2268.04 1439661
3 2268.04 1434996
3 2268.04 1427278
3 2268.04 1423651
3 2268.04 1415972
3 2268.04 1412179
3 2268.04 1411576
3 2268.04 1407512
3 2268.04 1402756
3 2268.93 1397376
3 2268.93 1393160
3 2268.93 1384537
3 2268.93 1379775
3 2268.93 1377916
3 2268.93 1376644
3 2269.49 1371793
3 2269.92 1370429
3 2270.8 1364452
3 2270.8 1364320
3 2272.92 1362689
3 2273.36 1362419
3 2273.36 1362330
3 2273.88 1361941
3 2282.17 1484588
3 2282.17 1480795
3 2282.17 1478918
3 2282.17 1470224
3 2282.17 1467963
3 2282.17 1464700
3 2282.17 1457146
3 2282.17 1448502
3 2282.17 1443296
3 2282.17 1430688
3 2282.17 1404211
3 2283.12 1403885
3 2283.12 1392704
3 2283.12 1382285
3 2283.12 1379394
3 2283.12 1377940
3 2283.94 1376826
3 2283.94 1372976
3 2283.94 1371222
3 2283.94 1369666
3 2284.45 1368339
3 2284.45 1368270
3 2284.45 1368000
3 2285.01 1366658
3 2285.01 1366529
3 2285.01 1364769
3 2285.48 1364174
1 2287.45 1358980
3 2289.32 1358257
3 2289.74 1356901
3 2291.6 1354890
3 2291.6 1353183
3 2291.6 1352852
3 2292.05 1352433
3 2292.91 1344976
3 2292.91 1343650
3 2292.91 1340752
3 2292.91 1339893
3 2296.43 1435677
3 2296.43 1432050
3 2296.43 1431631
3 2296.43 1430790
3 2296.43 1429247
3 2296.43 1416255
3 2297.23 1414613
3 2297.23 1413435
3 2297.23 1411764
3 2297.98 1406922
3 2297.98 1404816
3 2297.98 1397184
3 2297.98 1396064
3 2297.98 1394159
3 2297.98 1379197
3 2298.77 1372153
3 2298.77 1369585
3 2298.77 1367213
3 2298.77 1365162
3 2299.54 1365074
3 2299.54 1358859
3 2300.97 1357105
3 2301.57 1356897
3 2302.08 1356322
3 2302.08 1356057
3 2302.08 1352891
3 2302.08 1352821
3 2303.2 1352647
3 2303.2 1352325
3 2303.74 1352275
3 2303.74 1348003
3 2304.4 1347712
3 2305.8 1347582
3 2305.8 1346236
3 2306.23 1345144
3 2307.1 1345075
3 2307.58 1344898
3 2308.43 1344326
3 2310.41 1453496
3 2310.41 1450145
3 2310.41 1449231
3 2310.41 1446061
3 2310.41 1441896
3 2310.41 1438633
3 2310.41 1431644
3 2310.41 1431627
3 2310.41 1419960
3 2310.41 1416697
3 2310.41 1390441
3 2311.39 1388693
3 2311.39 1386125
3 2311.39 1382542
3 2311.39 1372743
3 2311.39 1372708
3 2311.39 1368752
3 2311.39 1368608
3 2311.39 1366937
3 2311.39 1364117
3 2312.92 1361784
3 2312.92 1361189
3 2312.92 1360534
3 2312.92 1359138
3 2314.36 1355556
3 2314.36 1355486
3 2314.36 1353653
3 2314.36 1353014
3 2315.12 1350635
3 2315.82 1349075
3 2315.82 1347324
3 2316.54 1346780
3 2317.23 1345529
3 2321.05 1344997
3 2323.93 1340924
3 2324.59 1430950
3 2324.59 1417820
3 2324.59 1415296
3 2325.06 1415191
3 2325.06 1414317
3 2325.06 1413126
3 2325.06 1410823
3 2325.06 1408491
3 2325.06 1406671
3 2325.06 1400158
3 2325.06 1394299
3 2325.06 1388156
3 2325.06 1387881
3 2325.06 1385974
3 2325.69 1385233
3 2325.69 1383538
3 2325.69 1381135
3 2326.13 1371411
3 2326.59 1367274
3 2326.59 1364664
3 2326.59 1362008
3 2327.12 1360991
3 2327.12 1359957
3 2327.12 1357386
3 2327.71 1357260
3 2327.71 1355095
3 2329.12 1353633
3 2338.18 1493454
3 2338.18 1488736
3 2338.18 1486564
3 2338.18 1471268
3 2338.18 1442617
3 2338.18 1430500
3 2338.18 1416912
3 2338.18 1414742
3 2338.75 1412486
3 2338.75 1411791
3 2338.75 1407626
3 2339.35 1407581
3 2339.35 1406721
3 2339.35 1405048
3 2339.35 1402963
3 2339.35 1402177
3 2339.35 1400067
3 2339.96 1396003
3 2339.96 1393195
3 2340.5 1391354
3 2340.5 1387727
3 2340.5 1386689
3 2341.73 1386028
3 2341.73 1384293
3 2342.44 1381797
3 2342.44 1381393
3 2343.05 1378559
3 2343.05 1377430
3 2343.49 1376589
3 2348.29 1375593
3 2349 1375148
3 2352.37 1473271
3 2352.37 1465553
3 2352.37 1464611
3 2352.37 1445487
3 2352.37 1443654
3 2352.37 1427250
3 2352.37 1426529
3 2352.37 1426327
3 2352.37 1421121
3 2352.37 1420790
3 2353.22 1419651
3 2353.22 1418085
3 2353.22 1407489
3 2353.22 1406409
3 2353.22 1398970
3 2353.22 1397930
3 2353.22 1389236
3 2354.02 1387757
3 2354.02 1387690
3 2354.02 1380785
3 2354.02 1378723
3 2354.02 1376678
3 2354.02 1374059
3 2354.02 1371491
3 2354.82 1368228
3 2354.82 1366785
3 2354.82 1365627
3 2355.55 1363022
3 2355.55 1362952
3 2356.99 1362345
3 2357.64 1360860
3 2357.64 1360019
3 2357.64 1358103
3 2357.64 1356366
3 2358.08 1355626
3 2358.08 1354447
3 2360.18 1354155
3 2361.17 1353314
3 2361.89 1351078
3 2362.59 1350818
3 2362.59 1347495
3 2362.59 1347129
3 2362.59 1346288
3 2363.2 1345792
3 2364.68 1345586
3 2364.68 1344927
3 2366.34 1494070
3 2366.34 1488610
3 2366.34 1468133
3 2366.34 1459441
3 2366.34 1447375
3 2366.34 1433909
3 2366.34 1433306
3 2366.99 1429560
3 2366.99 1428737
3 2367.6 1424246
3 2367.6 1423503
3 2367.6 1417271
3 2367.6 1415941
3 2367.6 1412151
3 2367.6 1408307
3 2367.6 1404780
3 2368.36 1404439
3 2368.36 1399194
3 2368.36 1398827
3 2368.36 1397986
3 2368.36 1394762
3 2368.36 1392075
3 2369.18 1391111
3 2369.18 1389148
3 2369.18 1386908
3 2369.18 1386411
3 2369.96 1382313
3 2369.96 1373081
3 2369.96 1372301
3 2370.72 1367095
3 2371.45 1366070
3 2371.45 1365771
3 2372.89 1365467
3 2377.18 1364415
3 2379.43 1363954
3 2380.45 1509665
1 2380.45 1502193
3 2380.45 1500142
3 2380.45 1496390
3 2380.45 1491163
3 2380.45 1489258
3 2380.45 1488395
3 2380.45 1478671
3 2380.45 1472981
3 2380.45 1446504
3 2380.45 1442339
3 2380.45 1433753
3 2380.45 1431143
3 2380.45 1418722
3 2380.45 1411283
3 2381.18 1405515
3 2381.18 1400309
3 2381.18 1398986
3 2381.18 1394072
3 2381.18 1391975
3 2381.97 1390630
3 2381.97 1390035
3 2381.97 1386005
3 2381.97 1385285
3 2381.97 1384578
3 2382.79 1383596
3 2382.79 1379075
3 2382.79 1378562
3 2382.79 1378237
3 2382.79 1377548
3 2382.79 1377199
3 2382.79 1371691
3 2383.62 1371426
3 2383.62 1370941
3 2384.36 1365381
3 2384.36 1364335
3 2384.36 1363582
3 2384.36 1362352
3 2385.12 1361054
3 2385.12 1360201
3 2385.12 1360131
3 2385.12 1358448
3 2386.06 1358226
3 2386.49 1358111
3 2386.91 1356630
3 2387.36 1355747
3 2387.83 1355584
3 2389.49 1355214
3 2390.08 1353830
3 2390.08 1351435
3 2390.84 1348328
3 2394.2 1425798
3 2394.2 1424813
3 2394.2 1421105
3 2394.2 1420502
3 2394.2 1420184
3 2394.2 1419923
3 2394.2 1416120
3 2394.76 1415293
3 2396.12 1414482
3 2396.12 1413939
3 2396.7 1409064
3 2397.48 1407770
3 2397.48 1407719
3 2397.48 1397073
3 2398.27 1395844
3 2399.02 1395286
3 2399.02 1393879
3 2400.69 1393276
3 2404.75 1392958
3 2405.45 1389469
3 2405.99 1387047
3 2405.99 1384908
3 2406.44 1383275
3 2406.44 1383266
3 2406.44 1380844
3 2406.44 1380526
3 2407.34 1379494
3 2407.34 1375632
3 2408.24 1431266
3 2408.24 1428088
3 2408.24 1423637
3 2408.24 1422599
3 2408.72 1420536
3 2408.72 1418937
3 2408.72 1418156
3 2408.72 1413731
3 2409.21 1406013
3 2409.21 1403023
3 2409.21 1399213
3 2409.68 1397927
3 2409.68 1395523
3 2410.12 1395428
3 2410.12 1394587
3 2410.12 1394300
3 2410.58 1391732
3 2422.56 1529149
3 2422.56 1509229
3 2422.56 1505801
3 2422.56 1482234
3 2422.56 1481988
3 2422.56 1455511
3 2422.56 1442935
3 2422.56 1441285
3 2422.56 1426308
3 2422.56 1419069
3 2422.56 1412259
3 2423.47 1411793
3 2423.47 1410190
3 2423.47 1403212
3 2423.47 1398900
3 2423.47 1396005
3 2423.47 1381538
3 2423.47 1375381
3 2423.47 1372701
3 2423.47 1372661
3 2424.33 1370836
3 2424.33 1366381
3 2424.33 1363409
3 2424.33 1358611
3 2424.33 1357280
3 2425.11 1355653
3 2425.11 1353540
3 2428.11 1351278
3 2428.11 1348940
3 2428.11 1346889
3 2428.11 1346294
3 2428.65 1346276
3 2430.82 1346054
3 2432.21 1345822
3 2436.05 1431917
3 2436.05 1428054
3 2436.05 1427446
3 2436.05 1420007
3 2436.05 1419166
3 2436.05 1416743
3 2436.7 1415447
3 2436.7 1408214
3 2436.7 1406254
3 2436.7 1404468
3 2437.33 1404083
3 2437.33 1402334
3 2437.33 1401903
3 2438.09 1396233
3 2438.82 1390677
3 2439.56 1390447
3 2439.56 1387897
3 2439.56 1385329
3 2440.13 1380020
3 2440.68 1379409
3 2441.7 1378597
3 2442.14 1378351
3 2442.14 1376828
3 2442.14 1371887
3 2442.6 1370383
3 2442.6 1370123
3 2443.45 1368299
3 2443.87 1368269
3 2444.31 1367261
3 2450.43 1470717
3 2450.43 1468545
3 2450.43 1460827
3 2450.43 1445738
3 2450.43 1433111
3 2450.43 1423241
3 2450.43 1419716
3 2451.25 1417985
3 2451.25 1414553
3 2451.25 1413756
3 2451.25 1411584
3 2451.25 1410421
3 2452.07 1404625
3 2452.07 1400460
3 2452.07 1393732
3 2452.07 1392804
3 2452.07 1388433
3 2452.07 1386382
3 2452.07 1385541
3 2452.07 1382297
3 2452.91 1379748
3 2452.91 1379620
3 2452.91 1379074
3 2453.48 1378881
3 2453.48 1376319
3 2454.06 1375869
3 2454.06 1372829
3 2454.59 1370073
3 2454.59 1368873
3 2454.59 1366968
3 2455.05 1365453
3 2455.49 1365224
3 2455.49 1364593
3 2456.41 1363557
3 2456.83 1363157
3 2456.83 1361849
3 2456.83 1359924
3 2456.83 1359181
3 2456.83 1350194
3 2457.31 1347780
3 2457.31 1347313
3 2458.01 1347141
3 2458.72 1344367
3 2459.41 1343962
3 2459.41 1339626
3 2459.41 1338213
3 2464.37 1455363
3 2464.37 1439853
3 2464.37 1437363
3 2464.37 1421863
3 2464.37 1418522
3 2464.37 1416067
3 2464.37 1411075
3 2464.37 1409550
3 2465.21 1400153
3 2465.21 1396055
1 2465.21 1387879
3 2465.21 1386256
3 2465.21 1385363
3 2465.21 1385227
3 2465.21 1381960
3 2465.21 1371411
3 2466.05 1370570
3 2466.05 1367378
3 2466.8 1363314
3 2466.8 1363176
3 2466.8 1362284
3 2468.28 1357224
3 2468.28 1355844
3 2469.01 1355698
3 2469.01 1353855
3 2469.76 1351865
3 2469.76 1350592
3 2470.37 1347909
3 2470.37 1347681
3 2471.24 1347413
3 2471.24 1346840
3 2471.67 1344272
3 2478.08 1439548
3 2478.08 1429439
3 2478.08 1428648
3 2478.77 1413651
3 2478.77 1413278
3 2478.77 1407576
3 2479.52 1406833
3 2479.52 1404235
3 2479.52 1403902
3 2479.52 1402113
3 2480.13 1402002
3 2480.13 1401997
3 2480.13 1401578
3 2480.13 1398071
3 2480.13 1392872
3 2480.69 1389796
3 2480.69 1387990
3 2481.7 1386031
3 2482.53 1385727
3 2482.53 1383862
3 2482.53 1381811
3 2483.85 1379440
3 2484.34 1378402
3 2492.39 1450417
3 2492.39 1442978
3 2492.39 1437947
3 2492.39 1426884
3 2492.39 1423826
3 2492.39 1423507
3 2492.39 1419409
3 2492.39 1415345
3 2492.39 1414308
3 2493.06 1413818
3 2493.06 1397191
3 2493.06 1391885
3 2493.82 1390453
3 2493.82 1389814
3 2493.82 1387725
3 2493.82 1383234
3 2493.82 1374076
3 2493.82 1372938
3 2494.6 1372386
3 2494.6 1369978
3 2495.13 1367927
3 2495.13 1359324
3 2495.79 1357797
3 2495.79 1357106
3 2495.79 1354860
3 2496.53 1353843
3 2497.22 1350820
3 2497.22 1349779
3 2497.22 1346686
3 2499.67 1345861
3 2499.67 1344187
3 2506.07 1425371
3 2506.07 1421352
3 2506.07 1421236
3 2506.07 1420306
3 2506.07 1414760
3 2506.07 1404574
3 2506.07 1400914
3 2506.07 1399671
3 2506.63 1382506
3 2506.63 1381805
3 2506.63 1378881
3 2507.24 1376897
3 2507.24 1371691
3 2507.24 1369842
3 2507.72 1369515
3 2507.72 1365674
3 2507.72 1362246
3 2507.72 1358968
3 2507.72 1358898
3 2508.45 1358475
3 2509.27 1358146
3 2509.27 1358076
3 2509.81 1357707
3 2509.81 1356588
3 2510.87 1354418
3 2510.87 1352398
3 2511.64 1350872
3 2520.01 1440160
3 2520.01 1432442
3 2520.01 1428486
3 2520.01 1427040
3 2520.01 1422632
3 2520.01 1421471
3 2520.87 1413365
3 2520.87 1409200
3 2520.87 1405548
3 2520.87 1396854
3 2520.87 1392363
3 2520.87 1389561
3 2520.87 1389556
3 2521.65 1381173
3 2521.65 1379812
3 2521.65 1375856
3 2522.33 1375449
3 2523.04 1371456
3 2523.04 1367291
3 2523.04 1365502
3 2523.75 1364767
3 2523.75 1361184
3 2524.5 1359056
3 2524.5 1358588
3 2525.22 1358094
3 2527.4 1357455
3 2528.9 1355067
3 2528.9 1352168
3 2534.59 1458123
3 2534.59 1454496
3 2534.59 1453458
3 2534.59 1449360
3 2534.59 1438894
3 2534.59 1434141
3 2534.59 1433375
3 2534.59 1429650
3 2534.59 1426679
3 2534.59 1420789
3 2535.62 1414561
3 2535.62 1414560
3 2536.38 1408060
3 2536.38 1406866
3 2536.38 1402432
3 2536.38 1401453
3 2536.38 1399338
3 2537.25 1398598
3 2537.25 1395277
3 2538.01 1394132
3 2538.73 1391655
3 2539.46 1389199
3 2540.18 1387389
3 2540.18 1384687
3 2540.94 1384251
3 2540.94 1383293
3 2540.94 1383112
3 2543.2 1382582
3 2543.2 1381043
3 2543.97 1380966
3 2543.97 1379530
3 2543.97 1379150
3 2544.9 1377433
3 2544.9 1376794
3 2545.81 1374998
3 2545.81 1373093
3 2545.81 1369137
3 2546.56 1366002
3 2547.87 1363162
3 2547.87 1363085
3 2547.87 1359579
3 2547.87 1354373
3 2548.6 1447459
3 2548.6 1437138
3 2548.6 1433021
3 2548.6 1432207
3 2548.6 1430453
3 2548.6 1407278
3 2549.62 1406556
3 2549.62 1402284
3 2549.62 1398584
3 2549.62 1398124
3 2550.52 1394520
3 2550.52 1393831
3 2550.52 1387616
3 2550.52 1386758
3 2551.36 1386463
3 2551.36 1384251
3 2551.36 1383862
3 2551.36 1382839
3 2552.12 1381057
3 2552.12 1379315
3 2552.12 1379131
3 2552.12 1379038
3 2552.12 1378970
3 2552.12 1377621
3 2552.12 1376183
3 2552.99 1372874
3 2552.99 1371062
3 2554.29 1370221
3 2554.94 1369673
3 2554.94 1367482
3 2556.24 1364914
3 2560.76 1364585
3 2561.53 1363572
3 2561.53 1361322
3 2562.3 1449670
3 2562.3 1445572
3 2562.3 1440366
3 2562.3 1439299
3 2562.3 1435052
3 2562.3 1426138
3 2562.3 1421657
3 2562.3 1414183
3 2562.3 1409654
3 2562.3 1406049
3 2563.62 1399221
3 2563.62 1383197
3 2563.62 1382130
3 2565.22 1381711
3 2565.22 1380578
3 2565.22 1379806
3 2566.06 1371370
3 2566.06 1368326
3 2566.06 1368107
3 2566.06 1366818
3 2566.06 1365539
3 2567.48 1364624
3 2569.5 1364598
3 2569.5 1363488
3 2570.19 1361185
3 2570.19 1357018
3 2570.88 1355956
3 2570.88 1355115
3 2572.81 1354696
3 2573.49 1354165
3 2574.88 1353508
3 2579.59 1460001
3 2579.59 1451887
3 2579.59 1440013
3 2579.59 1423609
3 2579.59 1421887
3 2579.59 1418260
3 2579.59 1414196
3 2579.59 1410098
3 2579.59 1401825
3 2581.03 1400479
3 2581.03 1398515
3 2581.03 1392032
3 2581.03 1389556
3 2581.03 1383446
3 2582.12 1382367
3 2582.12 1372298
3 2582.12 1370247
3 2582.12 1368090
3 2582.12 1364398
3 2582.12 1363352
3 2583.05 1359853
3 2583.05 1359012
3 2583.81 1358952
3 2585.09 1357039
3 2585.09 1356680
3 2585.86 1356068
3 2585.86 1352713
3 2585.86 1351297
3 2586.58 1350259
3 2586.58 1350146
3 2587.33 1345655
3 2587.33 1344044
3 2590.07 1499849
3 2590.07 1463222
3 2590.07 1462455
3 2590.07 1459070
3 2590.07 1454905
3 2590.07 1451477
3 2590.07 1435682
3 2590.07 1433806
3 2590.07 1432055
3 2590.07 1424660
3 2590.93 1422016
3 2590.93 1419519
3 2590.93 1416256
3 2590.93 1414586
3 2590.93 1406742
3 2590.93 1405743
3 2590.93 1403712
3 2590.93 1400542
3 2591.74 1396377
3 2591.74 1394205
3 2591.74 1393541
3 2591.74 1375173
3 2591.74 1371642
3 2591.74 1369980
3 2592.6 1368866
3 2592.6 1368458
3 2592.6 1368388
3 2593.39 1367173
3 2593.39 1365125
3 2593.39 1364375
3 2593.39 1363109
3 2594.32 1362550
3 2594.32 1358677
3 2594.32 1358082
3 2594.32 1356256
3 2594.32 1353569
3 2595.15 1350528
3 2595.15 1349985
3 2595.15 1348845
3 2596.74 1347472
3 2596.74 1346869
3 2596.74 1344961
3 2597.56 1343811
3 2597.56 1343565
3 2604.32 1455749
3 2604.32 1443141
3 2604.32 1426934
3 2604.32 1422108
3 2604.32 1409382
3 2604.32 1407250
3 2604.32 1400509
3 2604.32 1397246
3 2605.13 1396675
3 2605.13 1392719
3 2605.13 1390701
3 2606.18 1390226
3 2606.18 1386702
3 2606.68 1383339
3 2606.68 1382167
3 2606.68 1382148
3 2606.68 1369822
3 2607.43 1369189
3 2608.14 1367847
3 2608.88 1366809
3 2608.88 1366077
3 2608.88 1365549
3 2610.37 1364858
3 2610.37 1364668
3 2613.87 1364662
3 2613.87 1363953
3 2614.61 1363057
3 2614.61 1361772
3 2614.61 1361385
3 2614.61 1360733
3 2615.39 1359030
3 2615.39 1358440
3 2616.12 1356837
3 2616.12 1353771
3 2616.86 1352951
3 2616.86 1352930
3 2618.32 1464261
3 2618.32 1452024
3 2618.32 1448473
3 2618.32 1435650
3 2618.32 1433891
3 2618.32 1428885
3 2618.32 1424720
3 2618.88 1423675
3 2618.88 1422834
3 2618.88 1421203
3 2618.88 1417247
3 2618.88 1417015
3 2619.38 1403444
3 2619.38 1398135
3 2619.38 1397593
3 2619.38 1396006
3 2619.89 1395009
3 2619.89 1391842
3 2619.89 1391320
3 2620.37 1390047
3 2620.37 1385983
3 2620.85 1383680
3 2620.85 1383611
3 2620.85 1382696
3 2621.35 1382626
3 2621.35 1382360
3 2621.35 1379789
3 2622.2 1377649
3 2622.63 1374102
3 2622.63 1372615
3 2623.46 1368773
3 2623.46 1362816
3 2623.46 1361334
3 2623.46 1357378
3 2624.09 1357332
3 2624.09 1356206
3 2626.81 1355928
3 2632.46 1450196
3 2632.46 1448469
3 2632.46 1429241
3 2632.46 1428355
3 2632.46 1420637
3 2632.46 1417314
3 2632.46 1415077
3 2632.46 1411494
3 2633.33 1396510
3 2633.33 1394459
3 2633.33 1391510
3 2633.33 1388765
3 2633.33 1383903
3 2634.15 1383343
3 2634.15 1380483
3 2634.15 1373986
3 2634.87 1371418
3 2634.87 1369781
3 2634.87 1369292
3 2635.65 1368887
3 2635.65 1360194
3 2635.65 1357593
3 2635.65 1356530
3 2636.33 1356064
3 2636.73 1353951
3 2636.73 1352000
3 2637.59 1351321
3 2637.59 1350463
3 2638.04 1347891
3 2638.04 1347729
3 2638.04 1344628
3 2638.89 1343229
3 2639.35 1342970
3 2646.11 1436147
3 2646.11 1435109
3 2646.11 1421163
3 2646.11 1412869
3 2646.11 1411929
3 2646.11 1410064
3 2646.79 1403628
3 2646.79 1402850
3 2646.79 1401904
3 2647.37 1397840
3 2647.37 1397741
3 2647.37 1396957
3 2647.37 1396077
3 2648.07 1382611
3 2648.07 1380927
3 2648.07 1376436
3 2648.07 1373850
3 2648.69 1372888
3 2648.69 1371703
3 2648.69 1370218
3 2648.69 1369377
3 2648.69 1366114
3 2649.4 1366044
3 2650.8 1364172
3 2652.22 1362180
3 2652.85 1361502
3 2652.85 1360312
3 2652.85 1359471
3 2653.49 1359470
3 2660.38 1402201
3 2660.38 1398669
3 2660.38 1397175
3 2660.38 1396674
3 2660.38 1396334
3 2660.38 1391422
3 2660.38 1386216
3 2660.38 1375296
3 2661.15 1371314
3 2661.15 1370245
3 2661.15 1369349
3 2661.15 1369221
3 2661.95 1367683
3 2661.95 1364916
3 2662.71 1364623
3 2662.71 1363577
3 2664.14 1354128
3 2665.43 1352704
3 2665.43 1352522
3 2665.43 1350374
3 2665.43 1350197
3 2665.89 1349356
3 2665.89 1348895
3 2671.84 1348579
3 2671.84 1348187
3 2674.16 1406402
3 2674.16 1406095
3 2674.16 1403637
3 2674.16 1397401
3 2674.9 1395347
3 2674.9 1391438
3 2674.9 1389132
3 2674.9 1388891
3 2674.9 1384400
3 2675.39 1383362
3 2675.39 1379406
3 2677.44 1369901
3 2677.44 1363618
3 2683.51 1358315
3 2683.51 1357369
3 2683.99 1357299
3 2683.99 1356410
3 2683.99 1355954
3 2684.44 1355458
3 2688.31 1473120
3 2688.31 1440386
3 2688.31 1429281
3 2688.31 1426110
3 2688.31 1423972
3 2688.31 1421432
3 2688.86 1420386
3 2688.86 1419916
3 2688.86 1413701
3 2689.64 1412415
3 2689.64 1410243
3 2689.64 1406980
3 2690.43 1404891
3 2690.43 1404528
3 2690.89 1403870
3 2690.89 1398769
3 2690.89 1397723
3 2690.89 1396034
3 2690.89 1393472
3 2691.44 1392631
3 2691.9 1383418
3 2691.9 1381229
3 2692.37 1380303
3 2693.52 1379462
3 2696.45 1377575
3 2696.45 1376295
3 2699.33 1371148
3 2699.33 1368765
3 2700.38 1366376
3 2700.81 1365535
3 2701.66 1363862
3 2701.66 1361370
1 2702.1 1514281
3 2702.1 1505801
3 2702.1 1473140
3 2702.1 1453469
3 2702.1 1452628
3 2702.1 1449001
3 2702.6 1437572
3 2702.6 1423447
3 2702.6 1419383
3 2702.6 1411665
3 2702.6 1404867
3 2702.6 1400046
3 2702.6 1398621
3 2702.6 1395462
3 2702.6 1390853
3 2703.14 1390343
3 2704.05 1389737
3 2704.05 1389076
3 2704.05 1388473
3 2704.85 1387483
3 2704.85 1387080
3 2706.32 1386932
3 2706.32 1386617
3 2706.32 1386543
3 2706.32 1385611
3 2707.04 1383706
3 2707.04 1383674
3 2707.48 1383433
3 2707.48 1379430
3 2707.48 1379191
3 2707.95 1371506
3 2707.95 1368918
3 2708.84 1368077
3 2716.09 1426818
3 2716.09 1420671
3 2716.09 1406570
3 2716.09 1401491
3 2716.09 1398947
3 2716.09 1397111
3 2716.6 1393744
3 2716.6 1388777
3 2716.6 1387959
3 2716.6 1385391
3 2716.6 1383567
3 2717.09 1379541
3 2717.09 1378417
3 2717.09 1377371
3 2717.55 1375431
3 2717.55 1373788
3 2717.55 1373580
3 2718.01 1371220
3 2718.01 1368704
3 2718.01 1368512
3 2718.46 1368348
3 2718.46 1367239
3 2718.46 1365274
3 2718.46 1364303
3 2718.93 1360311
3 2718.93 1358406
3 2719.46 1357615
3 2719.88 1357497
3 2720.33 1356524
3 2720.33 1353541
3 2730.33 1443632
3 2730.33 1419474
3 2730.33 1418740
3 2730.33 1404895
3 2730.33 1392287
3 2730.33 1389904
3 2730.88 1389834
3 2730.88 1389498
3 2730.88 1388491
3 2730.88 1379276
3 2731.35 1378537
3 2731.35 1370466
1 2731.35 1365310
3 2731.79 1364801
3 2731.79 1360803
3 2731.79 1360060
3 2732.27 1355569
3 2732.27 1354555
3 2732.27 1352616
3 2732.27 1348714
3 2732.27 1346467
3 2732.27 1346014
3 2733.11 1344562
3 2733.11 1344330
3 2733.11 1343045
3 2733.91 1342284
3 2733.91 1342110
3 2734.63 1340524
3 2734.63 1340460
3 2736.03 1340291
3 2736.03 1340221
3 2744.67 1447627
3 2744.67 1444000
3 2744.67 1439936
3 2744.67 1436081
3 2744.67 1431916
3 2744.67 1420245
3 2744.67 1418944
3 2744.67 1416591
3 2744.67 1413332
3 2744.67 1412294
3 2745.61 1410388
3 2745.61 1404473
1 2745.61 1402684
3 2745.61 1398193
3 2745.61 1393295
3 2745.61 1391606
3 2745.61 1384417
3 2745.61 1384158
3 2746.51 1383305
3 2746.51 1380889
3 2746.51 1380305
3 2746.51 1380048
3 2746.51 1365868
3 2747.32 1364881
3 2747.32 1363992
3 2747.99 1363340
3 2753.14 1362952
3 2753.14 1362763
3 2753.14 1359160
3 2755.94 1358741
3 2758.47 1459053
3 2758.47 1456360
3 2758.47 1447135
3 2758.47 1442638
3 2758.47 1434920
3 2759.27 1429522
3 2759.27 1429448
3 2759.27 1425897
3 2759.27 1424957
3 2759.27 1424859
3 2759.27 1424349
3 2760.12 1422746
3 2760.12 1420577
3 2760.12 1417166
3 2760.12 1416383
3 2760.12 1409787
3 2760.12 1408474
3 2761 1392801
3 2761 1390477
3 2761 1390421
3 2761 1383110
3 2761 1381144
3 2761 1379008
3 2761.84 1374916
3 2761.84 1372843
3 2762.6 1372014
3 2762.6 1370761
3 2762.6 1369715
3 2764.1 1368589
3 2765.55 1364699
3 2765.55 1364161
3 2766.27 1362794
3 2767.14 1361381
3 2767.14 1359002
3 2772.35 1468828
3 2772.35 1468553
3 2772.35 1466381
3 2772.35 1450502
3 2772.35 1448983
3 2772.35 1447762
3 2772.35 1427509
3 2772.35 1422968
3 2772.35 1419705
3 2772.35 1417797
3 2772.35 1398546
3 2772.35 1398459
3 2772.35 1397103
3 2772.35 1394905
3 2772.99 1394709
3 2772.99 1394246
3 2772.99 1385552
3 2773.45 1382930
3 2773.45 1382511
3 2773.45 1381792
3 2773.45 1381334
3 2773.45 1377087
3 2773.45 1371291
3 2773.99 1369763
3 2773.99 1369240
3 2773.99 1365977
3 2774.43 1365136
3 2775.69 1364661
3 2775.69 1362049
3 2775.69 1357884
3 2776.14 1357879
3 2776.14 1356099
3 2776.14 1354194
3 2776.74 1353649
3 2778.16 1349519
3 2780.99 1348456
3 2783.26 1347844
3 2783.26 1346521
3 2786.62 1507256
3 2786.62 1492269
3 2786.62 1480168
3 2786.62 1454573
3 2786.62 1443460
3 2786.62 1442735
3 2786.62 1442132
3 2786.62 1432757
3 2786.62 1430201
3 2786.62 1429588
3 2787.52 1425368
3 2787.52 1423103
3 2787.52 1420535
3 2787.52 1418736
3 2787.52 1401348
3 2787.52 1398630
3 2787.52 1396263
3 2788.34 1395992
3 2788.34 1387406
3 2788.34 1372317
3 2789.11 1368731
3 2789.11 1368312
3 2789.86 1365693
3 2789.86 1364655
3 2789.86 1363743
3 2790.74 1363429
3 2791.57 1361205
3 2791.57 1360610
3 2792.37 1357394
3 2793.88 1357184
3 2795.26 1356729
3 2795.26 1352209
3 2795.26 1352139
3 2795.26 1350515
3 2795.26 1350300
3 2796.28 1349287
query_times: 238
Score = 1349097
