    Blocking waiting for file lock on package cache
    Blocking waiting for file lock on package cache
    Blocking waiting for file lock on package cache
    Blocking waiting for file lock on package cache
    Finished `release` profile [optimized] target(s) in 0.06s
     Running `target/release/tester ../a.out 0036`
3 0.019 1512012
3 0.019 1507374
3 0.019 1498131
3 0.019 1497035
3 0.019 1495881
3 0.019 1491201
3 0.019 1474433
3 0.019 1464107
3 0.704 1463798
3 0.704 1456239
3 0.704 1452275
3 1.208 1452062
3 1.208 1444901
3 1.208 1438911
3 1.208 1436883
3 1.208 1435324
3 1.771 1434719
3 1.771 1433983
3 2.248 1431161
3 2.248 1426524
3 4.874 1425321
3 5.332 1421811
3 8.125 1419542
3 8.775 1419162
3 12.432 1418252
3 12.432 1417210
3 12.432 1415886
3 12.432 1412450
3 12.432 1412393
3 13.022 1411648
3 13.022 1411035
3 13.526 1410418
3 13.526 1409489
3 13.526 1408999
3 14.057 1562077
3 14.057 1556839
3 14.057 1545642
3 14.057 1528096
3 14.057 1526095
3 14.057 1519342
3 14.057 1516835
3 14.057 1515491
3 14.057 1509231
3 14.801 1507989
3 14.801 1505604
3 14.801 1500165
3 14.801 1498763
3 14.801 1494175
3 14.801 1490697
3 14.801 1465964
3 15.512 1461862
3 15.512 1459868
3 15.512 1451516
3 15.512 1447967
3 15.512 1444496
3 15.512 1436185
3 15.512 1433911
3 16.187 1431897
3 16.187 1427975
3 16.187 1427666
3 17.702 1426939
3 19.178 1425018
3 21.089 1422997
3 21.089 1420325
3 21.65 1419410
3 22.156 1418864
3 22.156 1415900
3 22.156 1413543
3 22.156 1411618
3 22.753 1411370
3 22.753 1411263
3 23.286 1409204
3 24.728 1408614
3 24.728 1407989
3 26.208 1404678
3 26.735 1404512
3 28.233 1579371
3 28.233 1539178
3 28.233 1538899
3 28.233 1538498
3 28.233 1534493
3 28.233 1527374
3 28.233 1522136
3 28.233 1515203
3 28.233 1512161
3 29.004 1506581
3 29.004 1498131
3 29.004 1490576
3 29.588 1481333
3 29.588 1467655
3 29.588 1451658
3 30.359 1449424
3 30.359 1436739
3 31.699 1434676
3 32.248 1433407
3 32.248 1432006
3 32.248 1426622
3 32.248 1422738
3 32.865 1418633
3 32.865 1417596
3 33.412 1412289
3 33.412 1410514
3 33.412 1409787
3 33.412 1407808
3 34.005 1404297
3 34.005 1402807
3 35.066 1401244
3 36.09 1400498
3 38.656 1398823
3 38.656 1395419
3 42.135 1501297
3 42.135 1493368
3 42.135 1491979
3 42.135 1481657
3 42.135 1476379
3 42.135 1475057
3 42.85 1470894
3 42.85 1464820
3 42.85 1460140
3 42.85 1453637
3 42.85 1451438
3 43.508 1448771
3 43.508 1444730
3 43.508 1443708
3 43.508 1442981
3 43.508 1438991
3 44.17 1435895
3 44.17 1429520
3 44.17 1429234
3 44.756 1426064
3 45.313 1423707
3 45.313 1421300
3 45.313 1420844
3 45.896 1413331
3 54.401 1409919
3 54.942 1407612
3 54.942 1401806
3 56.015 1539495
3 56.015 1530886
3 56.015 1522465
3 56.015 1518173
3 56.015 1511891
3 56.015 1508023
3 56.741 1495268
3 56.741 1478148
3 56.741 1461689
3 56.741 1457987
3 56.741 1449099
3 57.44 1441486
3 57.44 1440788
3 57.44 1440496
3 58.094 1440362
3 58.094 1440167
3 58.676 1436580
3 58.676 1435053
3 58.676 1431333
3 61.904 1430157
3 61.904 1426254
3 62.488 1425749
3 62.488 1417851
3 62.488 1416167
3 63.646 1414129
3 63.646 1413891
3 63.646 1411293
3 64.253 1410307
3 64.807 1408855
3 64.807 1406568
3 64.807 1404803
3 70.134 1656500
3 70.134 1654143
3 70.134 1612606
3 70.134 1609472
3 70.134 1605810
3 70.134 1581220
3 70.134 1558889
3 70.134 1541202
3 70.134 1537001
3 70.134 1534083
3 70.134 1531930
3 71.014 1487528
3 71.014 1465880
3 71.014 1462343
3 71.014 1458699
3 71.014 1450493
3 71.682 1445275
3 71.682 1441370
3 71.682 1432127
3 72.282 1431380
3 72.282 1427421
3 72.282 1426122
3 72.88 1423423
3 72.88 1421629
3 72.88 1418961
3 75.007 1417346
3 75.007 1415965
3 75.603 1415618
3 75.603 1412583
3 75.603 1406593
3 76.205 1404369
3 76.787 1404187
3 81.471 1400917
3 81.471 1399328
3 82.35 1398069
3 82.35 1397962
3 82.35 1397476
3 82.35 1392197
3 83.228 1391948
3 83.228 1388172
3 83.228 1386633
3 84.073 1529607
3 84.073 1505574
3 84.073 1502435
3 84.073 1463988
3 84.073 1462168
3 84.073 1453323
3 85.045 1447164
3 85.804 1438579
3 85.804 1427190
3 85.804 1424473
3 85.804 1416788
3 86.659 1413468
3 88.197 1412882
3 88.197 1409305
3 89.003 1404902
3 90.64 1404571
3 96.205 1403268
3 97.184 1400208
3 98.251 1545054
3 98.251 1530811
3 98.251 1504861
3 98.251 1495279
3 98.251 1480893
3 98.251 1472284
3 98.251 1460474
3 98.251 1455925
3 98.251 1451231
3 98.251 1450147
3 98.251 1449766
3 98.251 1448495
3 98.251 1447956
3 98.251 1447740
3 99.073 1443577
3 99.604 1441564
3 99.604 1437634
3 100.166 1435938
3 100.166 1428391
3 100.166 1421230
3 100.776 1415836
3 100.776 1415081
3 101.371 1410046
3 101.892 1408758
3 101.892 1404079
3 112.475 1498682
3 112.475 1494632
3 112.475 1485632
3 112.475 1481153
3 112.475 1473240
3 112.475 1467856
3 112.475 1464204
3 112.475 1462078
3 112.475 1448869
3 113.233 1446259
3 113.233 1440911
3 113.233 1437388
3 113.233 1434297
3 113.233 1434190
3 113.233 1428841
3 113.233 1414329
3 113.907 1412394
3 113.907 1410979
3 115.416 1409600
3 116.025 1406376
3 117.031 1405983
3 119.534 1404112
3 119.534 1399891
3 119.534 1395802
3 119.534 1394890
3 120.155 1393143
3 120.712 1392922
3 121.746 1392705
3 122.751 1390045
3 123.27 1386771
3 123.27 1384580
3 124.166 1383692
3 124.166 1383453
3 124.166 1382836
3 126.528 1604734
3 126.528 1565097
3 126.528 1510392
3 126.528 1495020
3 126.528 1491373
3 126.528 1488888
3 126.528 1481958
3 126.528 1481874
3 127.612 1472631
3 127.612 1471565
3 127.612 1468922
3 128.541 1466664
3 128.541 1458178
3 128.541 1454721
3 129.42 1447642
3 129.42 1440598
3 129.42 1434936
3 129.42 1427706
3 129.42 1422483
3 129.42 1418320
3 129.42 1415952
3 131.169 1415431
3 131.169 1415288
3 131.984 1413115
3 131.984 1409505
3 131.984 1406077
3 131.984 1405918
3 132.87 1404311
3 132.87 1402502
3 132.87 1400274
3 132.87 1398703
3 132.87 1397522
3 133.756 1394008
3 134.511 1391601
3 134.511 1391279
3 134.511 1388598
3 135.331 1387311
3 135.331 1386801
3 135.331 1386507
3 136.161 1386100
3 136.161 1385819
3 137.72 1385270
3 137.72 1384864
3 137.72 1384632
3 140.029 1537149
3 140.029 1531627
3 140.029 1522384
3 140.029 1516433
3 140.029 1505683
3 140.029 1503162
3 140.029 1491512
3 140.029 1474480
3 140.029 1465184
3 141.154 1463422
3 141.154 1461376
3 141.154 1459025
3 141.154 1458779
3 142.112 1457588
3 142.112 1455402
3 142.99 1452995
3 142.99 1452621
3 143.833 1449812
3 143.833 1449784
3 143.833 1447916
3 143.833 1444549
3 143.833 1442806
3 143.833 1437099
3 143.833 1434320
3 143.833 1430465
3 144.84 1428362
3 144.84 1419347
3 145.668 1419298
3 145.668 1415748
3 145.668 1412854
3 147.267 1407700
3 147.267 1407593
3 147.267 1407284
3 154.044 1510899
3 154.044 1502588
3 154.044 1492777
3 154.044 1488416
3 154.044 1482090
3 154.044 1475685
3 154.044 1471057
3 154.044 1468130
3 154.044 1463489
3 154.044 1450721
3 154.044 1447201
3 155.19 1444731
3 155.91 1443034
3 155.91 1442919
3 155.91 1441075
3 155.91 1438723
3 155.91 1434852
3 156.929 1432275
3 156.929 1427693
3 157.603 1425609
3 159.87 1424016
3 160.599 1423471
3 160.599 1419405
3 162.696 1415340
3 162.696 1409666
3 162.696 1409559
3 163.519 1407785
3 164.182 1407594
3 164.182 1405917
3 164.182 1404945
3 164.182 1404636
3 165.047 1404591
3 165.662 1404177
3 166.243 1401947
3 166.243 1397784
3 168.384 1546172
3 168.384 1533523
3 168.384 1523870
3 168.384 1521777
3 168.384 1510847
3 168.384 1508958
3 168.384 1506176
3 168.384 1499286
3 169.323 1492992
3 169.323 1491434
3 169.323 1480881
3 169.323 1465269
3 170.065 1456783
3 170.065 1452421
3 170.065 1441411
3 170.778 1440409
3 171.483 1435852
3 171.483 1431667
3 171.483 1431533
3 171.483 1430678
3 172.27 1429722
3 172.27 1429082
3 172.27 1428080
3 173.026 1425299
3 173.026 1424901
3 173.026 1424723
3 173.707 1421841
3 173.707 1418967
3 173.707 1416933
3 174.39 1416664
3 174.39 1413653
3 178.043 1413475
3 178.043 1410956
3 178.826 1408152
3 180.297 1407679
1 182.032 1665241
3 182.032 1664932
3 182.032 1656621
3 182.032 1615920
3 182.032 1587420
3 182.032 1586490
3 182.032 1556098
3 182.032 1538450
3 182.032 1527520
3 183.046 1512709
3 183.046 1509122
3 183.046 1505364
3 183.046 1503132
3 183.046 1500176
3 183.863 1499293
3 183.863 1479920
3 184.707 1477446
3 184.707 1474058
3 184.707 1460051
3 185.513 1449581
3 185.513 1445523
3 187.584 1443667
3 187.584 1440886
3 187.584 1436413
3 188.283 1435178
3 188.283 1433764
3 188.283 1418085
3 189.1 1417571
3 189.1 1412894
3 189.1 1411873
3 189.755 1411357
3 192.42 1411073
3 192.42 1409867
3 196.028 1540787
3 196.028 1531543
3 196.028 1514811
3 196.028 1490861
3 196.028 1482550
3 196.028 1467753
3 196.028 1450548
3 196.028 1444655
3 196.028 1441884
3 197.071 1428122
3 197.83 1426891
3 198.626 1425749
3 198.626 1425355
3 198.626 1418503
3 198.626 1418184
3 199.555 1417880
3 201.114 1415390
3 201.114 1414219
3 201.951 1412102
3 201.951 1411751
3 202.796 1410830
3 202.796 1408992
3 202.796 1408939
3 202.796 1408738
3 202.796 1406299
3 204.499 1404133
3 204.499 1402577
3 204.499 1393196
3 210.628 1515879
3 210.628 1514707
3 210.628 1510659
3 210.628 1501923
3 210.628 1494295
1 210.628 1489660
3 210.628 1480417
3 210.628 1477093
3 210.628 1470910
3 211.764 1448729
3 211.764 1448150
3 212.616 1446383
3 212.616 1446090
3 213.461 1443655
3 214.27 1442439
3 215.104 1441900
3 215.892 1441565
3 215.892 1439574
3 216.807 1437622
3 216.807 1435929
3 216.807 1434363
3 216.807 1427433
3 217.77 1427318
1 218.574 1423010
3 218.574 1421478
3 218.574 1418106
3 218.574 1413943
3 219.471 1413836
3 219.471 1412710
3 219.471 1410589
3 221.109 1408637
3 224.145 1484204
3 224.145 1482714
3 224.145 1462293
3 224.145 1447415
3 224.145 1438301
3 224.828 1428440
3 236.607 1425916
3 236.607 1418057
3 237.182 1417730
3 238.242 1510209
3 238.242 1499259
3 238.242 1493842
3 238.242 1493115
3 238.242 1480968
3 238.242 1463781
3 238.242 1462532
3 238.242 1455297
3 238.981 1440398
3 239.503 1434239
3 239.503 1433109
3 239.503 1431286
3 240.094 1431138
3 240.094 1430619
3 240.094 1429941
3 240.094 1428103
3 240.094 1424533
3 240.727 1423509
3 240.727 1422625
3 240.727 1415390
3 241.312 1413625
3 243.792 1410125
3 252.104 1591900
3 252.104 1586527
3 252.104 1565076
3 252.104 1564760
3 252.104 1551222
3 252.104 1530638
3 252.845 1526633
3 252.845 1516063
3 252.845 1514841
3 252.845 1508838
3 252.845 1488477
3 252.845 1485739
3 252.845 1476227
3 252.845 1473296
3 253.732 1471262
3 253.732 1470405
3 254.375 1468233
3 254.375 1465822
3 254.375 1464597
3 254.375 1460571
3 255.04 1457971
3 255.04 1449943
3 255.04 1444153
3 255.698 1437263
3 255.698 1436005
3 255.698 1434590
3 256.462 1434143
3 256.462 1424314
3 256.462 1424002
3 256.462 1422512
3 256.462 1419143
3 257.203 1416494
3 257.203 1410645
3 257.817 1408183
3 257.817 1406876
3 257.817 1405676
3 257.817 1404867
3 259.456 1404169
3 259.456 1404014
3 260.013 1401622
3 260.013 1397717
3 260.013 1395858
3 260.013 1394978
3 260.627 1394338
3 266.129 1495246
3 266.129 1487644
3 266.129 1481182
3 266.129 1463962
3 266.129 1456018
3 266.129 1452096
3 266.129 1433382
3 266.871 1426759
3 266.871 1422881
3 266.871 1420435
3 266.871 1415680
3 271.202 1412579
3 271.202 1411940
3 271.202 1408962
3 271.202 1407194
3 271.841 1404338
3 272.847 1404296
3 274.368 1402964
3 274.894 1402857
3 275.409 1402697
3 279.467 1401437
3 279.467 1401330
3 280.049 1571034
3 280.049 1565174
3 280.049 1521226
3 280.049 1502790
3 280.049 1486793
3 280.768 1466927
3 280.768 1463689
3 280.768 1463195
3 280.768 1455721
3 280.768 1439808
3 280.768 1437418
3 280.768 1434371
3 281.483 1426555
3 281.483 1424926
3 281.483 1424199
3 281.483 1421478
3 281.483 1420721
3 281.483 1419962
3 281.483 1419509
3 283.284 1418125
3 283.822 1415922
3 283.822 1414818
3 284.479 1414450
3 284.479 1409040
3 285.186 1408025
3 285.186 1406633
3 286.27 1405843
3 286.804 1405736
3 286.804 1404438
3 294.464 1508770
3 294.464 1504050
3 294.464 1503799
3 294.464 1502150
3 294.464 1498498
3 294.464 1498272
3 294.464 1494369
3 294.464 1463590
3 295.252 1458942
3 295.252 1456443
3 295.252 1451265
3 295.252 1447102
3 295.914 1441369
3 295.914 1438526
3 295.914 1438473
3 296.564 1437195
3 296.564 1429139
3 298.76 1426365
3 298.76 1421553
3 298.76 1417769
3 298.76 1416356
3 299.936 1413043
3 300.468 1413001
3 301.041 1411511
3 301.041 1408707
3 301.041 1407663
3 302.191 1407372
1 302.191 1406688
3 302.191 1406129
3 303.807 1403449
3 303.807 1401597
3 303.807 1401457
3 304.932 1401150
3 308.053 1517451
3 308.053 1507899
3 308.053 1499588
3 308.053 1496385
3 308.053 1490047
3 308.053 1488850
3 308.053 1472546
3 308.053 1468135
3 308.82 1462820
3 308.82 1450616
3 308.82 1447418
3 308.82 1446067
3 308.82 1444808
3 309.476 1436062
3 310.01 1427266
3 310.01 1426800
3 310.583 1422068
3 311.143 1421044
3 311.143 1416394
3 311.143 1411726
3 312.221 1410217
3 312.221 1408606
3 312.809 1404226
3 312.809 1397683
3 312.809 1396009
3 312.809 1392163
3 313.422 1388496
3 313.422 1388189
3 314 1387330
3 314 1386423
3 315.037 1386375
3 315.037 1385696
3 320.959 1384909
3 322.459 1524335
3 322.459 1518056
3 322.459 1498078
3 322.459 1486952
3 322.459 1479706
3 322.459 1470670
3 322.459 1462730
3 323.17 1462186
3 323.17 1461240
3 323.17 1455264
3 323.17 1449765
3 323.786 1442941
3 323.786 1440637
3 324.337 1439135
3 324.337 1435399
3 324.337 1426422
3 324.337 1425587
3 324.337 1423873
3 324.975 1422728
3 324.975 1421767
3 327.069 1418940
3 327.069 1415295
3 328.26 1413162
3 328.26 1411158
3 328.823 1410934
3 328.823 1408787
3 329.365 1403545
3 329.869 1403163
3 330.374 1402940
3 336.198 1526661
3 336.198 1520345
3 336.198 1479873
3 336.198 1478117
3 336.198 1468676
3 336.198 1456072
3 336.198 1452094
3 336.198 1449080
3 336.928 1446823
3 336.928 1439264
3 336.928 1435348
3 336.928 1434101
3 337.52 1433705
3 337.52 1428144
3 337.52 1421298
3 337.52 1420156
3 337.52 1417372
3 337.52 1417319
3 339.141 1411182
3 339.141 1410913
3 339.669 1409575
3 339.669 1409367
3 343.557 1409259
3 344.068 1407928
3 350.348 1558292
3 350.348 1547095
3 350.348 1511585
3 350.348 1482056
3 350.348 1477929
3 350.348 1459564
3 350.348 1434516
3 350.348 1434002
3 351.069 1433566
3 351.069 1430242
3 351.069 1425634
3 351.069 1418889
3 351.668 1410403
3 351.668 1406773
3 351.668 1403685
3 353.156 1401705
3 354.615 1398150
3 358.498 1397489
3 358.498 1396902
3 359.029 1395892
3 359.528 1395754
3 359.528 1394563
3 364.392 1635224
3 364.392 1619909
3 364.392 1607542
3 364.392 1604023
3 364.392 1599069
3 364.392 1595414
3 364.392 1579417
3 364.392 1571106
3 364.392 1569660
3 364.392 1539268
3 364.392 1485895
3 365.18 1482980
3 365.18 1470062
3 365.18 1467578
3 365.76 1461674
3 366.284 1461174
3 366.284 1441544
3 366.284 1435554
3 366.861 1435542
3 366.861 1429514
3 366.861 1423053
3 366.861 1419131
3 366.861 1418533
3 367.507 1417626
3 367.507 1416300
3 368.068 1415426
3 368.068 1414427
3 368.608 1414324
3 369.118 1414139
3 369.118 1410522
3 370.149 1407688
3 370.667 1405331
3 378.424 1537393
3 378.424 1509673
3 378.424 1486927
3 378.424 1486371
3 378.424 1481149
3 378.424 1472795
3 378.424 1466594
3 378.424 1466155
3 379.149 1457847
3 379.149 1449361
3 379.149 1443006
3 379.149 1442279
3 379.149 1435691
3 379.787 1434602
3 379.787 1425458
3 379.787 1423080
3 380.372 1419061
3 380.372 1414768
3 380.372 1413895
3 381.966 1411043
3 381.966 1405805
3 382.504 1403899
3 382.504 1402780
3 382.504 1401847
3 382.504 1401476
3 383.097 1399775
3 383.097 1399069
3 383.646 1398962
3 384.158 1396622
3 384.158 1394325
3 386.136 1393839
3 389.089 1392688
3 389.089 1391601
3 389.905 1391494
3 389.905 1391199
3 389.905 1384671
3 390.567 1384086
3 391.1 1383927
3 391.1 1382646
3 391.656 1378022
3 391.656 1377027
3 392.225 1451792
3 392.225 1448250
3 392.225 1444502
3 392.225 1440115
3 392.225 1432217
3 392.895 1428095
3 392.895 1426795
3 392.895 1426024
3 392.895 1424186
3 393.499 1423770
3 393.499 1421801
3 393.499 1404991
3 393.499 1404884
3 393.499 1401118
3 394.126 1400086
3 394.126 1396176
3 394.664 1394308
3 394.664 1393814
3 398.076 1392719
3 398.585 1391964
3 398.585 1390820
3 406.652 1537480
3 406.652 1511853
3 406.652 1505787
3 406.652 1492164
3 406.652 1472684
3 406.652 1458663
3 406.652 1453786
3 406.652 1448533
3 406.652 1434020
3 406.652 1433390
3 406.652 1433210
3 407.774 1430374
3 407.774 1427972
3 408.579 1426884
3 409.328 1425768
3 409.328 1424016
3 409.328 1423933
3 409.328 1421460
3 409.328 1420282
3 410.284 1418050
3 411.113 1416250
3 411.113 1415172
3 411.965 1414731
3 411.965 1412917
3 412.786 1411190
3 413.578 1407679
3 420.148 1599460
3 420.148 1548520
3 420.148 1529457
3 420.148 1509423
3 420.148 1509316
3 420.148 1493944
3 420.148 1477947
3 420.148 1469461
3 420.148 1464023
3 420.148 1458574
3 421.208 1454780
3 421.948 1443585
3 421.948 1439311
3 423.029 1431000
3 423.029 1425969
3 423.029 1424522
3 424.549 1422780
3 425.068 1422184
3 426.116 1422066
3 434.475 1531281
3 434.475 1513628
3 434.475 1492632
3 434.475 1479492
3 434.475 1472633
3 434.475 1468545
3 434.475 1463908
3 434.475 1455121
3 434.475 1454145
3 434.475 1447215
3 435.297 1446438
3 435.297 1435579
3 435.297 1431722
3 435.297 1425443
3 435.96 1425071
3 435.96 1424261
3 436.523 1423376
3 436.523 1421342
3 436.523 1418064
3 436.523 1412074
3 436.523 1407501
3 437.172 1401854
3 437.172 1399015
3 437.172 1398497
3 437.172 1396582
3 437.862 1394338
3 437.862 1394089
3 438.419 1392015
3 439.472 1389981
3 440.524 1383637
3 441.07 1382186
3 444.667 1381459
3 448.171 1525739
3 448.171 1522326
3 448.171 1509586
3 448.171 1484853
3 448.171 1462531
3 448.171 1458034
3 448.171 1457293
3 448.171 1456850
3 448.171 1453577
1 448.953 1449362
3 448.953 1446612
3 448.953 1444774
3 449.56 1435113
3 449.56 1433446
3 449.56 1428515
3 449.56 1426629
3 450.154 1423846
3 450.154 1416690
3 450.154 1415217
3 450.154 1414659
3 450.154 1412821
3 450.154 1405694
3 450.894 1403368
3 450.894 1402059
3 451.715 1401584
3 451.715 1400857
3 452.472 1395782
3 452.472 1395632
3 453.261 1395603
3 453.261 1394814
3 453.99 1394087
3 453.99 1393980
3 457.834 1393868
3 459.479 1392353
3 460.042 1391405
3 461.076 1391120
3 462.175 1498429
3 462.175 1494507
3 462.175 1488737
3 462.175 1476241
3 462.175 1467632
3 462.175 1464152
3 462.872 1457080
3 462.872 1439119
3 462.872 1433080
3 463.515 1426008
3 466.912 1424716
3 466.912 1423344
3 467.836 1421694
3 468.623 1420925
3 468.623 1419138
3 468.623 1418865
3 469.47 1416095
3 471.016 1414378
3 471.78 1413651
3 473.274 1409582
3 473.274 1409367
3 474.851 1409259
3 475.675 1407634
3 476.45 1560541
3 476.45 1547826
3 476.45 1543222
3 476.45 1523094
3 476.45 1509339
3 476.45 1472110
3 476.45 1462931
3 476.45 1460524
3 476.45 1454620
3 477.503 1446255
3 477.503 1439686
3 478.311 1434758
3 478.311 1433269
3 478.311 1421172
3 478.311 1413307
3 478.311 1411334
3 479.179 1410658
3 479.179 1410440
3 480.032 1407328
3 480.858 1407043
3 480.858 1404916
3 481.702 1399728
3 481.702 1399046
3 490.303 1476368
3 490.303 1459636
3 491.11 1443910
3 491.11 1442650
3 491.11 1438203
3 491.927 1434041
3 491.927 1430902
3 491.927 1427315
3 491.927 1426588
3 492.774 1425098
3 492.774 1424245
3 492.774 1422057
3 492.774 1421880
3 493.641 1417015
3 494.453 1410730
3 494.453 1408777
3 495.268 1406618
3 496.006 1405114
3 496.006 1403328
3 496.795 1402601
3 498.231 1402074
3 498.938 1400683
3 498.938 1400576
3 499.726 1399536
3 500.501 1398882
3 502.625 1398501
3 503.336 1397615
3 503.336 1396544
3 504.122 1557162
3 504.122 1547580
3 504.122 1536608
3 504.122 1531112
3 504.122 1525206
3 504.122 1517562
3 504.122 1505177
3 504.122 1501129
3 504.122 1500407
3 504.122 1499680
3 505.192 1486252
3 505.192 1485198
3 505.192 1484882
3 505.192 1483490
3 506.047 1479385
3 506.047 1475179
3 506.825 1474425
3 506.825 1472438
3 506.825 1471354
3 507.674 1470817
3 507.674 1469997
3 507.674 1469270
3 507.674 1469130
3 507.674 1467793
3 508.603 1466043
3 508.603 1462798
3 508.603 1462121
3 509.454 1460283
3 509.454 1455612
3 510.257 1453122
3 518.204 1551671
3 518.204 1536772
3 518.204 1534298
3 518.204 1532808
3 518.204 1531220
3 518.204 1522909
3 518.204 1522325
3 519.15 1512743
3 519.15 1486122
3 519.944 1485097
3 519.944 1483654
3 519.944 1480980
3 519.944 1476959
3 519.944 1471721
3 520.808 1470884
3 521.574 1469394
3 521.574 1465731
3 521.574 1464522
3 521.574 1462954
1 521.574 1458150
3 521.574 1457958
3 525.396 1454371
3 525.396 1453514
3 525.396 1453014
3 525.396 1450819
3 525.396 1447736
3 526.298 1447009
3 526.298 1445817
3 527.112 1443361
3 530.734 1440074
3 532.323 1551547
3 532.323 1542511
3 532.323 1529980
3 532.323 1518160
3 532.323 1512236
3 532.323 1511431
3 532.323 1487481
3 532.323 1478827
3 532.323 1453643
3 532.323 1453410
3 532.323 1450911
3 532.323 1450184
3 533.425 1446262
3 533.425 1442675
3 533.425 1440591
3 533.425 1436516
3 533.425 1427224
3 533.425 1427117
3 533.425 1423705
3 534.337 1420807
3 534.337 1416492
3 534.337 1415407
3 534.337 1405406
3 535.147 1401132
3 535.86 1398483
3 538.792 1398471
3 540.88 1397376
3 540.88 1393225
3 540.88 1393162
3 544.378 1391924
3 544.378 1391735
3 545.111 1391628
3 545.111 1390624
3 545.85 1390431
3 545.85 1389981
3 546.607 1532731
3 546.607 1526741
3 546.607 1520963
3 546.607 1519192
3 546.607 1504293
3 547.496 1503096
3 547.496 1497885
3 547.496 1497340
3 547.496 1496647
3 547.496 1494809
3 547.496 1489854
3 547.496 1472525
3 547.496 1465040
3 547.496 1460403
3 548.536 1455185
3 549.301 1452928
3 549.301 1452407
3 549.301 1450420
3 549.301 1449341
3 549.301 1445023
3 550.973 1444672
3 550.973 1436711
3 551.787 1434247
3 552.546 1431484
3 553.319 1430691
3 553.319 1430058
3 554.089 1426607
3 554.089 1425710
3 554.089 1419468
3 554.929 1418456
3 554.929 1418199
3 556.398 1417517
3 556.398 1416165
3 560.036 1530620
3 560.036 1489083
3 560.036 1478892
3 560.836 1477370
3 560.836 1477195
3 560.836 1471397
3 560.836 1469783
3 560.836 1453786
3 561.706 1448076
3 561.706 1444972
3 561.706 1439014
3 561.706 1434149
3 561.706 1430530
3 562.598 1430470
3 562.598 1424745
3 562.598 1422907
3 562.598 1422221
3 562.598 1417584
3 562.598 1416857
3 563.487 1416541
3 563.487 1414773
3 565.08 1414238
3 565.836 1405894
3 565.836 1400088
3 565.836 1394717
3 565.836 1388291
3 566.674 1386338
3 567.439 1385448
3 570.226 1383729
3 573.139 1383088
3 573.139 1383002
3 573.9 1381632
3 574.631 1491536
3 574.631 1488774
3 574.631 1474955
3 574.631 1453504
3 574.631 1451097
3 574.631 1449485
3 574.631 1448856
3 574.631 1443707
3 574.631 1441390
3 575.635 1441381
3 575.635 1441178
3 576.398 1438137
3 576.398 1437015
3 577.199 1436753
3 577.199 1436725
3 578.033 1435998
3 578.826 1432025
3 579.611 1431209
3 579.611 1420012
3 580.441 1418105
3 581.965 1412517
3 585.531 1408307
3 585.531 1407617
3 585.531 1404385
1 588.464 1648159
3 588.464 1623111
3 588.464 1617873
3 588.464 1608837
3 588.464 1592630
3 588.464 1578587
3 588.464 1564802
3 588.464 1525165
3 588.464 1515037
1 588.464 1505240
3 589.515 1495997
3 589.515 1492673
3 589.515 1483354
3 589.515 1475057
3 589.515 1468565
3 590.393 1455276
3 590.393 1452723
3 590.393 1452076
3 591.214 1448249
3 592.038 1447130
3 592.038 1443049
3 596.534 1442658
3 596.534 1441144
3 597.297 1440181
3 600.961 1433512
3 600.961 1433149
3 601.751 1431659
3 602.48 1579846
3 602.48 1555113
3 602.48 1554350
3 602.48 1518557
3 602.48 1500284
1 602.48 1496373
3 602.48 1492196
3 602.48 1488990
3 602.48 1474184
3 602.48 1452274
3 602.48 1451706
3 602.48 1448934
3 603.601 1448750
3 603.601 1442952
3 603.601 1439507
3 603.601 1438525
3 604.452 1438138
3 605.21 1438017
3 605.994 1434507
3 605.994 1423869
3 605.994 1423558
3 605.994 1421462
3 606.92 1419897
3 606.92 1411224
3 607.721 1408342
3 607.721 1405446
3 609.257 1403714
3 610.707 1401606
3 611.455 1400751
3 611.455 1398838
3 616.428 1529921
3 616.428 1519595
3 616.428 1506570
3 616.428 1471042
3 616.428 1469204
3 616.428 1463966
3 616.428 1434553
3 616.428 1432886
3 616.428 1428809
3 616.428 1427138
3 617.484 1426064
3 617.484 1416934
3 617.484 1413704
3 617.484 1412246
3 619.026 1411795
3 619.026 1411707
3 619.804 1404152
3 620.627 1400040
3 621.406 1399687
3 621.406 1398332
3 621.406 1395925
3 621.406 1394946
3 622.25 1393069
3 622.25 1392181
3 622.25 1391866
3 624.438 1390764
3 624.438 1390028
3 628.681 1388592
3 629.399 1387865
3 629.399 1387728
3 629.399 1387621
3 630.258 1457959
3 630.258 1452200
3 630.258 1444306
3 630.258 1433610
3 630.258 1432120
3 630.258 1427487
3 631.197 1424959
3 631.971 1422259
3 632.695 1421497
3 632.695 1420202
3 634.204 1416699
3 635.001 1415130
3 635.751 1408249
3 636.514 1407253
3 636.514 1406973
3 638.022 1405689
3 638.022 1404692
3 638.022 1400181
3 644.657 1548226
3 644.657 1546189
3 644.657 1521456
3 644.657 1514167
3 644.657 1496481
3 645.551 1487951
3 645.551 1487739
3 645.551 1487496
3 645.551 1480335
3 645.551 1459069
3 645.551 1455476
3 645.551 1440002
3 645.551 1426871
3 646.571 1425928
3 646.571 1420690
3 646.571 1415643
3 648.15 1408667
3 648.914 1401792
3 649.686 1401506
3 658.054 1494839
3 658.054 1494112
3 658.054 1490878
3 658.054 1482029
3 658.054 1478467
3 658.054 1475182
3 658.054 1472775
3 658.054 1443595
3 659.031 1441889
3 659.031 1440538
3 659.031 1439482
3 660.574 1437335
3 660.574 1431701
3 661.361 1430259
3 661.361 1429610
3 662.197 1428831
3 663.64 1428595
3 663.64 1426266
3 664.431 1424577
3 664.431 1424532
3 665.858 1421589
3 665.858 1421127
3 666.63 1419465
3 666.63 1418860
3 666.63 1417022
3 667.441 1414615
3 667.441 1413092
3 667.441 1409505
3 669.338 1409290
3 669.919 1406971
3 669.919 1405319
3 669.919 1403242
3 670.493 1402364
3 670.493 1398533
3 670.493 1398158
3 670.493 1396803
3 670.493 1396023
3 670.493 1395688
3 671.133 1395483
3 671.133 1394177
3 671.666 1393609
3 671.666 1393095
3 672.193 1534851
3 672.193 1518119
3 672.193 1510547
3 672.193 1501658
3 672.193 1500787
3 672.853 1495549
3 672.853 1492913
3 672.853 1487019
3 672.853 1461971
3 672.853 1455024
3 672.853 1447210
3 672.853 1428296
3 673.535 1425918
3 673.535 1425221
3 673.535 1424645
3 673.535 1423163
3 674.135 1420504
3 674.135 1419196
3 674.135 1417309
3 674.726 1416582
3 674.726 1412660
3 675.253 1411039
3 675.253 1407884
3 675.819 1406253
3 676.419 1405451
3 677.819 1403869
3 680.782 1403778
3 680.782 1403417
3 682.914 1401688
3 683.42 1401487
3 686.201 1557923
3 686.201 1539539
3 686.201 1538336
3 686.201 1514338
3 686.201 1506743
3 686.201 1503156
3 686.201 1488257
3 686.201 1482299
3 686.201 1480226
3 687.329 1477280
3 687.329 1476304
3 687.329 1475970
3 687.329 1468635
3 689.695 1461711
3 689.695 1456655
3 689.695 1454285
3 689.695 1449450
3 691.293 1449136
3 691.293 1448409
3 691.998 1444212
3 692.57 1440561
3 693.105 1438434
3 693.68 1434960
3 694.203 1434084
3 694.203 1433231
3 694.203 1432027
3 694.784 1424161
3 695.302 1423404
3 695.302 1420574
3 700.496 1509777
3 700.496 1488119
3 700.496 1487160
3 700.496 1487028
3 700.496 1457848
3 701.275 1454392
3 701.275 1448233
3 701.275 1448165
3 701.275 1444290
3 702.001 1437516
3 702.001 1433791
3 702.001 1433105
3 702.001 1430207
3 702.673 1429062
3 702.673 1427558
3 703.695 1426864
3 705.743 1422717
3 705.743 1414547
3 706.297 1410069
3 707.327 1406942
3 707.327 1406004
3 707.327 1405907
3 707.327 1405625
3 707.959 1404417
3 708.461 1401650
3 708.461 1397487
3 713.232 1395618
3 714.204 1504566
3 714.204 1489667
3 714.204 1487149
3 714.204 1481181
3 714.204 1474119
3 714.204 1467189
3 714.204 1466392
3 714.913 1460867
3 714.913 1453511
3 714.913 1453404
3 716.095 1451159
3 716.095 1449043
3 716.095 1446452
3 716.694 1439051
3 716.694 1438120
3 716.694 1437106
3 720.711 1433335
3 720.711 1430687
3 720.711 1429655
3 721.371 1428845
3 721.371 1428477
3 721.371 1423962
3 721.371 1422405
3 722.011 1421181
3 722.011 1420848
3 722.011 1420741
3 723.965 1416462
3 723.965 1414858
3 723.965 1414751
3 727.303 1413745
3 727.303 1411614
3 728.327 1485648
3 728.327 1459225
3 728.327 1442541
3 728.327 1438900
3 728.934 1434368
3 728.934 1432658
3 729.47 1429071
3 729.47 1425081
3 729.47 1424312
3 729.47 1423047
3 730.14 1422146
3 730.14 1418884
3 730.819 1417337
3 730.819 1416615
3 731.705 1414759
3 731.705 1412686
3 731.705 1407204
3 733.494 1404820
3 733.494 1403330
3 734.091 1400989
3 734.851 1397313
3 734.851 1396983
3 736.131 1396410
3 742.254 1480185
3 742.254 1477811
3 742.254 1465286
3 742.254 1462640
3 742.254 1458477
3 742.254 1457169
3 742.254 1451391
3 742.254 1448020
3 742.254 1446479
3 742.254 1445892
3 742.254 1442295
3 743.068 1438850
3 743.068 1431236
3 743.068 1427604
3 743.068 1425310
3 743.671 1418149
3 743.671 1414011
3 743.671 1413451
3 744.278 1406050
3 744.278 1405323
3 744.278 1403388
3 744.844 1402412
3 745.352 1400612
3 745.856 1400331
3 745.856 1399333
3 749.641 1397229
3 752.391 1396581
3 752.964 1393033
3 756.334 1585899
3 756.334 1580661
3 756.334 1572724
3 756.334 1531187
3 756.334 1519090
3 756.334 1518393
3 756.334 1503276
3 756.334 1498560
3 756.334 1493730
3 756.334 1469885
3 756.334 1464552
3 757.165 1453470
3 757.165 1451164
3 757.165 1449646
3 757.165 1442091
3 757.868 1441489
3 757.868 1439631
3 757.868 1436138
3 758.604 1433985
3 758.604 1431426
3 758.604 1424901
3 759.285 1423988
3 759.285 1418312
3 759.285 1416039
3 759.923 1411311
3 759.923 1410609
3 759.923 1410559
3 760.695 1409401
3 760.695 1408239
3 760.695 1408132
3 761.9 1405775
3 762.727 1404727
3 764.91 1403495
3 770.48 1560363
3 770.48 1552054
3 770.48 1548042
3 770.48 1545635
3 770.48 1544145
3 770.48 1532160
3 770.48 1499467
3 770.48 1492537
3 771.524 1490937
3 771.524 1483309
3 771.524 1480286
3 772.378 1467312
3 772.378 1456583
3 772.378 1452865
3 772.378 1451351
3 772.378 1451244
3 773.283 1445735
3 773.283 1444282
3 773.283 1437801
3 774.154 1434214
3 774.154 1421501
3 775.002 1411359
3 775.002 1411013
3 775.002 1409498
3 776.567 1407700
3 776.567 1403264
3 776.567 1402097
3 777.413 1401943
3 784.139 1557332
3 784.139 1554842
1 784.139 1524575
3 784.139 1512184
3 784.139 1501673
3 784.139 1497731
3 784.139 1486611
3 784.139 1485194
3 784.139 1482859
3 784.139 1473634
3 784.139 1467475
3 784.139 1461124
3 784.139 1447181
3 785.073 1443594
3 785.073 1436039
3 785.661 1432679
3 785.661 1432197
3 785.661 1428516
3 786.596 1423591
3 787.127 1421583
3 787.644 1421102
3 788.203 1420152
3 788.203 1418695
3 788.749 1411306
3 789.272 1411140
3 790.279 1409995
3 790.279 1407552
3 790.279 1407002
3 790.279 1405518
3 790.863 1404219
3 791.381 1399528
3 792.37 1397800
3 792.37 1397787
3 793.382 1394461
3 794.364 1392867
3 794.364 1392516
3 794.364 1391377
3 795.428 1389823
3 795.937 1386307
3 795.937 1385525
3 795.937 1384297
3 797.003 1384035
3 797.511 1383388
3 798.062 1611048
3 798.062 1558440
3 798.062 1530683
3 798.062 1528557
3 798.062 1523319
3 798.062 1520829
3 798.062 1518866
3 798.764 1518349
3 798.764 1506132
3 798.764 1505636
3 798.764 1499073
3 798.764 1492267
3 798.764 1486713
3 798.764 1480897
3 798.764 1468017
3 799.496 1457087
3 799.496 1457026
3 799.496 1453481
3 799.496 1449971
3 799.496 1449087
3 799.496 1445334
3 799.496 1434646
3 800.119 1429962
3 800.655 1427968
3 800.655 1426375
3 801.874 1420562
3 803.047 1410762
3 803.047 1408112
3 803.047 1408002
3 804.224 1407275
3 804.224 1405380
3 804.767 1402858
3 805.296 1402185
3 805.296 1401458
3 805.869 1397871
3 805.869 1393174
3 806.413 1393018
3 806.413 1389623
3 806.413 1388245
3 806.413 1387198
3 806.413 1387091
3 806.413 1384688
3 812.451 1605885
3 812.451 1584308
3 812.451 1552512
3 812.451 1547074
3 812.451 1540795
3 812.451 1519344
3 812.451 1509939
3 813.207 1471867
3 813.207 1464312
3 813.766 1452627
3 813.766 1451613
3 813.766 1448474
3 813.766 1421993
3 814.377 1421265
3 814.377 1420643
3 814.926 1416416
3 814.926 1413164
3 814.926 1409577
3 815.539 1408644
3 815.539 1404384
3 816.084 1403680
3 816.597 1402012
3 816.597 1398809
3 818.139 1396538
3 818.139 1392472
3 818.139 1392280
3 819.039 1390634
3 820.591 1388714
3 820.591 1386855
3 823.556 1386237
3 826.505 1487521
3 826.505 1476324
3 826.505 1476091
3 826.505 1473012
3 826.505 1471977
3 826.505 1470274
3 826.505 1468892
3 826.505 1464971
3 826.505 1461143
3 827.597 1452697
3 827.597 1444966
3 827.597 1435645
3 827.597 1419535
3 827.597 1417638
3 828.556 1415095
3 828.556 1414153
3 828.556 1411858
3 828.556 1407691
3 829.434 1406060
3 831.021 1403971
3 831.021 1400384
3 831.021 1400359
3 831.021 1400191
3 832.683 1399633
3 832.683 1398498
3 840.254 1615344
3 840.254 1604147
3 840.254 1555191
3 840.254 1528819
3 840.254 1517119
3 840.254 1503051
3 840.254 1477661
3 840.254 1476132
3 840.254 1470142
3 840.254 1463897
3 841.323 1460268
3 841.323 1456731
3 841.323 1450837
3 841.323 1448205
3 842.187 1446859
3 842.925 1445369
3 842.925 1437535
3 842.925 1429282
3 842.925 1425438
3 842.925 1424254
3 842.925 1422970
3 843.824 1411460
3 843.824 1410649
3 844.61 1409255
3 844.61 1408857
3 844.61 1408499
3 844.61 1406191
3 845.487 1401678
3 845.487 1400188
3 854.518 1544727
3 854.518 1540171
3 854.518 1518720
3 854.518 1512530
3 854.518 1509305
3 854.518 1507874
3 854.518 1478070
3 854.518 1477482
3 854.518 1472121
3 854.518 1444249
3 855.529 1442215
3 855.529 1438628
3 855.529 1436788
3 856.308 1434073
3 856.308 1428295
3 856.308 1426447
3 856.308 1422564
3 857.137 1419945
3 857.137 1419614
3 857.137 1418124
3 857.137 1414339
3 857.947 1413675
3 857.947 1412909
3 857.947 1410875
3 858.791 1409330
3 858.791 1407461
3 858.791 1403149
3 859.637 1400569
3 859.637 1398264
3 861.742 1398201
3 861.742 1397653
3 862.479 1397466
3 862.479 1396926
3 863.233 1396083
3 863.233 1395976
3 865.904 1395893
3 867.296 1394768
3 867.993 1394078
3 868.678 1568534
3 868.678 1543486
1 868.678 1538284
3 868.678 1525684
3 868.678 1501384
3 868.678 1480386
3 868.678 1479224
3 869.511 1471855
3 869.511 1463461
3 869.511 1461875
3 869.511 1459874
3 870.338 1454945
3 870.338 1453524
3 871.113 1447054
3 871.113 1446100
3 871.113 1445908
3 871.113 1439918
3 871.935 1435632
3 872.65 1434428
3 873.396 1434286
3 873.396 1430340
3 874.144 1426008
3 874.886 1421854
3 875.626 1419074
3 875.626 1414007
3 875.626 1413865
3 875.626 1412305
3 876.428 1411630
3 876.428 1409459
3 877.163 1407662
3 877.163 1406948
3 877.901 1406024
3 877.901 1402979
3 877.901 1402449
3 877.901 1398863
3 879.394 1398442
3 879.394 1397912
3 882.151 1517574
3 882.151 1493872
3 882.151 1488524
3 882.151 1482246
3 882.151 1466200
3 882.151 1462963
3 882.151 1456037
3 883.117 1454669
3 883.117 1447739
3 883.117 1432950
3 883.117 1428298
3 883.117 1422585
3 883.974 1418344
3 884.713 1412013
3 885.425 1408181
3 885.425 1407785
3 886.914 1407033
3 886.914 1406727
3 887.691 1399240
3 887.691 1397878
3 888.511 1397119
3 889.247 1396440
3 890.014 1395855
3 890.014 1394393
3 890.818 1392247
3 893.667 1388615
3 896.476 1516426
3 896.476 1493322
3 896.476 1491876
3 896.476 1485886
3 896.476 1483479
3 896.476 1464889
3 896.476 1458422
3 896.476 1449990
3 897.461 1439608
3 897.461 1431724
3 898.24 1431088
3 898.24 1430609
3 898.24 1424635
3 898.24 1411885
3 898.24 1411439
3 899.823 1408942
3 899.823 1405380
3 899.823 1403857
3 899.823 1403750
3 901.422 1402451
3 903.015 1401804
3 903.831 1401149
3 905.283 1398296
3 905.283 1398189
3 905.283 1397585
3 906.097 1397269
3 908.263 1396890
3 910.384 1560824
3 910.384 1554908
3 910.384 1548722
3 910.384 1531036
3 910.384 1529743
3 910.384 1527449
3 910.384 1526287
3 910.384 1503271
3 911.341 1501845
3 911.341 1476606
3 911.341 1462451
3 911.341 1453965
3 911.341 1452887
3 911.341 1449523
3 911.341 1447229
3 912.284 1418330
3 912.284 1417502
3 912.284 1416492
3 913.096 1416021
3 913.096 1415477
3 913.889 1414213
3 913.889 1414082
3 914.723 1413939
3 914.723 1413902
3 914.723 1409980
3 915.579 1405045
3 916.351 1404204
3 916.351 1403207
3 919.485 1396912
3 920.049 1396762
3 920.049 1395813
3 920.587 1389595
3 921.096 1388209
3 922.076 1384652
3 924.504 1505992
3 924.504 1504293
3 924.504 1503566
3 924.504 1497407
3 924.504 1484694
3 925.153 1481107
3 925.153 1459594
3 925.153 1457937
3 925.743 1453816
3 925.743 1451409
3 925.743 1448310
3 925.743 1441301
3 925.743 1438765
3 926.395 1429266
3 927.407 1424830
3 927.407 1423406
3 927.407 1422673
3 927.407 1419715
3 928.086 1418460
3 928.62 1417066
3 929.14 1414203
3 929.14 1413222
3 929.14 1412915
3 929.14 1412902
3 929.752 1410607
3 930.26 1409405
3 930.26 1407975
3 931.805 1406182
3 932.46 1405326
3 933.041 1403026
3 933.57 1399702
3 937.269 1399595
3 938.349 1553904
3 938.349 1541136
3 938.349 1507115
3 938.349 1503543
3 938.349 1487546
3 938.349 1459588
3 938.349 1451537
3 939.087 1447562
3 939.087 1447127
3 939.669 1435867
3 939.669 1427913
3 939.669 1423508
3 940.262 1421754
3 940.262 1421682
3 940.262 1421577
3 940.262 1419842
3 940.262 1417495
3 940.262 1414134
3 940.952 1412180
3 940.952 1410693
3 940.952 1409228
3 940.952 1408503
3 940.952 1407390
3 941.592 1407131
3 942.106 1405523
3 942.106 1403992
3 943.142 1402392
3 944.14 1401035
3 944.14 1400405
3 944.14 1399423
3 944.723 1395177
3 944.723 1393916
3 944.723 1393906
3 945.292 1392351
3 946.332 1390384
3 952.205 1552111
3 952.205 1525177
1 952.205 1497910
3 952.205 1477466
3 952.205 1474232
3 952.205 1469439
3 952.205 1463754
3 952.205 1451116
3 952.205 1448139
3 952.205 1443976
3 953.185 1440033
3 953.185 1436781
3 953.185 1433599
3 953.185 1430861
3 953.799 1422377
3 953.799 1419910
3 953.799 1415255
3 953.799 1413855
3 953.799 1412122
3 954.429 1409092
3 955.426 1408701
3 955.426 1408503
3 957.444 1404302
3 957.444 1398439
3 957.444 1397431
3 958.03 1396118
3 959.025 1393997
3 966.338 1513532
3 966.338 1501336
3 966.338 1486568
3 966.338 1435749
3 966.338 1435300
3 966.338 1434371
3 967.045 1428171
3 967.613 1427841
3 967.613 1420409
3 967.613 1420302
3 967.613 1411965
3 967.613 1409922
3 967.613 1409815
3 967.613 1407933
3 968.344 1404899
3 968.855 1403090
3 968.855 1400999
3 968.855 1400580
3 969.959 1396391
3 969.959 1396238
3 970.99 1395565
3 970.99 1394600
3 970.99 1393465
3 970.99 1389481
3 970.99 1388925
3 971.589 1386279
3 971.589 1385563
3 980.087 1573529
3 980.087 1543137
3 980.087 1537359
3 980.087 1536512
3 980.087 1522135
3 980.087 1519310
3 980.087 1516643
3 980.087 1509285
3 980.087 1507217
3 980.087 1505705
3 980.087 1498730
3 980.874 1497293
3 980.874 1491845
3 980.874 1488777
3 981.441 1488388
3 981.441 1482390
3 981.441 1473317
3 981.441 1468850
3 982.035 1461295
3 982.035 1460815
3 982.035 1447369
3 982.035 1443952
3 982.035 1437415
3 982.723 1431792
3 982.723 1431742
3 983.299 1427820
3 983.802 1427093
3 984.935 1424924
3 984.935 1415681
3 984.935 1415653
3 985.498 1411722
3 986.004 1411374
3 986.004 1411327
3 987.062 1409047
3 987.062 1406955
3 987.59 1406399
3 987.59 1406154
3 988.599 1405460
3 994.22 1602758
3 994.22 1590018
3 994.22 1580436
3 994.22 1569525
3 994.22 1538825
3 994.22 1534364
3 994.22 1531270
3 994.22 1511081
3 994.22 1501784
3 994.22 1497373
3 994.22 1492029
3 994.22 1480742
3 995.009 1479532
3 995.009 1474964
3 995.009 1472972
3 995.009 1470565
3 995.009 1462254
3 995.009 1457617
3 995.642 1449275
3 995.642 1449252
3 996.177 1431991
3 996.177 1429584
3 996.177 1417134
3 997.675 1416841
3 998.233 1412210
3 998.731 1409844
3 998.731 1408224
3 999.326 1408132
3 999.326 1405748
3 999.326 1405439
3 999.904 1399445
3 1000.45 1398145
3 1001 1397799
3 1001 1395873
3 1001 1394383
3 1001 1393972
3 1001.67 1393865
3 1001.67 1393325
3 1002.9 1393045
3 1002.9 1392387
3 1008.22 1504403
3 1008.22 1489159
3 1008.22 1488033
3 1008.22 1470961
3 1008.22 1465321
3 1008.22 1461939
3 1008.22 1454980
3 1008.22 1449391
3 1008.22 1446223
3 1008.22 1443146
3 1008.22 1442965
3 1008.97 1436854
3 1008.97 1433103
3 1008.97 1424768
3 1009.55 1422607
3 1009.55 1422500
3 1009.55 1417863
3 1009.55 1413935
3 1009.55 1412783
3 1010.15 1412748
3 1010.15 1412159
3 1010.69 1407091
3 1010.69 1404795
3 1011.21 1402210
3 1012.64 1398623
3 1018.4 1397405
3 1018.4 1395484
3 1019.45 1394970
3 1021.84 1393062
3 1022.34 1520231
3 1022.34 1515327
3 1022.34 1508301
3 1022.34 1502878
3 1022.34 1499378
3 1022.34 1498119
3 1022.34 1496510
3 1022.34 1482514
3 1022.34 1473386
3 1022.34 1470597
3 1022.34 1465239
3 1022.34 1464266
3 1023.18 1462417
3 1023.18 1462100
3 1023.18 1461190
3 1023.18 1458893
3 1023.18 1452177
3 1023.79 1450973
3 1023.79 1448743
3 1023.79 1442140
3 1023.79 1440079
3 1023.79 1433733
3 1023.79 1427955
3 1024.43 1423175
3 1024.43 1420742
3 1024.43 1418052
3 1024.43 1413608
3 1024.43 1409686
3 1025.03 1405696
3 1027 1403085
3 1027 1402558
3 1034.4 1399737
3 1035.58 1397317
3 1036.22 1595891
3 1036.22 1585409
3 1036.22 1560676
3 1036.22 1504110
3 1036.22 1502176
3 1036.22 1499911
3 1036.22 1495303
3 1036.22 1476713
3 1036.22 1474804
3 1036.97 1467469
3 1036.97 1455811
3 1036.97 1452215
3 1036.97 1445476
3 1036.97 1440200
3 1036.97 1439293
3 1036.97 1432796
3 1036.97 1425411
3 1036.97 1424504
3 1037.69 1423701
3 1037.69 1422708
3 1037.69 1417209
3 1037.69 1416180
3 1037.69 1414267
3 1038.37 1412637
3 1038.37 1410704
3 1038.9 1410511
3 1039.4 1407304
3 1039.4 1407243
3 1039.4 1403454
3 1039.4 1403382
3 1039.4 1403278
3 1040.54 1398040
3 1050.47 1516185
3 1050.47 1461480
3 1050.47 1456089
3 1050.47 1452176
3 1050.47 1446873
3 1050.47 1439950
3 1050.47 1433631
3 1050.47 1427237
3 1050.47 1425590
3 1051.87 1424932
3 1051.87 1422544
3 1052.46 1421515
3 1052.46 1414060
3 1052.46 1413961
3 1053 1413053
3 1053 1412946
3 1053.54 1406383
3 1055.5 1406092
3 1056.99 1404619
3 1058.96 1404377
3 1059.47 1404216
3 1059.47 1400214
3 1060.48 1398551
3 1060.48 1398093
3 1060.48 1394590
3 1061.03 1393100
3 1061.03 1392942
3 1064.4 1480932
3 1064.4 1468631
3 1064.4 1466510
3 1064.4 1463000
3 1064.4 1450287
3 1065.06 1445361
3 1065.06 1444755
3 1065.06 1444507
3 1065.06 1442238
3 1065.67 1435325
3 1065.67 1431938
3 1065.67 1429904
3 1066.25 1419681
3 1066.25 1418591
3 1066.8 1417201
3 1067.38 1408505
3 1068.06 1404918
3 1068.06 1403392
3 1068.06 1401358
3 1068.75 1400518
3 1068.75 1400356
3 1068.75 1398755
3 1069.38 1397949
3 1069.38 1395734
3 1070.38 1395659
3 1070.38 1395657
3 1078.66 1534801
3 1078.66 1531477
3 1078.66 1501618
3 1078.66 1499428
3 1078.66 1496332
3 1078.66 1495297
3 1078.66 1490377
3 1078.66 1488256
3 1079.71 1486177
3 1079.71 1445007
3 1079.71 1440370
3 1082.04 1436365
3 1082.04 1433951
3 1082.92 1432374
3 1083.7 1429101
3 1083.7 1428059
3 1083.7 1426812
3 1084.56 1425978
3 1085.29 1421952
3 1086.02 1420536
3 1086.78 1420012
3 1086.78 1416658
3 1087.56 1415319
3 1087.56 1413330
3 1088.34 1411492
3 1088.34 1410581
3 1089.09 1406998
3 1089.09 1405305
3 1089.09 1404964
3 1089.09 1404696
3 1089.09 1404589
3 1092.24 1536223
3 1092.24 1524243
3 1092.24 1519321
3 1092.24 1498802
3 1092.24 1491745
3 1092.24 1481530
3 1092.24 1479083
3 1092.24 1467477
3 1092.24 1454725
3 1092.24 1446239
3 1093.28 1437944
3 1093.28 1433258
3 1093.28 1433151
3 1094.08 1428558
3 1094.08 1424840
3 1094.08 1421777
3 1094.08 1420074
3 1094.08 1415057
3 1094.95 1412854
3 1094.95 1409336
3 1098.7 1409302
3 1101.5 1406846
3 1106.37 1505783
3 1106.37 1502441
3 1106.37 1501911
3 1106.37 1479295
3 1106.37 1470731
3 1107.23 1469586
3 1107.96 1469057
3 1107.96 1446344
3 1107.96 1444942
3 1107.96 1444227
3 1107.96 1443883
3 1107.96 1443635
3 1108.87 1437961
3 1108.87 1436864
3 1108.87 1436448
3 1108.87 1428633
3 1109.69 1427696
3 1109.69 1425774
3 1110.52 1425312
3 1111.3 1423842
3 1112.08 1423774
3 1112.08 1423336
3 1112.08 1420289
3 1113.62 1416120
3 1113.62 1415004
3 1114.36 1412997
3 1115.08 1412890
3 1115.8 1412198
3 1115.8 1409353
3 1116.55 1407983
3 1116.55 1407968
3 1118.73 1405358
3 1118.73 1404170
3 1119.48 1403823
3 1119.48 1401475
3 1119.48 1399940
3 1120.26 1488342
3 1120.26 1486232
3 1120.26 1468389
3 1120.26 1461271
3 1120.26 1460437
3 1120.26 1460203
3 1121.16 1451167
3 1121.16 1446625
3 1121.16 1444956
3 1121.16 1439178
3 1121.16 1438862
3 1121.16 1435389
3 1121.16 1431802
3 1122.09 1430609
3 1122.09 1429670
3 1122.9 1424573
3 1122.9 1424027
3 1124.44 1421993
3 1124.44 1419774
3 1124.44 1419361
3 1125.29 1413831
3 1125.29 1412559
3 1125.29 1406280
3 1125.29 1404895
3 1125.29 1400527
3 1126.16 1399629
3 1126.96 1396729
3 1127.69 1396526
3 1127.69 1394587
3 1129.89 1391635
3 1134.66 1565757
3 1134.66 1559767
3 1134.66 1550099
3 1134.66 1547094
3 1134.66 1539305
3 1134.66 1510390
3 1134.66 1485250
3 1134.66 1483947
3 1134.66 1476911
3 1135.66 1475275
3 1135.66 1464895
3 1135.66 1453164
3 1135.66 1444286
3 1135.66 1444242
3 1135.66 1441859
3 1135.66 1436867
3 1136.57 1434643
3 1136.57 1430763
3 1136.57 1427316
3 1136.57 1424939
3 1137.38 1421808
3 1137.38 1420532
3 1138.25 1418159
3 1139.01 1417182
3 1139.01 1416619
3 1139.01 1413454
3 1139.01 1409421
3 1139.01 1408430
3 1139.01 1406871
3 1139.94 1405381
3 1139.94 1403625
3 1139.94 1403603
3 1140.8 1401117
3 1140.8 1400438
3 1140.8 1397144
3 1140.8 1396559
3 1140.8 1391875
3 1141.63 1390806
3 1141.63 1390083
3 1142.42 1389906
3 1144.61 1389815
3 1144.61 1388633
3 1145.42 1388068
3 1147.55 1386603
3 1147.55 1381018
3 1148.33 1498562
3 1148.33 1488544
3 1148.33 1483923
3 1148.33 1481773
3 1148.33 1480297
3 1148.33 1474487
3 1148.33 1466932
3 1149.28 1463376
3 1149.28 1457858
3 1149.28 1455915
3 1149.28 1453508
3 1149.28 1451416
3 1149.28 1443718
3 1149.28 1442173
3 1150.26 1441535
3 1151.73 1438966
3 1151.73 1437566
3 1151.73 1433923
3 1151.73 1431910
3 1151.73 1430825
3 1151.73 1428824
3 1152.64 1428031
3 1152.64 1422253
3 1152.64 1418390
3 1152.64 1416563
3 1153.48 1412976
3 1155.72 1406762
3 1156.45 1403790
3 1156.45 1402759
3 1160.1 1400194
3 1162.28 1525366
3 1162.28 1521066
3 1162.28 1514206
3 1162.28 1508047
3 1162.28 1498149
3 1163.2 1483250
3 1163.2 1481951
3 1163.99 1473871
3 1163.99 1466316
3 1163.99 1464917
3 1163.99 1464190
3 1164.83 1461418
3 1164.83 1454504
3 1164.83 1453688
3 1164.83 1452829
3 1165.75 1450219
3 1167.33 1449634
3 1167.33 1446985
3 1168.17 1446878
3 1173.34 1442581
3 1175.63 1436562
3 1176.39 1524183
3 1176.39 1505675
3 1176.39 1492786
3 1176.39 1484929
3 1176.39 1484475
3 1176.39 1480427
3 1176.39 1478254
3 1176.39 1473424
3 1176.39 1470547
3 1177.42 1470033
3 1177.42 1469773
3 1177.42 1467605
3 1178.23 1466266
3 1178.23 1462057
3 1178.23 1461330
3 1179.05 1460586
3 1179.05 1459650
3 1179.05 1458213
3 1179.92 1454621
3 1179.92 1452219
3 1179.92 1451652
3 1179.92 1450832
3 1179.92 1444274
3 1180.84 1443362
3 1180.84 1442106
3 1180.84 1441516
3 1181.67 1434867
3 1181.67 1434075
3 1183.21 1430488
3 1183.21 1427528
3 1183.21 1425121
3 1183.21 1419654
3 1183.21 1418191
3 1184.11 1417891
3 1184.11 1411783
3 1190.63 1513915
3 1190.63 1504776
3 1190.63 1497615
3 1190.63 1488033
3 1190.63 1476651
3 1190.63 1472738
3 1191.37 1470610
3 1191.37 1468766
3 1191.37 1467540
3 1191.37 1455184
3 1192.05 1453694
3 1192.05 1445012
3 1193.18 1442348
3 1193.69 1441895
3 1193.69 1440981
3 1193.69 1439747
3 1194.27 1438897
3 1194.27 1438210
3 1194.83 1437357
3 1194.83 1435755
3 1194.83 1434700
3 1194.83 1431030
3 1194.83 1427443
3 1195.46 1426872
3 1195.97 1425219
3 1196.48 1424330
3 1196.48 1424223
3 1204.4 1512792
3 1204.4 1500079
3 1204.4 1492111
3 1204.4 1477811
3 1204.4 1454680
3 1204.4 1453062
3 1205.12 1450263
3 1205.12 1447146
3 1205.12 1446162
3 1205.12 1445782
3 1205.74 1441369
3 1205.74 1439700
3 1206.28 1428165
3 1206.28 1426327
3 1207.31 1419088
3 1208.84 1418779
3 1210.78 1416891
3 1210.78 1413159
3 1211.32 1412062
3 1218.28 1443575
3 1218.96 1443059
3 1218.96 1440737
1 1218.96 1436875
3 1219.63 1427512
3 1219.63 1413396
3 1219.63 1412153
3 1219.63 1411525
3 1219.63 1407186
3 1220.35 1403516
3 1220.35 1400616
3 1220.35 1397106
3 1220.35 1396923
3 1220.35 1396486
3 1221.49 1394020
3 1232.35 1516552
3 1232.35 1507823
3 1232.35 1489387
3 1232.35 1481806
3 1232.35 1478923
3 1232.35 1471894
3 1233.03 1469614
3 1233.03 1460697
3 1233.03 1447060
3 1233.65 1438024
3 1234.25 1436940
3 1234.25 1435045
3 1235.29 1426050
3 1235.92 1420685
3 1235.92 1405313
3 1236.67 1397598
3 1238.41 1397002
3 1238.41 1394600
3 1238.99 1391270
3 1239.63 1391176
3 1239.63 1389588
3 1239.63 1389242
3 1240.37 1389233
3 1241.07 1388516
3 1244.1 1387015
3 1244.1 1386925
3 1244.66 1386391
3 1244.66 1386254
3 1246.2 1531256
3 1246.2 1520935
3 1246.2 1520808
3 1246.2 1518930
3 1246.2 1513656
3 1246.2 1510526
3 1246.2 1505482
3 1246.2 1496377
3 1247.08 1495654
3 1247.08 1492519
3 1247.08 1492406
3 1247.08 1486469
3 1247.79 1476240
3 1247.79 1475428
3 1248.4 1463516
3 1248.4 1462789
3 1248.4 1462610
3 1249 1462169
3 1249 1456010
3 1249.59 1455795
3 1249.59 1455479
3 1250.17 1454124
3 1250.17 1448549
3 1251.48 1447059
3 1256.12 1446514
3 1256.12 1445429
3 1257.33 1444022
3 1259.45 1442927
3 1260.02 1624621
3 1260.02 1617515
3 1260.02 1564907
3 1260.02 1556596
3 1260.02 1551348
3 1260.02 1551039
1 1260.02 1536798
3 1260.02 1527564
3 1260.02 1521148
3 1260.02 1516017
3 1260.02 1506524
3 1260.02 1496056
3 1260.02 1478766
3 1260.02 1478039
3 1260.02 1470690
3 1260.02 1464912
3 1261.24 1464802
3 1261.24 1459105
3 1261.24 1457390
3 1261.87 1446977
3 1261.87 1445139
3 1261.87 1429222
3 1261.87 1424193
3 1262.66 1422292
3 1262.66 1419498
3 1265.11 1419229
3 1265.11 1415408
3 1265.11 1415066
3 1266.43 1413952
3 1266.98 1409076
3 1266.98 1406218
3 1274.39 1547302
3 1274.39 1538816
3 1274.39 1486208
3 1274.39 1484156
3 1274.39 1475845
3 1275.06 1473438
3 1275.59 1472278
3 1275.59 1467105
3 1275.59 1465039
3 1275.59 1461250
3 1276.26 1449298
3 1276.26 1446933
3 1276.26 1443781
3 1276.26 1441426
3 1276.26 1439019
3 1276.26 1436123
3 1276.26 1435382
3 1276.96 1434982
3 1276.96 1431395
3 1277.52 1429361
3 1278.11 1428634
3 1278.68 1428493
3 1278.68 1426136
3 1280.53 1418787
3 1280.53 1415660
3 1281.1 1414907
3 1281.68 1414279
3 1281.68 1414180
3 1282.74 1411572
3 1283.25 1410258
3 1286.66 1409751
3 1288.22 1597776
3 1288.22 1581044
3 1288.22 1540572
3 1288.22 1500935
3 1288.22 1500437
3 1288.22 1489195
3 1288.22 1467763
3 1288.22 1459277
3 1288.22 1456118
3 1289.31 1445794
3 1289.31 1434446
3 1289.31 1432669
3 1289.31 1430474
3 1290.19 1428984
3 1290.96 1425528
3 1291.76 1425390
3 1291.76 1422884
3 1291.76 1411794
3 1292.67 1410510
3 1292.67 1408871
3 1293.53 1404559
3 1296.57 1401466
3 1297.36 1400760
3 1299.66 1399993
3 1300.43 1398843
3 1301.23 1397958
3 1301.23 1395143
3 1301.23 1394504
3 1301.23 1394465
3 1302.16 1563972
3 1302.16 1513846
3 1302.16 1506916
3 1302.16 1494716
3 1302.16 1488938
3 1302.16 1484136
3 1302.16 1467480
3 1302.16 1462136
3 1302.16 1460646
3 1303.26 1456793
3 1303.26 1455782
3 1304.12 1450928
3 1304.12 1445962
3 1305.69 1445127
3 1305.69 1444270
3 1306.61 1441892
3 1308.27 1437255
3 1308.27 1433668
3 1308.27 1428649
3 1308.27 1425200
3 1308.27 1425182
3 1316.58 1532511
3 1316.58 1506388
3 1316.58 1505729
3 1316.58 1501150
3 1316.58 1491907
3 1316.58 1480629
3 1316.58 1478791
3 1316.58 1478440
3 1316.58 1463651
3 1317.63 1462596
3 1317.63 1449669
3 1317.63 1448285
3 1317.63 1446019
3 1317.63 1444450
3 1318.55 1439384
3 1318.55 1432721
3 1319.34 1430687
3 1319.34 1429226
3 1319.34 1426849
3 1319.34 1423262
3 1319.34 1422554
3 1319.34 1422447
3 1319.34 1418388
3 1320.35 1411920
3 1320.35 1408435
3 1320.35 1405719
3 1320.35 1405471
3 1321.3 1401679
3 1321.3 1395400
3 1322.86 1394728
3 1323.61 1394193
3 1323.61 1390606
3 1330.03 1508531
3 1330.03 1493368
3 1330.03 1479676
3 1330.03 1458059
3 1330.03 1454218
3 1330.92 1447911
3 1330.92 1445609
3 1331.71 1439778
3 1331.71 1436861
3 1331.71 1434434
3 1332.52 1432313
3 1333.27 1430264
3 1333.27 1427982
3 1333.27 1421680
3 1334.16 1420193
3 1334.94 1417554
3 1336.42 1417500
3 1337.14 1417271
3 1337.88 1415151
3 1338.58 1413915
3 1342.79 1412055
3 1342.79 1411392
3 1344.23 1512602
3 1344.23 1507470
3 1344.23 1498984
3 1344.23 1497227
3 1344.23 1492519
3 1344.23 1484610
3 1344.23 1476992
3 1344.23 1474958
3 1345.2 1469109
3 1345.2 1462700
3 1345.97 1456244
3 1345.97 1439832
3 1345.97 1431223
3 1345.97 1427936
3 1345.97 1427462
3 1345.97 1426201
3 1345.97 1424860
3 1345.97 1420576
3 1346.92 1419874
3 1346.92 1418608
3 1346.92 1416036
3 1347.73 1415785
3 1347.73 1413061
3 1347.73 1409877
3 1347.73 1405848
3 1347.73 1402302
3 1348.7 1401682
3 1352.48 1400043
3 1355.27 1399269
3 1355.27 1399044
3 1355.27 1398937
3 1356.05 1394453
3 1356.78 1391555
3 1356.78 1388292
3 1357.55 1385885
3 1358.28 1502249
3 1358.28 1499285
3 1358.28 1483459
3 1358.28 1477812
3 1358.28 1468230
3 1358.28 1441156
3 1358.28 1441073
3 1358.28 1439235
3 1359.26 1438175
3 1359.26 1431296
3 1359.26 1431189
3 1359.26 1430922
3 1360.08 1428685
3 1360.08 1427832
3 1360.08 1421978
3 1360.08 1416153
3 1361.65 1411255
3 1362.44 1409015
3 1363.23 1405333
3 1363.23 1403737
3 1364.02 1403630
3 1364.02 1403212
3 1364.02 1399979
3 1365.92 1399778
3 1365.92 1398541
3 1367.96 1396438
3 1368.47 1395618
3 1368.47 1392516
3 1368.47 1392165
3 1369.01 1391651
3 1369.01 1390744
3 1370.05 1390651
3 1370.05 1390493
3 1371.06 1389829
3 1371.06 1389787
3 1371.59 1389273
3 1371.59 1389079
3 1372.1 1568698
3 1372.1 1561759
3 1372.1 1545027
3 1372.1 1544920
3 1372.1 1529757
3 1372.1 1506966
3 1372.1 1466494
3 1372.1 1463881
3 1372.1 1461524
3 1372.1 1451588
3 1372.1 1451122
3 1372.86 1450887
3 1372.86 1450402
3 1372.86 1445381
3 1373.44 1443961
3 1373.44 1431221
3 1375 1428683
3 1375 1428192
3 1375.56 1424460
3 1375.56 1423705
3 1375.56 1422259
3 1376.12 1419769
3 1376.12 1418127
3 1376.12 1417527
3 1376.12 1415463
3 1376.69 1412814
3 1376.69 1412030
3 1377.23 1411593
3 1377.23 1408944
3 1377.23 1408685
3 1377.23 1404578
3 1377.23 1397417
3 1377.23 1395444
3 1378.4 1395027
3 1378.4 1393621
3 1379.41 1393050
3 1379.91 1392757
3 1379.91 1389126
3 1381.42 1387843
3 1382.4 1386988
3 1382.93 1386391
3 1382.93 1385830
3 1386.3 1523177
3 1386.3 1511965
3 1386.3 1495809
3 1386.3 1491489
3 1386.3 1487699
3 1386.3 1480300
3 1386.98 1478581
3 1386.98 1471008
3 1386.98 1466164
3 1387.56 1464096
3 1387.56 1457513
3 1387.56 1455382
3 1387.56 1440593
3 1388.17 1438436
3 1388.17 1436761
3 1388.17 1434273
3 1388.74 1434025
3 1389.27 1432663
3 1389.27 1430815
3 1389.27 1428787
3 1390.82 1428450
3 1390.82 1415248
3 1390.82 1413443
3 1391.39 1413185
3 1392.39 1413078
3 1392.9 1412985
3 1392.9 1411445
3 1392.9 1403759
3 1392.9 1403073
3 1393.48 1402757
3 1393.48 1401266
3 1393.48 1399499
3 1393.48 1398985
3 1393.48 1397705
3 1394.07 1396647
3 1394.07 1396608
3 1394.61 1396501
3 1396.07 1393207
3 1397.59 1392313
3 1400.04 1643764
3 1400.04 1633962
3 1400.04 1617965
3 1400.04 1610028
3 1400.04 1579636
3 1400.04 1547128
3 1400.04 1538995
3 1400.04 1530252
3 1400.04 1524617
3 1400.04 1522824
3 1400.04 1507452
3 1400.85 1498785
3 1400.85 1491728
3 1400.85 1480411
3 1400.85 1479753
3 1400.85 1477661
3 1400.85 1474522
3 1400.85 1474116
3 1400.85 1472131
3 1400.85 1470521
3 1400.85 1469133
3 1401.56 1466353
3 1401.56 1462649
3 1401.56 1457317
3 1401.56 1455378
3 1402.14 1452399
3 1402.14 1451403
3 1402.14 1444700
3 1402.14 1443721
3 1402.75 1443653
3 1403.26 1440068
3 1403.26 1432774
3 1403.26 1432473
3 1403.26 1428754
3 1405.02 1425731
3 1405.56 1419718
3 1411.83 1419450
3 1412.36 1412861
3 1412.36 1411155
3 1412.36 1408793
3 1412.93 1408462
3 1413.43 1407353
3 1413.43 1404919
3 1414.44 1519011
3 1414.44 1516438
3 1414.44 1502772
3 1414.44 1497341
3 1414.44 1491463
3 1414.44 1488068
3 1414.44 1485982
3 1414.44 1481822
3 1414.44 1474892
3 1415.21 1472485
3 1415.21 1466326
3 1415.21 1462653
3 1415.21 1462205
3 1415.21 1453837
3 1415.83 1451607
3 1415.83 1450815
3 1415.83 1450234
3 1415.83 1446104
3 1415.83 1445590
3 1415.83 1438684
3 1415.83 1437547
3 1416.54 1436975
3 1416.54 1434139
3 1417.59 1431052
3 1417.59 1423370
3 1417.59 1423263
3 1418.69 1421682
3 1418.69 1420753
3 1419.23 1420564
3 1419.23 1418782
3 1419.23 1412939
3 1419.23 1409352
3 1419.23 1408265
3 1419.94 1407487
3 1420.71 1406099
3 1420.71 1404163
3 1421.49 1403628
3 1422.26 1403521
3 1426.58 1402160
3 1426.58 1400911
3 1428.06 1460900
3 1428.06 1440695
3 1428.06 1438997
3 1428.06 1437545
3 1428.9 1435708
3 1428.9 1434605
3 1428.9 1433383
3 1428.9 1432804
3 1428.9 1426876
3 1428.9 1420996
3 1429.83 1418639
3 1431.26 1417042
3 1431.26 1416463
3 1431.26 1415052
3 1432.08 1409201
3 1433.65 1408773
3 1434.42 1408532
3 1435.16 1407285
3 1435.16 1404143
3 1435.96 1401326
3 1436.73 1395548
3 1438.2 1393799
3 1438.2 1388793
3 1438.2 1387483
3 1439.03 1386638
3 1439.03 1384281
3 1442.66 1507602
3 1442.66 1490731
3 1442.66 1484871
3 1442.66 1455420
3 1442.66 1452326
3 1442.66 1451762
3 1443.6 1450317
3 1443.6 1450292
3 1443.6 1443851
3 1443.6 1434387
3 1444.45 1431801
3 1444.45 1431052
3 1444.45 1425092
3 1444.45 1417320
3 1449.11 1416690
3 1450.71 1416057
3 1451.48 1414579
3 1451.48 1411485
3 1453 1411181
3 1456.44 1469683
3 1456.44 1458753
3 1456.44 1453727
3 1456.44 1450269
3 1456.44 1444884
3 1456.44 1444456
3 1456.44 1436390
3 1457.18 1435066
3 1458.24 1430678
3 1458.24 1430411
3 1458.78 1427354
3 1458.78 1425191
3 1458.78 1424269
3 1458.78 1416684
3 1458.78 1414019
3 1459.41 1410038
3 1459.41 1409490
3 1459.95 1408548
3 1460.46 1408441
3 1461.45 1405771
3 1462.44 1405302
3 1462.44 1401773
3 1463.97 1400533
3 1468.92 1398792
3 1469.94 1398509
3 1470.47 1513393
3 1470.47 1511555
3 1470.47 1501375
3 1470.47 1494985
3 1470.47 1484992
3 1471.18 1473888
3 1471.18 1470321
3 1471.18 1466470
3 1471.18 1457581
3 1471.18 1452687
3 1471.83 1452299
3 1471.83 1449177
3 1471.83 1444373
3 1471.83 1431722
3 1472.44 1428191
3 1472.44 1419808
3 1472.44 1418532
3 1473 1417451
3 1473.51 1417002
1 1473.51 1414459
3 1474.54 1406953
3 1478.43 1404304
3 1484.12 1510308
3 1484.12 1503147
3 1484.12 1491036
3 1484.12 1481813
3 1484.12 1475918
3 1484.12 1474428
3 1484.78 1472564
3 1485.29 1472503
3 1485.29 1471013
3 1487.85 1469845
3 1487.85 1455604
3 1487.85 1454327
3 1488.41 1453802
3 1488.41 1448038
3 1488.95 1448024
3 1488.95 1447264
3 1488.95 1447171
3 1488.95 1444184
3 1488.95 1444069
3 1490.51 1443342
3 1491 1443182
3 1491 1439184
3 1491 1439062
3 1491.56 1438999
3 1491.56 1438850
3 1492.11 1434664
3 1492.11 1434257
3 1492.11 1432583
3 1492.66 1431172
3 1492.66 1430176
3 1492.66 1427094
3 1498.07 1495645
3 1498.07 1493365
3 1498.07 1490065
3 1498.07 1466603
3 1498.07 1455116
3 1498.07 1454746
3 1498.07 1447341
3 1499.03 1434785
3 1499.78 1430857
3 1499.78 1429118
3 1499.78 1427852
3 1500.6 1420632
3 1500.6 1413090
3 1500.6 1412321
3 1501.46 1411363
3 1503.08 1403995
3 1506.8 1402296
3 1507.58 1399320
3 1511.23 1398208
3 1512.76 1471471
3 1512.76 1468386
1 1512.76 1467519
3 1512.76 1444585
3 1513.68 1439586
3 1514.5 1431754
3 1514.5 1424056
3 1515.34 1414072
3 1516.85 1411640
3 1517.62 1408991
3 1519.08 1408854
3 1519.82 1407654
3 1520.55 1407260
3 1526.25 1503945
3 1526.25 1494909
3 1526.25 1479507
3 1526.25 1477100
3 1526.25 1463778
3 1526.25 1456617
3 1526.25 1437698
3 1527.29 1436971
3 1527.29 1435227
3 1528.84 1432650
3 1528.84 1430144
3 1529.64 1427100
3 1529.64 1426343
3 1531.25 1425616
3 1531.25 1423495
3 1531.25 1419517
3 1531.25 1414252
3 1532.12 1409494
3 1532.12 1408389
3 1532.91 1405149
3 1532.91 1403579
3 1534.38 1403559
3 1535.12 1396415
3 1535.12 1393980
3 1535.12 1391778
3 1535.92 1389886
3 1540.09 1529987
3 1540.09 1490390
3 1540.09 1458421
3 1540.09 1455885
3 1540.09 1454544
3 1540.09 1453784
3 1541.04 1445473
3 1541.04 1443460
3 1541.87 1438334
3 1541.87 1438102
3 1541.87 1429054
3 1543.43 1424604
3 1543.43 1424534
3 1546.39 1421655
3 1546.39 1419163
3 1546.39 1417680
3 1549.4 1416990
3 1550.14 1416217
3 1551.6 1410831
3 1553.78 1408424
3 1554.52 1601554
3 1554.52 1588523
3 1554.52 1567050
3 1554.52 1522132
3 1554.52 1501592
3 1554.52 1498169
3 1554.52 1488561
3 1554.52 1486021
3 1554.52 1483900
3 1554.52 1475589
3 1554.52 1474207
3 1555.63 1466568
3 1555.63 1466564
3 1555.63 1460280
3 1556.5 1457898
3 1556.5 1457812
3 1556.5 1452680
3 1556.5 1450567
3 1558.09 1430983
3 1558.86 1428529
3 1558.86 1419867
3 1558.86 1419429
3 1558.86 1417648
3 1558.86 1414389
3 1559.79 1414202
3 1559.79 1413875
3 1560.55 1410503
3 1560.55 1406340
3 1562.75 1405564
3 1564.19 1402403
3 1564.93 1399449
3 1568.62 1487615
3 1568.62 1470897
3 1568.62 1468393
3 1568.62 1461654
3 1568.62 1460069
3 1568.62 1459816
3 1568.62 1459784
3 1568.62 1455052
3 1568.62 1454250
3 1568.62 1454079
3 1569.8 1452015
3 1569.8 1445757
3 1570.65 1437984
3 1570.65 1436179
3 1571.49 1433282
3 1571.49 1432656
3 1571.49 1432404
3 1573.12 1431248
3 1573.12 1431121
3 1573.12 1424806
3 1573.12 1424517
3 1574.82 1423688
3 1574.82 1422396
3 1575.73 1421008
3 1575.73 1419898
3 1576.59 1413324
3 1576.59 1412116
3 1577.47 1411642
3 1580.59 1411068
3 1582.1 1522723
3 1582.1 1515484
3 1582.1 1514146
3 1582.1 1498631
3 1582.1 1489049
3 1582.1 1483271
3 1582.1 1481781
3 1582.1 1471093
3 1583.15 1463932
3 1583.94 1463548
3 1583.94 1460514
3 1583.94 1457403
3 1583.94 1456274
3 1583.94 1454568
3 1584.86 1453617
3 1584.86 1447711
3 1584.86 1446296
3 1585.7 1445046
3 1585.7 1438121
3 1585.7 1437523
3 1586.54 1434163
3 1586.54 1433152
3 1586.54 1427162
3 1586.54 1425864
3 1586.54 1423457
3 1587.44 1420192
3 1587.44 1418559
3 1587.44 1417543
3 1588.31 1417131
3 1589.94 1417107
3 1590.73 1417010
3 1591.58 1415301
3 1592.38 1413083
3 1594 1412906
3 1595.56 1412373
3 1596.37 1547381
3 1596.37 1537286
3 1596.37 1522387
3 1596.37 1490805
3 1597.3 1489050
3 1597.3 1480441
3 1597.3 1473418
3 1597.3 1469190
3 1597.3 1460393
3 1598.23 1457913
3 1598.23 1455968
3 1598.23 1450818
3 1599.12 1446183
3 1599.12 1444154
3 1600.68 1443361
3 1600.68 1442596
3 1600.68 1441416
3 1604.66 1437840
3 1604.66 1435146
3 1604.66 1433898
3 1605.53 1433105
3 1605.53 1417209
3 1610.16 1633276
3 1610.16 1618750
3 1610.16 1613924
3 1610.16 1602974
3 1610.16 1561437
3 1610.16 1558338
3 1610.16 1557835
3 1610.16 1541838
3 1610.16 1537877
3 1610.16 1529566
3 1610.16 1528404
3 1611.29 1505300
3 1611.29 1500582
3 1611.29 1495344
3 1611.29 1492937
3 1611.29 1487521
3 1611.29 1479769
3 1611.29 1475132
3 1612.27 1474042
3 1612.27 1473341
3 1612.27 1472428
3 1613.14 1452802
3 1613.14 1447848
3 1613.98 1436467
3 1613.98 1428853
3 1613.98 1428666
3 1614.82 1427790
3 1614.82 1427473
3 1614.82 1425450
3 1614.82 1425439
3 1615.69 1425029
3 1616.51 1424913
3 1617.32 1414780
3 1617.32 1413290
3 1617.32 1412816
3 1619.69 1407901
3 1619.69 1407111
3 1619.69 1405198
3 1619.69 1404789
3 1622.92 1402509
3 1623.7 1401453
3 1624.46 1492612
3 1624.46 1483224
3 1624.46 1481429
3 1624.46 1479538
3 1624.46 1479022
3 1624.46 1467181
3 1624.46 1457962
3 1625.5 1451767
3 1625.5 1432798
3 1625.5 1430960
3 1625.5 1427373
3 1626.38 1426545
3 1627.18 1424794
3 1627.18 1424424
3 1628.08 1421622
3 1628.87 1416251
3 1628.87 1408835
3 1628.87 1408696
3 1630.54 1407534
3 1631.37 1407530
3 1631.37 1401030
3 1631.37 1396251
3 1632.22 1394376
3 1632.22 1392745
3 1638.16 1550153
3 1638.16 1534028
3 1638.16 1502015
3 1638.16 1483684
3 1638.16 1477560
3 1638.16 1468351
3 1638.16 1466513
3 1639.34 1463628
3 1639.34 1456297
3 1639.34 1454406
3 1639.34 1451492
3 1639.34 1450474
3 1639.34 1447421
3 1639.34 1443228
3 1640.32 1434940
3 1641.87 1434627
3 1641.87 1434456
3 1641.87 1431093
3 1642.71 1427702
3 1642.71 1426900
3 1643.52 1418217
3 1644.34 1416212
3 1645.19 1415652
3 1652.05 1525493
3 1652.05 1512966
3 1652.05 1492354
3 1652.05 1492251
3 1652.05 1485090
3 1652.05 1484774
3 1653.01 1478999
3 1653.76 1477844
3 1653.76 1475412
3 1653.76 1473591
3 1653.76 1466780
3 1654.61 1461090
3 1654.61 1432520
3 1654.61 1421323
3 1656.14 1415274
3 1656.14 1412988
3 1656.96 1412261
3 1658.5 1410148
3 1658.5 1407798
3 1658.5 1407136
3 1663.02 1404193
3 1663.76 1402652
3 1665.94 1402321
3 1666.71 1503883
3 1666.71 1500559
3 1666.71 1499069
3 1666.71 1489068
3 1666.71 1485683
3 1666.71 1483103
3 1667.67 1477898
3 1667.67 1477325
3 1667.67 1470164
3 1667.67 1467305
3 1668.56 1466578
3 1668.56 1464171
3 1668.56 1459359
3 1668.56 1458422
3 1669.44 1453355
3 1670.24 1452391
3 1671 1450994
3 1671 1450074
3 1673.33 1447920
3 1674.13 1440713
3 1674.13 1438304
3 1674.99 1429404
3 1674.99 1426997
3 1674.99 1424943
3 1674.99 1424517
3 1676.66 1424443
3 1676.66 1424341
3 1677.49 1424336
3 1677.49 1415957
3 1677.49 1415318
3 1678.32 1415211
3 1678.32 1414785
3 1678.32 1412713
3 1679.17 1410641
3 1680.64 1597641
3 1680.64 1558296
3 1680.64 1558074
3 1680.64 1539784
3 1680.64 1537135
3 1680.64 1506255
3 1680.64 1497769
3 1680.64 1491362
3 1680.64 1477310
3 1680.64 1476280
3 1681.74 1470471
3 1681.74 1469119
3 1681.74 1467825
3 1681.74 1467360
3 1681.74 1463838
3 1681.74 1461573
3 1682.71 1461466
3 1682.71 1461324
3 1682.71 1460162
3 1683.56 1450455
3 1683.56 1446619
3 1683.56 1442900
3 1683.56 1442483
3 1684.43 1441637
3 1684.43 1440964
3 1684.43 1436451
3 1684.43 1434417
3 1684.43 1429533
3 1689.11 1417922
3 1690.65 1415450
3 1690.65 1415268
3 1690.65 1408848
3 1691.48 1407581
3 1691.48 1406784
3 1691.48 1404686
3 1692.34 1398976
3 1692.34 1398249
3 1692.34 1394925
3 1693.17 1394761
3 1693.92 1394609
3 1694.66 1504664
3 1694.66 1501963
3 1694.66 1496827
3 1694.66 1492595
3 1694.66 1486995
3 1694.66 1480424
3 1694.66 1475787
3 1694.66 1462793
3 1694.66 1462686
3 1695.73 1461122
3 1695.73 1459788
3 1695.73 1452035
3 1695.73 1443426
3 1695.73 1443122
3 1697.43 1439187
3 1697.43 1437697
3 1697.43 1436388
3 1697.43 1432712
3 1697.43 1420860
3 1698.35 1418529
3 1698.35 1418007
3 1698.35 1412975
3 1698.35 1411587
3 1699.14 1411005
3 1699.69 1406830
3 1699.69 1405803
3 1700.74 1404505
3 1702.37 1404426
3 1702.89 1402345
3 1702.89 1402233
3 1702.89 1400918
3 1708.4 1630858
3 1708.4 1617942
3 1708.4 1536967
3 1708.4 1519874
3 1708.4 1498499
3 1708.4 1483097
3 1708.4 1452905
3 1708.4 1449853
3 1708.4 1446770
3 1708.4 1445350
3 1709.18 1439813
3 1709.18 1439665
3 1709.18 1438401
3 1709.18 1437513
3 1709.18 1436427
3 1709.18 1431009
3 1709.18 1427170
3 1709.18 1426810
3 1709.89 1425064
3 1709.89 1424745
3 1709.89 1424031
3 1709.89 1423438
3 1710.5 1412508
3 1710.5 1407930
3 1710.5 1406897
3 1711.08 1405093
3 1711.62 1403638
3 1711.62 1401044
3 1715.1 1399817
3 1715.1 1399657
3 1715.1 1396221
3 1715.72 1396047
3 1722.43 1533237
3 1722.43 1531627
3 1722.43 1530137
3 1722.43 1523721
3 1723.08 1511008
3 1723.08 1508066
3 1723.08 1505770
3 1723.08 1479332
3 1723.71 1448265
3 1723.71 1439022
3 1724.28 1438519
3 1724.81 1425874
3 1724.81 1423753
3 1724.81 1421705
3 1724.81 1417947
3 1725.44 1416125
3 1725.95 1415422
3 1725.95 1413968
3 1725.95 1410687
3 1728.02 1409897
3 1728.02 1409302
3 1728.02 1407464
3 1728.02 1406072
3 1728.02 1402827
3 1728.65 1401444
3 1728.65 1398085
3 1728.65 1397689
3 1728.65 1395666
3 1729.74 1395412
3 1736.04 1602303
3 1736.04 1560766
3 1736.04 1521129
3 1736.04 1504887
3 1736.04 1495298
3 1736.04 1493104
3 1736.04 1482658
3 1736.04 1474049
3 1736.04 1468494
3 1736.04 1449573
3 1736.04 1444704
3 1736.04 1442412
3 1736.81 1438825
3 1736.81 1432767
3 1736.81 1430737
3 1736.81 1429320
3 1736.81 1426458
3 1736.81 1425850
3 1736.81 1423361
3 1737.5 1419955
3 1737.5 1419672
3 1737.5 1403867
3 1737.5 1402035
3 1737.5 1401140
3 1738.64 1397108
3 1738.64 1394728
3 1738.64 1392656
3 1739.22 1388435
3 1741.18 1388283
3 1742.22 1387343
3 1742.74 1387136
3 1750.42 1554185
3 1750.42 1540454
3 1750.42 1515633
3 1750.42 1507147
3 1750.42 1506663
3 1750.42 1503560
3 1750.42 1501998
3 1750.42 1476487
3 1750.42 1469906
3 1750.42 1452942
3 1750.42 1452570
3 1751.22 1451470
3 1751.22 1451099
3 1751.22 1449740
3 1751.22 1441246
3 1751.83 1433371
3 1751.83 1428734
3 1751.83 1428233
3 1752.41 1422353
3 1752.92 1422208
3 1752.92 1420834
3 1753.46 1420274
3 1753.46 1417638
3 1753.46 1407663
3 1754.51 1406222
3 1756.95 1404328
3 1764.14 1506753
3 1764.14 1498442
3 1764.14 1493343
3 1764.14 1493236
3 1764.14 1492025
3 1764.14 1476653
3 1764.14 1475229
3 1764.14 1475221
3 1764.14 1462892
3 1765.18 1460535
3 1765.18 1449338
3 1765.18 1448434
3 1766 1447270
3 1766 1444546
3 1766 1442266
3 1766 1440779
3 1766 1438756
3 1766.88 1432808
3 1767.67 1431373
3 1767.67 1427786
3 1768.49 1422741
3 1768.49 1421796
3 1770.09 1421191
3 1773.16 1415452
3 1773.16 1409358
3 1773.95 1408219
3 1775.42 1408113
3 1778.03 1547856
3 1778.03 1543301
3 1778.03 1525653
3 1778.03 1503305
3 1778.03 1503198
3 1778.03 1497193
3 1778.03 1473040
3 1778.03 1471361
3 1778.03 1457234
3 1778.03 1456572
3 1778.03 1454201
3 1779.13 1451334
3 1779.13 1446036
3 1779.13 1440137
3 1779.99 1437278
3 1779.99 1434002
3 1779.99 1433356
3 1779.99 1422687
3 1780.88 1416955
3 1780.88 1416624
3 1781.65 1415897
3 1785.46 1413251
3 1789.25 1411431
3 1790.01 1409885
3 1790.79 1409554
3 1790.79 1408087
3 1790.79 1405406
3 1790.79 1404765
3 1792.36 1640181
3 1792.36 1634846
3 1792.36 1596774
3 1792.36 1583096
3 1792.36 1565448
3 1792.36 1558518
3 1792.36 1505910
3 1792.36 1480624
3 1793.34 1458884
3 1793.34 1448732
3 1793.34 1447865
3 1793.34 1443837
3 1793.34 1438703
3 1794.21 1435352
3 1794.21 1434486
3 1794.21 1425345
3 1794.21 1423538
3 1794.21 1417890
3 1795.11 1411958
3 1795.87 1409322
3 1796.65 1409230
3 1797.42 1409215
3 1797.42 1405628
3 1798.26 1401730
3 1799.81 1399170
3 1802.04 1397370
3 1802.83 1395785
3 1806.49 1570582
3 1806.49 1529250
3 1806.49 1513253
3 1806.49 1499262
3 1806.49 1495681
3 1806.49 1491637
3 1806.49 1476497
3 1807.46 1473129
3 1807.46 1470009
3 1807.46 1467656
3 1807.46 1466696
3 1807.46 1463002
3 1808.38 1461048
3 1808.38 1456205
3 1808.38 1451805
3 1809.22 1448731
3 1809.97 1445008
3 1813.17 1443240
3 1813.17 1436501
3 1813.17 1434631
3 1814 1432589
3 1814 1424105
3 1814.77 1423498
3 1814.77 1423259
3 1817.01 1422483
3 1818.53 1415084
3 1820.75 1488418
3 1820.75 1485682
3 1820.75 1476112
3 1820.75 1466180
3 1820.75 1465330
3 1821.72 1457019
3 1821.72 1455138
3 1821.72 1444282
3 1821.72 1442778
3 1821.72 1440900
3 1821.72 1440487
3 1821.72 1438182
3 1822.68 1435192
3 1822.68 1433014
3 1822.68 1427098
3 1822.68 1426639
3 1823.55 1426532
3 1824.33 1424692
3 1824.33 1420776
3 1824.33 1418278
3 1824.33 1415098
3 1825.2 1410814
3 1825.2 1407304
3 1825.2 1403993
3 1826.02 1401381
3 1826.02 1400519
3 1826.02 1398886
3 1826.02 1394811
3 1826.86 1394704
3 1828.4 1392866
3 1829.93 1391119
3 1831.41 1390583
3 1831.41 1388423
3 1831.41 1387221
3 1834.3 1485290
3 1834.3 1465502
3 1835.22 1460676
3 1835.22 1460053
3 1835.22 1457905
3 1835.22 1449802
3 1835.22 1444024
3 1836.92 1433618
3 1836.92 1426022
3 1837.75 1423448
3 1839.96 1421817
3 1841.49 1420860
3 1841.49 1420429
3 1841.49 1420251
3 1843.04 1419410
3 1845.92 1417594
3 1845.92 1417487
3 1846.71 1414877
3 1846.71 1413641
3 1846.71 1405737
3 1848.26 1578499
3 1848.26 1524554
3 1848.26 1507779
3 1848.26 1506736
3 1848.26 1490447
3 1848.26 1472212
3 1848.26 1468619
3 1848.26 1466974
3 1849.28 1465707
3 1849.28 1461916
3 1850.09 1461900
3 1850.09 1459283
3 1850.09 1439118
3 1850.88 1438394
3 1850.88 1434940
3 1850.88 1434915
3 1852.47 1432524
3 1853.23 1431405
3 1853.23 1428739
3 1853.23 1413404
3 1853.23 1412798
3 1854.05 1412467
3 1854.05 1412382
3 1854.81 1407144
3 1854.81 1404730
3 1856.26 1404443
3 1856.26 1402036
3 1862.69 1513724
3 1862.69 1504491
3 1862.69 1499172
3 1862.69 1475457
3 1862.69 1473782
3 1862.69 1469467
3 1862.69 1466183
3 1862.69 1459885
3 1862.69 1459253
3 1862.69 1446505
3 1863.81 1446485
3 1863.81 1441720
3 1864.63 1436250
3 1865.43 1435045
3 1865.43 1432176
3 1866.24 1431449
3 1866.24 1431181
3 1867.02 1426449
3 1867.02 1419112
3 1867.02 1417577
3 1867.02 1417109
3 1867.02 1416552
3 1867.91 1415170
3 1867.91 1414852
3 1868.68 1413461
3 1868.68 1408531
3 1869.43 1408424
3 1871.55 1408094
3 1871.55 1404172
3 1872.3 1403543
3 1872.3 1403445
3 1876.63 1571652
3 1876.63 1567604
3 1876.63 1552959
3 1876.63 1513322
3 1876.63 1507812
3 1876.63 1497949
3 1876.63 1492924
3 1876.63 1480156
3 1876.63 1470918
3 1877.73 1470165
3 1877.73 1468186
3 1877.73 1466534
3 1877.73 1461471
3 1877.73 1451919
3 1877.73 1440800
3 1877.73 1438393
3 1877.73 1431948
3 1877.73 1427311
3 1878.76 1421133
3 1878.76 1413597
3 1878.76 1412407
3 1879.58 1407844
3 1879.58 1406070
3 1880.35 1405784
3 1881.09 1405761
3 1890.32 1612094
3 1890.32 1590669
3 1890.32 1574608
3 1890.32 1536118
3 1890.32 1518042
3 1890.32 1514865
3 1890.32 1513405
3 1890.32 1493993
3 1890.32 1485385
3 1890.32 1471315
3 1890.32 1454583
3 1891.48 1439684
3 1892.34 1432571
3 1892.34 1431198
3 1893.16 1430462
3 1893.16 1426462
3 1893.94 1424341
3 1894.69 1416763
3 1895.46 1415707
3 1895.46 1414391
3 1896.25 1413189
3 1904.22 1560241
3 1904.22 1547830
3 1904.22 1535090
3 1904.22 1533428
3 1904.22 1510179
3 1904.22 1507029
3 1904.22 1468957
3 1904.22 1464634
3 1904.22 1451324
3 1905.32 1428083
3 1905.32 1421176
3 1906.18 1418979
3 1906.18 1415398
3 1907.03 1412913
3 1907.86 1411896
3 1907.86 1408697
3 1909.37 1408386
3 1909.37 1407970
3 1913.73 1405330
3 1915.77 1405307
3 1915.77 1405200
3 1915.77 1401518
3 1915.77 1399486
3 1918.32 1484528
3 1918.32 1474529
3 1918.32 1468539
3 1918.32 1464366
3 1918.32 1455105
3 1918.32 1454378
3 1919.04 1451330
3 1919.04 1448798
3 1919.04 1444286
3 1919.04 1440373
3 1919.66 1439645
3 1919.66 1434597
3 1920.7 1429546
3 1921.23 1426719
3 1921.78 1423900
3 1921.78 1423763
3 1921.78 1423568
3 1922.38 1422932
3 1922.38 1422752
3 1922.38 1422661
3 1923.01 1421101
3 1923.01 1419112
3 1923.01 1415863
3 1923.61 1413634
3 1925.64 1411327
3 1925.64 1409489
3 1926.2 1407234
3 1926.2 1403135
3 1926.2 1402382
3 1926.8 1402255
3 1927.35 1402164
3 1927.88 1401852
3 1930.32 1398732
3 1930.82 1397640
3 1932.34 1537116
3 1932.34 1520728
3 1932.34 1511439
3 1932.34 1509531
3 1932.34 1459579
3 1932.34 1454214
3 1932.34 1453586
3 1933.02 1453479
3 1933.02 1434619
3 1933.57 1434173
3 1933.57 1422731
3 1933.57 1416526
3 1934.17 1411601
3 1934.7 1411309
3 1934.7 1409000
3 1934.7 1408340
3 1935.27 1407923
3 1935.8 1406350
3 1936.39 1405734
3 1936.98 1405627
3 1936.98 1403596
3 1937.53 1398959
3 1938.53 1397669
3 1939.58 1396575
3 1939.58 1395947
3 1942.52 1395116
3 1943.03 1393024
3 1946.4 1613850
3 1946.4 1575252
3 1946.4 1542010
3 1946.4 1530293
3 1946.4 1529977
3 1946.4 1526942
3 1946.4 1523047
3 1946.4 1522738
3 1946.4 1509044
3 1946.4 1491363
3 1946.4 1486726
3 1947.21 1485853
3 1947.21 1471685
3 1947.21 1470954
3 1947.21 1470227
3 1947.21 1469368
3 1947.21 1448968
3 1947.21 1441568
3 1947.21 1440013
3 1948.01 1435353
3 1948.01 1421016
3 1948.01 1413355
3 1948.01 1411627
3 1948.01 1409866
3 1948.89 1407838
3 1949.66 1406194
3 1949.66 1405692
3 1949.66 1405498
3 1950.5 1404971
3 1950.5 1401543
3 1950.5 1397640
3 1950.5 1396704
3 1951.39 1393117
3 1952.26 1390241
3 1955.96 1390211
3 1955.96 1389411
3 1955.96 1387034
3 1957.57 1386488
3 1958.32 1383164
3 1960.51 1492932
3 1960.51 1487737
3 1960.51 1480748
3 1960.51 1474396
3 1960.51 1473587
3 1960.51 1471291
3 1960.51 1469378
3 1961.48 1464741
3 1961.48 1463613
3 1961.48 1461230
3 1961.48 1461123
3 1961.48 1459641
3 1962.39 1452399
3 1963.16 1450547
3 1963.16 1449173
3 1963.16 1445343
3 1963.16 1445149
3 1964.03 1444479
3 1964.03 1440444
3 1964.03 1435577
3 1964.95 1433267
3 1964.95 1430746
3 1965.8 1428886
3 1965.8 1428796
3 1967.43 1425299
3 1968.97 1418512
3 1968.97 1417909
3 1969.8 1416813
3 1969.8 1414230
3 1969.8 1413212
3 1970.62 1412485
3 1974.4 1491665
3 1974.4 1490205
3 1974.4 1473395
3 1974.4 1470888
3 1974.4 1464898
3 1975.33 1461936
3 1975.33 1458843
3 1975.33 1446821
3 1976.17 1444343
3 1976.17 1440611
3 1976.17 1437529
3 1976.17 1437391
3 1976.17 1432880
3 1976.17 1429148
3 1977.1 1421593
3 1977.1 1419755
3 1977.1 1419232
3 1977.92 1415100
3 1977.92 1414504
3 1977.92 1411993
3 1981.14 1411155
3 1981.93 1408483
3 1983.44 1407451
3 1983.44 1404387
3 1983.44 1396076
3 1985.77 1395215
3 1985.77 1390046
3 1988.04 1563963
3 1988.04 1525787
3 1988.04 1510780
3 1988.04 1509055
3 1988.04 1502896
3 1988.98 1451133
3 1988.98 1440617
3 1988.98 1440518
3 1988.98 1437833
3 1989.86 1433370
3 1989.86 1431880
3 1989.86 1427747
3 1989.86 1415324
3 1989.86 1414597
3 1990.74 1413013
3 1990.74 1409975
3 1990.74 1408710
3 1990.74 1407925
3 1991.6 1405603
3 1991.6 1403765
3 1992.43 1402935
3 1992.43 1402208
3 1993.07 1399758
3 1993.07 1398377
3 1993.07 1397233
3 1993.68 1396449
3 1994.21 1396400
3 1994.21 1396238
3 1994.21 1395607
3 1994.79 1392874
3 1994.79 1391159
3 1994.79 1389655
3 1995.89 1386068
3 1995.89 1385365
3 2002.5 1540692
3 2002.5 1537105
3 2002.5 1525908
3 2002.5 1511126
3 2002.5 1480020
3 2002.5 1473858
3 2002.5 1456255
3 2002.5 1449325
3 2002.5 1446970
3 2002.5 1440438
3 2002.5 1437595
3 2003.32 1425750
3 2003.85 1421878
3 2003.85 1415812
3 2004.41 1408448
3 2005.44 1403811
3 2005.44 1399441
3 2005.44 1393375
3 2005.44 1392625
3 2006.06 1390498
3 2006.06 1387923
3 2007.08 1387597
3 2009.76 1387367
3 2009.76 1382124
3 2009.76 1381477
3 2009.76 1376134
3 2016.29 1491781
3 2016.29 1491457
3 2016.29 1485258
3 2016.29 1470926
3 2016.29 1453894
3 2016.29 1450162
3 2016.29 1442719
3 2017.03 1441965
3 2017.03 1439003
3 2017.03 1435100
3 2017.03 1432816
3 2017.03 1430449
3 2017.03 1426309
3 2017.78 1425393
3 2017.78 1424666
3 2017.78 1424471
3 2017.78 1424109
3 2017.78 1418763
3 2019.48 1409520
3 2019.48 1404178
3 2026.11 1404094
3 2026.11 1402060
3 2029.88 1398732
3 2030.65 1487138
3 2030.65 1478971
3 2030.65 1477615
3 2030.65 1473940
3 2030.65 1473715
3 2030.65 1465675
3 2030.65 1440300
3 2030.65 1439573
3 2032.46 1438914
3 2032.46 1432258
3 2032.46 1432018
3 2033.3 1425892
3 2033.3 1421766
3 2033.3 1418962
3 2033.3 1417129
3 2036.5 1414091
3 2036.5 1412240
3 2041.01 1411776
3 2041.79 1410403
3 2043.26 1409655
3 2044.03 1570387
3 2044.03 1553703
3 2044.03 1542384
3 2044.03 1540409
3 2044.03 1535817
3 2044.03 1506595
3 2044.96 1494482
3 2044.96 1462419
3 2044.96 1459848
3 2044.96 1458602
3 2044.96 1449474
3 2045.87 1445887
3 2045.87 1444336
3 2045.87 1443878
3 2046.71 1439830
3 2046.71 1439125
3 2047.5 1437635
3 2048.29 1436069
3 2048.29 1433044
3 2049.86 1431116
3 2049.86 1417842
3 2049.86 1415312
3 2049.86 1415307
3 2049.86 1414384
3 2050.74 1414277
3 2051.54 1414001
3 2051.54 1413822
3 2058.2 1519394
3 2058.2 1512233
3 2058.2 1489742
3 2058.2 1485735
3 2058.2 1475742
3 2058.2 1474764
3 2058.2 1473342
3 2058.2 1466217
3 2058.2 1453887
3 2058.2 1452389
3 2058.2 1446590
3 2059.3 1444183
3 2059.3 1440641
3 2059.3 1436380
3 2059.3 1436335
3 2059.3 1432285
3 2059.3 1429174
3 2060.21 1425011
3 2060.21 1424904
3 2060.98 1424629
3 2060.98 1420641
3 2060.98 1420135
3 2062.5 1417599
3 2063.32 1415602
3 2064.14 1409264
3 2064.14 1408537
3 2068.57 1408397
3 2068.57 1406921
3 2069.35 1406846
3 2070.15 1406346
3 2070.91 1405380
3 2071.67 1404504
3 2071.67 1403460
3 2072.46 1517880
3 2072.46 1516251
3 2072.46 1503538
3 2072.46 1491082
3 2072.46 1484781
3 2072.46 1483037
3 2073.45 1482112
3 2073.45 1476750
3 2073.45 1472879
3 2073.45 1472046
3 2073.45 1465116
3 2073.45 1463756
3 2073.45 1461219
3 2074.42 1453947
3 2074.42 1452818
3 2074.42 1452711
3 2074.42 1452644
3 2075.32 1449351
3 2075.32 1438589
3 2075.32 1435258
3 2075.32 1433788
3 2075.32 1430936
3 2076.21 1430192
3 2076.21 1428369
3 2076.21 1426252
3 2076.21 1425766
3 2076.21 1422442
3 2079.41 1422136
3 2079.41 1420637
3 2080.24 1414131
3 2082.45 1413684
3 2082.45 1411846
3 2084.74 1410319
3 2085.51 1408644
3 2085.51 1405807
3 2086.3 1493040
3 2086.3 1484873
3 2086.3 1484281
3 2086.3 1483001
3 2086.3 1479498
3 2086.3 1476168
3 2086.3 1463148
3 2086.3 1454954
3 2086.3 1453566
3 2086.3 1451794
3 2087.4 1449834
3 2087.4 1448344
3 2087.4 1445937
3 2087.4 1445526
3 2087.4 1439281
3 2088.31 1436650
3 2089.25 1432130
3 2089.25 1430679
3 2089.25 1429251
3 2089.25 1428806
3 2089.25 1420765
3 2089.25 1419114
3 2089.25 1418671
3 2090.24 1415084
3 2093.49 1408491
3 2093.49 1408053
3 2094.36 1407942
3 2094.36 1405605
3 2094.36 1404474
3 2094.36 1403747
3 2095.28 1401115
3 2095.28 1401008
3 2100.55 1534485
3 2100.55 1534169
3 2100.55 1533284
3 2100.55 1526045
3 2100.55 1505716
3 2100.55 1505108
3 2100.55 1504692
3 2100.55 1504138
3 2100.55 1482687
3 2100.55 1477621
3 2100.55 1475485
3 2101.7 1455765
3 2101.7 1453408
3 2101.7 1450623
3 2102.56 1438938
3 2102.56 1436497
3 2102.56 1431829
3 2102.56 1426691
3 2104.18 1425577
3 2104.18 1425239
3 2105.11 1423170
3 2105.9 1422208
3 2105.9 1418085
3 2105.9 1414569
3 2105.9 1413325
3 2107.55 1412795
3 2108.34 1411408
3 2108.34 1409601
3 2109.17 1408954
3 2109.17 1408616
3 2110 1408356
3 2110.76 1405559
3 2111.52 1402702
3 2112.29 1402068
3 2113.07 1401396
3 2113.85 1401238
3 2114.63 1558000
3 2114.63 1552762
3 2114.63 1546773
3 2115.48 1507194
3 2115.48 1502819
3 2115.48 1501248
3 2115.48 1501226
3 2115.48 1491230
3 2116.37 1486099
3 2116.37 1479413
3 2117.19 1479169
3 2117.19 1478636
3 2117.19 1474842
3 2117.19 1463340
3 2117.19 1447936
3 2117.19 1444932
3 2118.14 1444610
3 2118.14 1435896
3 2118.14 1432098
3 2118.14 1431580
3 2119.1 1415246
3 2119.1 1414602
3 2119.1 1413517
3 2119.1 1410762
3 2119.1 1409077
3 2120.03 1408772
3 2128.31 1585276
3 2128.31 1544888
3 2128.31 1540590
3 2128.31 1527296
3 2128.31 1523374
3 2128.31 1510923
3 2128.31 1504554
3 2128.31 1495188
3 2128.31 1446762
3 2129.37 1446681
3 2129.37 1445138
3 2129.37 1430654
3 2129.37 1424791
3 2129.37 1421823
3 2130.28 1414973
3 2131.03 1411386
3 2131.03 1410488
3 2131.9 1405156
3 2131.9 1404298
3 2132.72 1403618
3 2133.57 1403328
3 2133.57 1402680
3 2133.57 1402578
3 2135.21 1400086
3 2135.21 1399979
3 2136.79 1397679
3 2136.79 1396892
3 2137.59 1396785
3 2142.09 1484256
3 2142.09 1480120
3 2142.09 1469728
3 2142.09 1468235
3 2142.09 1462261
3 2142.09 1452793
3 2142.09 1436976
3 2142.09 1435298
3 2142.09 1429113
3 2142.09 1427899
3 2143.14 1426706
3 2143.14 1424168
3 2152.85 1422790
3 2154.35 1417468
3 2155.09 1414304
3 2155.84 1412230
3 2156.58 1509959
3 2156.58 1475429
3 2156.58 1473866
3 2156.58 1466705
3 2156.58 1460005
3 2156.58 1459430
3 2156.58 1458743
3 2157.54 1458427
3 2157.54 1451497
3 2157.54 1450969
3 2157.54 1450660
3 2157.54 1447864
3 2158.42 1446953
3 2158.42 1437278
3 2158.42 1434029
3 2158.42 1433387
3 2158.42 1427243
3 2158.42 1425796
3 2159.36 1425173
3 2159.36 1424011
3 2159.36 1418356
3 2159.36 1416199
3 2160.26 1414948
3 2160.26 1413638
3 2160.26 1406379
3 2160.26 1405638
3 2160.26 1405481
3 2161.93 1401816
3 2165.38 1401191
3 2166.17 1399208
3 2166.91 1399167
3 2169.24 1396056
3 2170.05 1536895
3 2170.05 1529639
3 2170.05 1521523
3 2170.05 1517936
3 2170.05 1492425
3 2170.96 1483939
3 2170.96 1476505
3 2170.96 1459206
3 2171.83 1457658
3 2171.83 1444827
3 2171.83 1442418
3 2171.83 1441063
3 2171.83 1427606
3 2171.83 1419570
3 2171.83 1419463
3 2172.87 1419227
3 2173.7 1416733
3 2173.7 1416486
3 2173.7 1413676
3 2173.7 1410017
3 2174.57 1409290
3 2175.34 1408568
3 2176.83 1405703
3 2177.61 1403448
3 2178.4 1400021
3 2179.14 1400009
3 2180.63 1399455
3 2181.38 1399386
3 2184.27 1536129
3 2184.27 1525757
3 2184.27 1513074
3 2184.27 1508129
3 2184.27 1506144
3 2184.27 1499045
3 2184.27 1480189
3 2184.27 1471854
3 2184.27 1464638
3 2185.29 1463911
3 2185.29 1459698
3 2185.29 1453708
3 2185.29 1445659
3 2185.29 1445060
3 2186.22 1437741
3 2186.22 1437656
3 2186.22 1436956
3 2186.22 1434835
3 2186.22 1430672
3 2186.22 1430537
3 2186.22 1429810
3 2186.22 1427085
3 2188.02 1421811
3 2188.8 1415783
3 2188.8 1414737
3 2188.8 1414628
3 2188.8 1413901
3 2191.83 1412314
3 2191.83 1405415
3 2193.41 1403834
3 2194.15 1403605
3 2194.15 1401838
3 2197.82 1401324
3 2197.82 1401141
3 2198.6 1559613
3 2198.6 1546900
3 2198.6 1545940
3 2198.6 1542616
3 2198.6 1536765
3 2198.6 1530932
3 2198.6 1517543
3 2198.6 1499076
1 2198.6 1498648
3 2199.66 1489612
3 2199.66 1488343
3 2199.66 1478761
3 2199.66 1472316
3 2200.61 1472097
3 2200.61 1466287
3 2200.61 1448464
3 2202.33 1448220
3 2203.14 1445025
3 2203.14 1440768
3 2203.14 1440452
3 2204 1435318
3 2204 1427096
3 2204 1424005
3 2204 1422998
3 2204 1422809
3 2204.9 1422081
3 2204.9 1417651
3 2205.72 1416744
3 2205.72 1415254
3 2206.53 1410303
3 2207.35 1408189
3 2208.88 1407952
3 2211.91 1406683
3 2211.91 1400405
3 2211.91 1396818
3 2212.77 1496544
3 2212.77 1472652
3 2212.77 1449849
3 2212.77 1446408
3 2212.77 1445448
3 2212.77 1436893
3 2212.77 1432819
3 2213.75 1425845
3 2214.6 1417920
3 2214.6 1415864
3 2214.6 1413683
3 2214.6 1411205
3 2214.6 1409464
3 2214.6 1408486
3 2215.55 1404543
3 2217.07 1401393
3 2217.07 1401327
3 2217.07 1397067
3 2217.92 1396690
3 2219.45 1395011
3 2220.24 1393405
3 2222.56 1391758
3 2222.56 1390723
3 2223.41 1389920
3 2223.41 1389508
3 2223.41 1388428
3 2223.41 1387296
3 2225.04 1385398
3 2226.57 1501436
3 2226.57 1497912
3 2226.57 1495967
3 2226.57 1493001
3 2227.5 1487763
3 2227.5 1483646
3 2227.5 1482199
3 2227.5 1474624
3 2227.5 1474610
3 2227.5 1471471
3 2227.5 1459449
3 2227.5 1454406
3 2228.61 1453597
3 2228.61 1452883
3 2228.61 1450476
3 2228.61 1444317
3 2228.61 1439796
3 2229.57 1437395
3 2229.57 1436881
3 2229.57 1434558
3 2229.57 1433607
3 2229.57 1431036
3 2229.57 1427526
3 2230.51 1419040
3 2230.51 1415453
3 2231.36 1415026
3 2231.36 1412494
3 2231.36 1407005
3 2231.36 1406811
3 2231.36 1406393
3 2231.36 1400383
3 2232.3 1400045
3 2232.3 1391171
3 2233.1 1390776
3 2233.1 1390049
3 2233.1 1389887
3 2233.1 1389482
3 2235.51 1387668
3 2235.51 1386872
3 2235.51 1386833
3 2237.85 1384957
3 2237.85 1382768
3 2240.11 1538403
3 2240.11 1531242
3 2240.11 1514676
3 2240.11 1510512
3 2240.11 1507429
3 2240.11 1507188
3 2240.11 1504137
3 2240.11 1495651
3 2241.15 1494448
3 2241.15 1481210
3 2241.15 1468270
3 2242 1461988
3 2242 1455557
3 2242 1448168
3 2242 1448158
3 2242 1446183
3 2243.04 1443784
3 2243.04 1442504
3 2243.04 1437974
3 2243.04 1437220
3 2243.97 1436751
3 2244.76 1432626
3 2245.55 1429141
3 2246.35 1428312
3 2247.17 1426404
3 2247.17 1425207
3 2247.17 1424566
3 2248.05 1422400
3 2250.36 1420100
3 2254.26 1482695
3 2254.26 1471977
3 2254.26 1452930
3 2254.26 1450526
3 2254.26 1446742
3 2254.26 1439603
3 2254.26 1438485
3 2254.26 1438480
3 2255.3 1434814
3 2256.1 1425778
3 2257.02 1425043
3 2257.89 1413846
3 2268.39 1500464
3 2268.39 1493303
3 2268.39 1480563
3 2268.39 1473142
3 2269.32 1464656
3 2269.32 1461993
3 2269.32 1461351
3 2269.32 1452479
3 2269.32 1445937
3 2270.33 1442830
3 2270.33 1434009
3 2270.33 1431274
3 2271.26 1429352
3 2271.26 1422782
3 2274.36 1422305
3 2275.15 1418674
3 2275.15 1417947
3 2275.15 1417840
3 2275.15 1416158
3 2275.15 1413165
3 2275.15 1409841
3 2276.11 1409354
3 2276.11 1402728
3 2277.68 1401068
3 2278.49 1399743
3 2278.49 1399691
3 2279.3 1397626
3 2280.83 1396990
3 2280.83 1396883
3 2280.83 1396156
3 2282.45 1556503
3 2282.45 1541131
3 2282.45 1538233
3 2282.45 1485625
3 2282.45 1483108
3 2283.4 1470202
3 2283.4 1466615
3 2283.4 1466488
3 2283.4 1465495
3 2283.4 1462846
3 2283.4 1462053
3 2283.4 1460152
3 2283.4 1455695
3 2283.4 1455633
3 2283.4 1448140
3 2284.53 1440555
3 2284.53 1436534
3 2284.53 1436503
3 2284.53 1436256
3 2286.61 1433788
3 2286.61 1432437
3 2286.61 1429151
3 2287.47 1425629
3 2287.47 1423344
3 2287.47 1420665
3 2291.36 1420452
3 2292.16 1410539
3 2292.16 1409474
3 2292.16 1408770
3 2293.01 1406653
3 2294.51 1406361
3 2296.07 1627628
3 2296.07 1621945
3 2296.07 1569337
3 2296.07 1562695
3 2296.07 1562386
3 2296.07 1557069
3 2296.07 1556402
3 2296.07 1549296
3 2296.07 1526235
3 2296.07 1497146
3 2296.07 1495632
3 2297.22 1490122
3 2297.22 1486149
3 2297.22 1482314
3 2297.22 1480275
3 2297.22 1462654
3 2297.22 1460116
1 2298.27 1453113
3 2298.27 1439522
3 2299.21 1429689
3 2299.21 1426189
3 2299.21 1420704
3 2299.21 1417101
3 2299.21 1416172
3 2300.16 1415263
3 2300.16 1414549
3 2301.78 1412192
3 2301.78 1406876
3 2301.78 1406769
3 2302.64 1404704
3 2302.64 1403740
3 2302.64 1403010
3 2303.48 1402518
3 2303.48 1402012
3 2310.31 1534545
3 2310.31 1522653
3 2310.31 1518727
3 2310.31 1493811
3 2310.31 1477055
3 2310.31 1461683
3 2311.28 1460739
3 2311.28 1452428
3 2311.28 1446623
3 2312.2 1439151
3 2312.2 1427991
3 2312.2 1426337
3 2312.2 1423806
3 2313.17 1415772
3 2313.17 1409008
3 2314.01 1402523
3 2314.82 1402170
3 2314.82 1398992
3 2314.82 1394896
3 2315.68 1393960
3 2315.68 1393047
3 2317.19 1392906
3 2318.01 1391435
3 2318.81 1390926
3 2319.57 1390390
3 2321.07 1390039
3 2321.85 1389108
3 2322.63 1388601
3 2322.63 1387947
3 2323.43 1386287
3 2324.23 1502066
3 2324.23 1471674
3 2324.23 1468552
3 2324.23 1467092
3 2324.23 1466145
3 2324.23 1448508
3 2324.23 1443356
3 2325.22 1436607
3 2325.22 1429984
3 2325.22 1427221
3 2325.22 1427114
3 2325.22 1423556
3 2325.22 1422906
3 2325.22 1421336
3 2325.22 1420710
3 2327.09 1417749
3 2327.09 1410625
3 2327.09 1410395
3 2327.96 1409668
3 2327.96 1407571
3 2338.05 1489487
3 2338.05 1487501
3 2338.05 1464722
3 2338.05 1464294
3 2338.05 1459943
3 2338.05 1454263
3 2338.05 1453335
3 2338.05 1445984
3 2338.05 1443661
3 2339.11 1442472
3 2339.11 1438399
3 2339.11 1438179
3 2339.11 1437452
3 2339.11 1433195
3 2339.11 1431674
3 2339.11 1431652
3 2340.06 1431219
3 2340.06 1431116
3 2340.06 1430767
3 2340.06 1420979
3 2340.99 1420091
3 2341.78 1419276
3 2341.78 1418839
3 2341.78 1412849
3 2341.78 1410826
3 2341.78 1410804
3 2341.78 1406193
3 2342.7 1401892
3 2342.7 1400725
3 2345.61 1393957
3 2345.61 1392872
3 2347.12 1391345
3 2347.88 1386690
3 2347.88 1384852
3 2348.71 1382731
3 2348.71 1382571
3 2352.32 1594030
3 2352.32 1527098
3 2352.32 1515987
3 2352.32 1508594
3 2352.32 1500078
3 2352.32 1499606
3 2352.32 1489950
3 2353.33 1482021
3 2353.33 1481311
3 2353.33 1480519
3 2353.33 1478923
3 2354.26 1475693
3 2355.09 1470612
3 2355.09 1468294
3 2355.09 1457807
3 2355.93 1451652
3 2355.93 1448916
3 2355.93 1448449
3 2355.93 1446422
3 2356.86 1446315
3 2356.86 1439760
3 2357.68 1438227
3 2357.68 1436926
3 2357.68 1436404
3 2358.56 1434365
3 2358.56 1431034
3 2359.36 1428680
3 2359.36 1427649
3 2359.36 1424758
3 2359.36 1423242
3 2359.36 1420895
3 2359.36 1420091
3 2359.36 1419762
3 2360.3 1419156
3 2361.07 1418534
3 2361.07 1416412
3 2361.07 1415685
3 2361.89 1414628
3 2361.89 1414197
3 2361.89 1412564
3 2363.48 1409257
3 2364.25 1408520
3 2364.25 1407914
3 2366.5 1513752
3 2366.5 1504716
3 2366.5 1498421
3 2366.5 1487880
3 2366.5 1484066
3 2368.24 1467781
3 2368.24 1464576
3 2369.17 1454300
3 2369.17 1447425
3 2369.17 1444728
3 2369.17 1439421
3 2369.17 1439000
3 2369.17 1433067
3 2369.17 1428904
3 2370.21 1428797
3 2370.98 1428025
3 2373.26 1425158
3 2373.26 1424886
3 2375.51 1424275
3 2375.51 1424168
3 2380.07 1505236
3 2380.07 1465813
3 2380.07 1465504
3 2380.07 1462043
3 2380.07 1456996
3 2380.07 1446318
3 2381.06 1442329
3 2381.06 1440084
3 2381.06 1438819
3 2381.06 1437837
3 2381.96 1437533
3 2381.96 1429894
3 2381.96 1429350
3 2381.96 1421479
3 2381.96 1410233
3 2384.47 1409047
3 2384.47 1407829
3 2384.47 1407636
3 2385.37 1406154
3 2387.32 1406107
3 2387.32 1405460
3 2387.32 1404324
3 2388.27 1403071
3 2388.27 1398871
3 2388.27 1397320
3 2389.13 1395348
3 2389.13 1394621
3 2389.13 1392342
3 2389.13 1391805
3 2389.13 1391330
3 2394.13 1519868
3 2394.13 1505896
3 2394.13 1467824
3 2394.98 1460585
3 2394.98 1458788
3 2394.98 1454071
3 2394.98 1437574
3 2394.98 1437365
3 2394.98 1434723
3 2394.98 1434365
3 2395.76 1430951
3 2395.76 1427783
3 2395.76 1427324
3 2395.76 1423161
3 2396.38 1421131
3 2396.38 1420374
3 2396.38 1418497
3 2399.44 1409379
3 2400 1406972
3 2401.83 1406674
3 2401.83 1405026
3 2402.43 1402372
3 2402.43 1401804
3 2402.43 1399275
3 2403.59 1396594
3 2405.17 1395498
3 2405.17 1394610
3 2405.77 1392735
3 2408.36 1578210
3 2408.36 1561970
3 2408.36 1554236
3 2408.36 1516754
3 2408.36 1508145
3 2408.36 1496561
3 2408.36 1496188
3 2408.36 1490072
3 2408.36 1485236
3 2409.15 1474047
3 2409.15 1470488
3 2409.15 1468241
3 2409.15 1466325
3 2409.8 1463183
3 2409.8 1461271
3 2409.8 1458067
3 2409.8 1454771
3 2410.46 1443839
3 2410.46 1436931
3 2411.05 1434524
3 2411.05 1432781
3 2411.05 1432256
3 2411.67 1430217
3 2411.67 1429772
3 2411.67 1427428
3 2412.26 1425230
3 2412.26 1422003
3 2412.91 1421896
3 2412.91 1414592
3 2416.82 1412880
3 2421.6 1410936
3 2421.6 1409780
3 2422.43 1581076
3 2422.43 1554143
3 2422.43 1550020
3 2422.43 1539363
3 2422.43 1526608
3 2422.43 1517999
3 2422.43 1483469
3 2422.43 1481435
3 2423.5 1474614
3 2423.5 1465958
3 2423.5 1463695
3 2424.48 1461288
3 2424.48 1460607
3 2425.37 1449655
1 2425.37 1449387
3 2425.37 1449300
3 2425.37 1444995
3 2425.37 1436284
3 2426.32 1429833
3 2426.32 1428994
3 2427.15 1427866
3 2427.15 1427615
3 2427.15 1424028
3 2427.15 1420704
3 2427.15 1410509
3 2434.22 1410025
3 2434.22 1409425
3 2436.62 1582850
3 2436.62 1558852
3 2436.62 1558261
3 2436.62 1556445
3 2436.62 1541546
3 2436.62 1532385
3 2436.62 1519974
3 2437.64 1518136
3 2437.64 1507645
3 2437.64 1500162
3 2437.64 1489399
3 2437.64 1486399
3 2437.64 1486325
3 2438.7 1473757
3 2440.39 1465446
3 2440.39 1465289
3 2440.39 1460748
3 2440.39 1457685
3 2440.39 1455421
3 2441.31 1451435
3 2441.31 1441839
3 2441.31 1440013
3 2442.15 1439320
3 2442.15 1437059
3 2442.96 1435568
3 2442.96 1433355
3 2442.96 1432410
3 2443.8 1431191
3 2444.94 1425268
3 2445.59 1421476
3 2445.59 1420809
3 2446.18 1413228
3 2446.18 1412466
3 2446.76 1412338
3 2446.76 1410500
3 2450.26 1476997
3 2450.26 1461054
3 2450.83 1455959
3 2450.83 1448299
3 2452 1447004
3 2452 1442772
3 2452 1438811
3 2452 1437066
3 2452 1427498
3 2452 1416936
3 2452.66 1414529
3 2452.66 1413666
3 2452.66 1413414
3 2453.28 1412718
3 2453.28 1411742
3 2453.28 1410253
3 2453.28 1409552
3 2453.28 1409335
3 2456.48 1408580
3 2456.48 1404314
3 2457.06 1400255
3 2457.06 1395278
3 2457.06 1394245
3 2457.69 1394116
3 2458.24 1392402
3 2464.27 1553730
3 2464.27 1546331
3 2464.27 1517466
3 2464.27 1517150
3 2464.27 1511912
3 2464.27 1486156
3 2464.27 1471440
3 2464.27 1467630
3 2465.3 1466863
3 2466.07 1455298
3 2466.07 1439301
3 2466.07 1438777
3 2466.07 1435190
3 2466.95 1431904
3 2467.73 1422188
3 2467.73 1419781
3 2467.73 1416532
3 2468.62 1413525
3 2469.45 1413364
3 2469.45 1410694
3 2469.45 1408287
3 2469.45 1407592
3 2469.45 1405910
3 2469.45 1403066
3 2470.38 1400585
3 2470.38 1400168
3 2470.38 1399023
3 2478.67 1647068
3 2478.67 1639907
3 2478.67 1604283
3 2478.67 1590411
3 2478.67 1585758
3 2478.67 1551639
3 2478.67 1511167
3 2478.67 1506223
3 2478.67 1500863
3 2478.67 1490384
3 2478.67 1488104
3 2478.67 1477191
3 2478.67 1477117
3 2479.91 1456804
3 2479.91 1445854
3 2479.91 1443335
3 2479.91 1437557
3 2479.91 1436441
3 2479.91 1434214
3 2480.98 1425071
3 2480.98 1423581
3 2480.98 1423066
3 2480.98 1416101
3 2481.89 1414755
3 2482.66 1412300
3 2482.66 1411218
3 2482.66 1409433
3 2482.66 1405914
3 2482.66 1403575
3 2482.66 1403203
3 2483.6 1402327
3 2484.39 1401713
3 2484.39 1397829
3 2485.26 1397797
3 2487.61 1389975
3 2488.48 1389870
3 2490 1389486
3 2492.72 1492896
3 2492.72 1480845
3 2492.72 1474958
3 2493.65 1461189
3 2493.65 1458228
3 2493.65 1454239
3 2493.65 1454065
3 2494.57 1452320
3 2494.57 1446941
3 2494.57 1437421
3 2494.57 1418756
3 2495.48 1414797
3 2495.48 1413883
3 2498.91 1413414
3 2498.91 1410946
3 2499.76 1409720
3 2502.15 1409640
3 2502.98 1408297
3 2506.09 1473329
3 2506.09 1469292
3 2506.09 1464808
3 2506.09 1462784
3 2506.09 1454105
3 2507.11 1453952
3 2507.11 1450448
3 2508.09 1443877
3 2508.09 1437735
3 2508.98 1437191
3 2508.98 1436301
3 2508.98 1433243
3 2508.98 1430203
3 2508.98 1427465
3 2509.69 1426284
3 2510.72 1426039
3 2520.03 1587794
3 2520.03 1557957
3 2520.03 1548082
3 2520.03 1512147
3 2520.03 1496745
3 2520.03 1491143
3 2520.03 1459266
3 2520.03 1455685
3 2520.03 1452280
3 2520.03 1450442
3 2520.03 1449472
3 2521 1449296
3 2521 1436673
3 2521 1433955
3 2521 1432922
3 2521 1431621
3 2521 1430086
3 2521 1421116
3 2521.79 1413556
3 2521.79 1411718
3 2522.55 1411496
3 2522.55 1402549
3 2522.55 1402317
3 2523.34 1402302
3 2523.34 1397665
3 2523.34 1397417
3 2524.18 1391800
3 2535.28 1514025
3 2535.28 1503588
3 2535.28 1500777
3 2535.28 1499619
3 2535.28 1492369
3 2535.28 1486516
3 2535.28 1482603
3 2535.28 1481051
3 2535.28 1474652
3 2535.28 1471065
3 2536.55 1458968
3 2536.55 1452195
3 2537.59 1445029
3 2537.59 1442639
3 2538.57 1439412
3 2538.57 1426406
3 2539.37 1425913
3 2539.37 1424568
3 2539.37 1424328
3 2539.37 1423019
3 2539.37 1422806
3 2539.37 1419339
3 2541.07 1417829
3 2541.07 1417722
3 2541.07 1415547
3 2541.93 1415458
3 2541.93 1412769
3 2541.93 1412419
3 2541.93 1411295
3 2541.93 1405517
3 2542.82 1403679
3 2545.64 1397172
3 2545.64 1396130
3 2546.45 1392504
3 2547.21 1388917
3 2548.65 1650776
3 2548.65 1609490
3 2548.65 1607311
3 2548.65 1591314
3 2548.65 1589906
3 2548.65 1581048
3 2548.65 1574534
3 2549.66 1573922
3 2549.66 1561779
3 2549.66 1546382
3 2549.66 1542418
3 2549.66 1541930
3 2549.66 1541046
3 2549.66 1538336
3 2549.66 1520479
3 2549.66 1496799
3 2549.66 1495915
3 2549.66 1488620
3 2549.66 1483382
3 2549.66 1478976
3 2550.91 1477502
3 2550.91 1454368
3 2550.91 1449931
3 2550.91 1435250
3 2550.91 1433915
3 2551.79 1429310
3 2551.79 1424605
3 2551.79 1423711
3 2551.79 1422075
3 2553.32 1419739
3 2553.32 1419110
3 2553.9 1415081
3 2553.9 1414386
3 2554.47 1412559
3 2554.47 1412088
3 2555.56 1411594
3 2555.56 1405435
3 2555.56 1403518
3 2556.15 1401680
3 2556.69 1398836
3 2557.22 1395857
3 2557.79 1393823
3 2559.91 1392404
3 2560.43 1391416
3 2562.42 1565627
3 2562.42 1544631
3 2562.42 1528634
3 2562.42 1515228
3 2562.42 1515110
3 2562.42 1497839
3 2562.42 1489726
3 2562.42 1477550
3 2562.42 1474548
3 2563.21 1473619
3 2563.21 1473384
3 2563.21 1464037
3 2563.21 1455799
3 2563.21 1448244
3 2563.21 1447372
3 2563.21 1444641
3 2563.93 1442134
3 2563.93 1440478
3 2563.93 1438875
3 2564.56 1438002
3 2564.56 1432721
3 2565.12 1431764
3 2565.12 1425698
3 2565.12 1423478
3 2565.12 1423162
3 2565.12 1412985
3 2565.78 1407621
3 2565.78 1407560
3 2565.78 1406708
3 2566.37 1405598
3 2566.93 1400603
3 2567.73 1399865
3 2568.48 1395702
3 2569.07 1395693
3 2569.6 1393896
3 2569.6 1392468
3 2569.6 1390953
3 2570.68 1388304
3 2571.2 1386657
3 2576.2 1493036
3 2576.2 1477498
3 2576.2 1474647
3 2576.2 1471508
3 2576.2 1463197
3 2576.2 1461404
3 2576.91 1455245
3 2576.91 1452115
3 2576.91 1450429
3 2577.53 1448773
3 2577.53 1440380
3 2577.53 1439737
3 2577.53 1438525
3 2578.18 1431126
3 2578.18 1428719
3 2578.18 1427072
3 2578.18 1418761
3 2580.91 1411066
3 2580.91 1408469
3 2581.49 1406338
3 2581.49 1406087
3 2581.49 1400997
3 2581.49 1399951
3 2581.49 1393483
3 2582.18 1391835
3 2583.78 1391391
3 2583.78 1391255
3 2583.78 1388369
3 2590.51 1516795
3 2590.51 1514146
3 2590.51 1506985
3 2590.51 1501461
3 2590.51 1499235
3 2590.51 1498769
3 2590.51 1493373
3 2591.55 1488246
3 2591.55 1469656
3 2591.55 1465493
3 2591.55 1463898
3 2591.55 1458941
3 2591.55 1437433
3 2592.52 1437365
3 2592.52 1435043
3 2592.52 1434316
3 2593.39 1430394
3 2593.39 1426490
3 2593.39 1424592
3 2594.35 1422375
3 2594.35 1421338
3 2594.35 1420907
3 2594.35 1418673
3 2594.35 1410375
3 2595.36 1407054
3 2595.36 1405181
3 2597.01 1405153
3 2597.86 1405072
3 2598.67 1399834
3 2599.47 1397073
3 2599.47 1395660
3 2600.31 1393590
3 2600.31 1392873
3 2600.31 1390670
3 2601.18 1390309
3 2601.18 1390218
3 2601.18 1386992
3 2602.1 1385245
3 2602.91 1383349
3 2604.51 1497755
3 2604.51 1490226
3 2604.51 1478295
3 2604.51 1476304
3 2604.51 1475554
3 2604.51 1472368
3 2604.51 1459663
3 2604.51 1443803
3 2604.51 1443076
3 2604.51 1440992
3 2605.62 1436216
3 2605.62 1433628
3 2605.62 1431651
3 2606.52 1430041
3 2606.52 1423364
3 2606.52 1417903
3 2607.43 1416272
3 2607.43 1414927
3 2607.43 1413012
3 2608.4 1408877
3 2608.4 1408335
3 2608.4 1407915
3 2608.4 1406830
3 2608.4 1406288
3 2608.4 1406163
3 2609.41 1406150
3 2609.41 1404921
3 2610.28 1403793
3 2610.28 1403614
3 2610.28 1401738
3 2610.28 1398151
3 2610.28 1396814
3 2611.25 1395825
3 2612.08 1395803
3 2612.94 1395661
3 2612.94 1395147
3 2612.94 1394136
3 2612.94 1389135
3 2613.86 1387232
3 2618.41 1505784
3 2618.41 1481349
3 2618.41 1473704
3 2618.41 1466543
3 2618.41 1444353
3 2618.41 1441482
3 2618.41 1431356
3 2618.41 1428711
3 2618.41 1422719
3 2619.49 1421977
3 2619.49 1418535
3 2620.16 1414932
3 2620.16 1414825
3 2620.83 1410723
3 2620.83 1408443
3 2620.83 1408095
3 2621.52 1407733
3 2622.12 1405231
3 2622.12 1402723
3 2623.45 1400970
3 2624.1 1399787
3 2624.1 1399583
3 2624.1 1399165
3 2624.79 1397747
3 2625.39 1397289
3 2625.96 1393658
3 2626.57 1392184
3 2626.57 1389915
3 2626.57 1384815
3 2627.24 1381228
3 2627.83 1378508
3 2629.47 1377924
3 2631.64 1376410
3 2631.64 1376295
3 2632.53 1540676
3 2632.53 1531552
3 2632.53 1519225
3 2632.53 1507374
3 2632.53 1505607
3 2632.53 1501847
3 2632.53 1487863
3 2632.53 1487127
3 2632.53 1481967
3 2632.53 1480200
3 2632.53 1474391
3 2632.53 1468613
3 2632.53 1465620
3 2632.53 1458181
3 2632.53 1457591
3 2632.53 1453315
3 2633.89 1442507
3 2633.89 1437940
3 2633.89 1436357
3 2633.89 1434373
3 2634.83 1431977
3 2634.83 1431516
3 2634.83 1431094
3 2635.78 1429428
3 2636.61 1421240
3 2638.26 1419657
3 2639.08 1416167
3 2639.94 1415112
3 2646.5 1510072
3 2646.5 1508470
3 2646.5 1483569
3 2646.5 1480277
3 2646.5 1475616
3 2646.5 1464480
3 2646.5 1463970
3 2646.5 1462073
3 2646.5 1458192
3 2647.58 1452383
3 2647.58 1450253
3 2647.58 1448733
3 2647.58 1448626
3 2647.58 1443293
3 2647.58 1434851
3 2647.58 1433300
3 2648.58 1427522
3 2648.58 1425376
3 2649.41 1423022
3 2649.41 1418351
3 2649.41 1416188
3 2651.82 1414907
3 2651.82 1404566
3 2651.82 1402728
3 2652.69 1402001
3 2652.69 1399433
3 2653.48 1399093
3 2653.48 1398665
3 2653.48 1397312
3 2654.34 1397303
3 2654.34 1396318
3 2654.34 1391313
3 2658.9 1391016
3 2660.35 1595096
3 2660.35 1549097
3 2660.35 1533881
3 2660.35 1526326
3 2660.35 1523758
3 2660.35 1519763
3 2660.35 1507910
3 2660.35 1506243
3 2660.35 1495771
3 2660.35 1493364
3 2661.45 1489674
3 2661.45 1483896
3 2661.45 1482751
3 2661.45 1477267
3 2662.3 1469761
1 2663.07 1467587
3 2663.07 1465056
3 2663.07 1463622
3 2663.07 1450374
3 2663.07 1449652
3 2663.07 1448077
3 2663.07 1447649
3 2664.01 1443296
3 2664.77 1441293
3 2664.77 1441192
3 2664.77 1438884
3 2664.77 1437438
3 2664.77 1433851
3 2664.77 1425365
3 2665.7 1425008
3 2665.7 1421842
3 2666.49 1421176
3 2666.49 1420714
3 2666.49 1418878
3 2668.03 1415131
3 2668.03 1414822
3 2668.03 1414208
3 2668.83 1413519
3 2669.57 1410857
3 2669.57 1407529
3 2669.57 1406159
3 2670.39 1401894
3 2671.2 1401303
3 2671.2 1398039
3 2672.04 1397731
1 2674.21 1611166
3 2674.21 1603920
3 2674.21 1572386
3 2674.21 1563143
3 2674.21 1562953
3 2674.21 1551763
3 2674.21 1538220
3 2674.21 1511291
3 2674.21 1505760
3 2674.21 1502252
3 2675.28 1501943
3 2675.28 1480385
3 2675.28 1480060
3 2675.28 1472817
3 2675.28 1470919
3 2675.28 1466153
3 2675.28 1463746
3 2675.28 1461638
3 2676.22 1459358
3 2676.22 1452544
3 2676.22 1446595
3 2676.22 1441087
3 2676.22 1440514
3 2677.07 1440015
3 2677.07 1432514
3 2678.55 1432494
3 2678.55 1428218
3 2678.55 1427742
3 2679.39 1425433
3 2680.16 1424967
3 2680.92 1423478
3 2688.13 1508607
3 2688.13 1502070
3 2688.13 1491687
3 2688.13 1482444
3 2688.13 1478919
3 2689.08 1475419
3 2689.08 1460435
3 2689.91 1460075
3 2689.91 1439841
3 2689.91 1438118
3 2690.76 1437391
3 2690.76 1432790
3 2690.76 1432046
3 2692.3 1430251
3 2693.07 1428459
3 2694.61 1428413
3 2694.61 1427526
3 2694.61 1423570
3 2696.15 1423149
3 2697.62 1422394
3 2697.62 1420671
3 2698.42 1413580
3 2700.66 1411428
3 2702.22 1490780
3 2702.22 1484582
3 2702.22 1483092
3 2702.22 1481300
3 2702.22 1477094
3 2702.22 1474483
3 2702.22 1453010
3 2702.22 1447464
3 2703.22 1442523
3 2703.22 1441920
3 2703.22 1438596
3 2703.22 1435439
3 2704.08 1434265
3 2704.08 1432987
3 2704.08 1432102
3 2704.08 1423616
3 2704.93 1422847
3 2705.67 1420610
3 2705.67 1413555
3 2705.67 1410958
3 2706.51 1410690
3 2707.26 1407809
3 2707.26 1407807
3 2708.04 1407481
3 2708.04 1407422
3 2708.04 1403579
3 2708.89 1398979
3 2709.54 1397489
3 2710.16 1397382
3 2710.16 1396418
3 2712.61 1393800
3 2713.85 1392125
3 2713.85 1392107
3 2714.53 1391486
3 2715.8 1391380
3 2716.46 1657001
3 2716.46 1645205
3 2716.46 1620493
3 2716.46 1615663
3 2716.46 1563055
3 2716.46 1554669
3 2717.33 1498103
3 2717.33 1494139
3 2717.33 1475032
3 2717.33 1472675
3 2717.33 1470395
3 2717.33 1468781
3 2717.33 1462943
3 2717.33 1451746
3 2718.15 1450407
3 2718.15 1439285
3 2718.15 1438362
3 2718.15 1437655
3 2718.15 1428834
3 2718.15 1425350
3 2718.86 1425019
3 2718.86 1424724
3 2719.53 1424616
3 2719.53 1422603
3 2719.53 1417061
3 2719.53 1416192
3 2719.53 1414108
3 2719.53 1413083
3 2720.33 1411422
3 2720.99 1410123
3 2723.01 1409457
3 2723.01 1406468
3 2724.31 1405860
3 2724.31 1403415
3 2724.85 1402380
3 2726.31 1402135
3 2727.3 1401772
3 2727.9 1401269
3 2728.41 1400629
3 2729.38 1400101
3 2730.36 1525739
3 2730.36 1517771
3 2730.36 1487379
3 2730.36 1483792
3 2730.36 1457711
3 2730.36 1454415
3 2730.36 1448934
3 2731.05 1445932
3 2731.58 1445137
3 2732.12 1438274
3 2732.12 1433757
3 2732.12 1427635
3 2732.12 1427081
3 2732.71 1424726
3 2732.71 1424647
3 2733.24 1424514
3 2733.24 1423944
3 2733.76 1423802
3 2733.76 1421952
3 2733.76 1419784
3 2733.76 1411596
3 2734.59 1408084
3 2734.59 1407968
3 2734.59 1405254
3 2735.15 1402332
3 2735.15 1399987
3 2735.15 1396032
3 2735.7 1393954
3 2735.7 1392534
3 2736.22 1389538
3 2737.29 1388712
3 2738.89 1388236
3 2738.89 1385008
3 2739.7 1384066
3 2740.28 1383610
3 2740.28 1382458
3 2744.14 1509142
3 2744.14 1471967
3 2744.14 1469401
3 2744.14 1457990
3 2744.14 1452685
3 2744.14 1447791
3 2744.14 1446301
3 2744.14 1420859
3 2744.14 1420752
3 2744.86 1420683
3 2745.37 1420226
3 2745.37 1417544
3 2746.87 1416902
3 2749.81 1412995
3 2750.33 1406886
3 2751.07 1406806
3 2751.57 1406490
3 2752.06 1406383
3 2752.6 1405271
3 2752.6 1401490
3 2753.14 1392889
3 2758.02 1457133
3 2758.02 1455425
3 2758.02 1442019
3 2758.02 1440529
3 2758.02 1439183
3 2758.02 1438737
3 2758.02 1436366
3 2758.02 1435596
3 2758.76 1427285
3 2761.26 1426765
3 2761.26 1424175
3 2761.26 1420998
3 2761.26 1420412
3 2761.88 1411542
3 2762.4 1411435
3 2762.92 1409528
3 2762.92 1408427
3 2762.92 1408049
3 2762.92 1402993
3 2762.92 1402399
3 2772.27 1493833
3 2772.27 1482603
3 2772.27 1480101
3 2772.27 1477176
3 2772.27 1474443
3 2772.27 1467806
3 2772.27 1466154
3 2772.27 1465240
3 2772.27 1465181
3 2772.27 1460718
3 2772.27 1459586
3 2772.27 1442579
3 2773.08 1440700
3 2773.08 1436898
3 2773.08 1435153
3 2773.08 1427880
3 2773.08 1425462
3 2773.08 1425456
3 2773.75 1423320
3 2773.75 1421830
3 2774.76 1421544
3 2774.76 1419992
3 2779.26 1419907
3 2779.76 1418608
3 2779.76 1418385
3 2779.76 1417983
3 2780.85 1416264
3 2781.36 1411795
3 2781.87 1411053
3 2786.42 1583031
3 2786.42 1572370
3 2786.42 1572034
3 2786.42 1571725
3 2786.42 1546992
3 2786.42 1531015
3 2786.42 1524085
3 2786.42 1516552
3 2787.41 1511333
3 2787.41 1503022
3 2787.41 1490309
3 2788.04 1489258
3 2788.04 1477726
3 2788.04 1472744
3 2788.04 1465309
3 2788.04 1448214
3 2789.16 1438545
3 2789.16 1429509
3 2789.16 1428995
3 2789.16 1426193
3 2789.75 1425158
3 2790.27 1424007
3 2790.27 1418380
3 2790.82 1417980
3 2792.38 1415698
3 2793.86 1414971
3 2797.76 1412634
3 2797.76 1412527
3 2798.8 1410134
3 2799.79 1410120
Score = 1404795
