    Blocking waiting for file lock on package cache
    Blocking waiting for file lock on package cache
    Blocking waiting for file lock on package cache
    Finished release [optimized] target(s) in 0.04s
     Running `target/release/tester ../a.out 0041`
3 5.941 1030455
3 5.941 1011674
3 5.941 1006735
3 5.941 984852
3 5.941 973482
3 5.941 945715
3 5.941 937023
3 5.941 920842
3 5.941 917786
3 5.941 916130
3 6.488 915616
3 6.488 909581
3 6.488 908333
3 6.488 903394
3 7.033 902064
3 7.033 899441
3 7.033 882353
3 7.554 881510
3 8.004 875288
3 8.46 870163
3 8.46 868226
3 8.46 864409
3 8.947 857723
3 14.086 929011
3 14.086 922509
3 14.086 917570
3 14.086 915400
3 14.086 913036
3 14.511 909449
3 14.511 908730
3 14.511 903203
3 14.511 897896
3 14.511 895169
3 14.511 894340
3 14.931 892987
3 14.931 888328
3 15.45 888275
3 16.897 885910
3 17.397 883775
3 17.397 879474
3 17.397 875977
3 17.873 874629
3 18.741 865702
3 18.741 864485
3 19.184 863191
3 19.598 856689
3 28.293 948725
3 28.293 942086
3 28.293 938392
3 28.819 918653
3 28.819 904490
3 28.819 899623
3 28.819 895087
3 29.727 894936
3 30.16 890375
3 30.16 887181
3 30.16 886148
3 30.979 873558
3 30.979 872574
3 31.646 871060
3 34.162 867659
3 34.162 866333
3 34.62 863087
3 36.562 861764
3 36.562 858177
3 36.562 856398
3 36.856 856321
3 37.38 851686
3 42.365 1075151
3 42.365 1029674
3 42.365 1027573
3 42.365 1011311
3 42.365 1006599
3 42.365 1000159
3 42.771 925425
3 42.771 921823
3 42.771 918055
3 42.771 915782
3 42.771 903401
3 42.771 891982
3 43.102 887066
3 43.102 885736
3 43.102 881592
3 43.102 879514
3 43.102 879160
3 43.408 877844
3 43.408 874343
3 43.94 874318
3 43.94 873639
3 43.94 872395
3 43.94 870540
3 44.348 867683
3 44.663 866953
3 44.663 862267
3 46.199 858080
3 46.474 857905
3 46.797 856557
3 56.065 1025290
3 56.065 1009188
3 56.065 1002748
3 56.065 999161
3 56.065 971990
3 56.065 970664
3 56.065 960937
3 56.065 949655
3 56.065 926078
3 56.065 917882
3 56.637 917684
3 56.637 915005
3 56.637 913855
3 56.637 911880
3 56.637 895231
3 56.962 887365
3 56.962 881534
3 56.962 874848
3 56.962 873439
3 56.962 871261
3 57.297 869913
3 57.815 862020
1 69.852 860554
3 70.135 1030602
3 70.135 985125
3 70.135 971819
3 70.135 959343
3 70.135 940788
3 70.135 931270
3 70.135 919197
3 70.5 917866
3 70.5 911426
3 70.5 903650
3 70.5 901339
3 71.602 899991
3 71.602 899748
3 71.602 888472
3 71.896 875346
3 71.896 872669
3 71.896 866447
3 71.896 863801
3 71.896 861526
3 72.211 859018
3 72.464 857841
3 73.761 854511
3 74.215 852047
3 74.215 846961
3 74.215 843374
3 75.759 840903
3 84.2 976508
3 84.2 964523
3 84.2 963605
3 84.2 928743
3 84.2 919906
3 84.2 913466
3 84.2 911060
3 84.2 906248
3 84.2 897454
3 84.588 882185
3 85.135 879299
3 85.401 876727
3 85.401 874915
3 85.682 873589
3 85.942 871814
3 85.942 868643
3 88.578 854346
3 89.011 854317
3 89.011 853938
3 98.098 943586
3 98.098 939999
3 98.098 927386
3 98.098 911397
3 98.098 910036
3 98.098 902222
3 98.456 896000
3 98.456 895772
3 98.456 894408
3 98.456 887968
3 98.456 884366
3 98.456 878144
3 98.826 876814
3 98.826 876069
3 99.103 873432
3 99.103 871899
3 99.103 869220
3 99.639 861406
3 99.639 860058
3 99.639 859931
3 99.981 856964
3 99.981 852836
3 99.981 849459
3 99.981 846959
3 101.675 845818
3 101.675 845456
3 111.6 841455
3 112.015 942744
3 112.015 937805
3 112.015 922389
3 112.015 915703
3 112.015 906351
3 112.015 899601
3 112.015 896922
3 112.015 896018
3 112.015 892431
3 112.54 886605
3 112.789 886110
3 112.789 884959
3 113.067 880247
3 113.067 880050
3 113.714 878720
3 114.361 877615
3 114.361 870170
3 114.361 865158
3 114.361 864398
3 114.748 861736
3 114.748 861579
3 114.748 860231
3 114.748 854751
3 115.904 853686
3 115.904 850523
3 126.215 1125977
3 126.215 1092766
3 126.215 1063089
3 126.215 1051158
3 126.215 1044936
3 126.215 1044487
3 126.215 1002051
3 126.215 993414
3 126.215 987084
3 126.215 977822
3 126.215 959402
3 126.215 959364
3 126.803 951550
3 127.094 930541
3 127.094 924319
3 127.094 924250
3 127.094 913996
3 127.094 911212
3 127.403 911093
3 127.955 908361
3 127.955 902945
3 127.955 902905
3 128.814 888733
3 130.739 887888
3 131.191 886028
3 140.101 1045329
3 140.101 999852
3 140.101 993733
3 140.101 935578
3 140.101 931109
3 140.101 926941
3 140.101 922229
3 140.649 901318
3 140.649 899653
3 140.649 897127
3 140.974 896379
3 140.974 896066
3 141.251 891354
3 141.512 882288
3 141.512 878896
3 141.512 878544
3 141.512 860266
3 141.512 860125
3 141.886 856789
3 142.319 851333
3 143.18 849477
3 145.1 848147
3 154.093 1046339
3 154.093 1041627
3 154.093 985024
3 154.093 961369
3 154.093 928820
3 154.093 925102
3 154.093 906321
3 154.093 906180
3 154.093 898507
3 154.093 893568
3 154.093 881379
3 154.093 881060
3 154.093 876183
3 154.733 875798
3 154.733 873725
1 167.448 864304
3 168.164 965687
3 168.164 961061
3 168.164 954873
3 168.164 937040
3 168.164 919857
3 168.164 917221
3 168.164 916270
3 168.588 910048
3 168.588 909599
3 168.588 907656
3 168.588 899304
3 168.588 894960
3 168.588 894559
3 168.964 892780
3 168.964 887179
3 168.964 880957
3 168.964 880544
3 169.289 876957
3 169.781 876374
3 170.034 875107
3 170.655 874517
1 171.278 873198
3 171.278 870467
3 180.917 870102
1 182.198 1118509
3 182.198 1078752
3 182.198 1072530
3 182.198 998427
3 182.198 989624
3 182.198 983184
3 182.198 968382
3 182.198 968341
3 182.198 938482
3 182.198 922249
3 182.198 919758
3 182.808 910855
3 182.808 906305
3 182.808 904633
3 182.808 904030
3 182.808 902755
3 182.808 894519
3 182.808 889257
3 183.333 886560
3 183.333 872471
3 183.333 868884
3 184.219 865696
3 184.219 863692
3 186.803 860723
3 186.803 860492
3 186.803 860300
3 187.278 859632
3 187.278 850521
3 187.278 848264
3 187.738 848046
3 187.738 845281
3 187.738 845029
3 188.213 844677
3 191.364 842789
3 196.34 1090670
3 196.34 1086702
3 196.34 1085667
3 196.34 1077853
3 196.34 1052130
3 196.34 1006296
3 196.34 1000920
3 196.34 984666
3 196.34 977349
3 196.34 956624
3 196.34 937633
3 196.34 915922
3 196.34 899809
3 196.34 889108
3 196.829 888581
3 196.829 883134
3 196.829 882185
3 196.829 880134
3 197.142 879424
3 197.142 878076
3 197.924 866585
3 198.316 864262
3 198.316 862936
3 200.724 861669
3 200.724 858275
3 201.585 858189
3 202.01 857904
3 202.01 857845
3 202.447 856927
3 210.092 1039281
3 210.092 1039155
3 210.092 1035568
3 210.092 1034220
3 210.092 982519
3 210.092 977476
3 210.092 970972
3 210.092 970790
3 210.092 964532
3 210.092 933570
3 210.092 930590
3 210.671 922211
3 210.671 901202
3 210.671 882861
3 211 881299
3 211 880395
3 211.274 874212
3 211.274 871486
1 211.274 870036
3 211.274 867772
3 211.274 867261
3 214.227 860316
3 224.305 992993
3 224.305 992706
3 224.305 986266
3 224.305 984915
3 224.305 963074
3 224.305 962625
3 224.858 946074
3 224.858 916863
3 225.35 910008
3 225.35 899232
3 225.815 898489
3 229.778 894678
3 230.273 871637
3 230.553 864549
3 230.819 862412
3 231.086 856713
3 238.152 1088162
3 238.152 1065227
3 238.152 1048405
3 238.152 1026670
3 238.152 1002928
3 238.152 996488
3 238.152 970230
3 238.152 969134
3 238.152 966961
1 238.152 964008
3 238.152 955856
3 238.583 946460
3 238.583 945012
3 238.583 934214
3 238.583 933493
3 238.583 930627
3 238.583 903532
3 238.583 901791
3 238.583 896595
3 239.121 894815
3 239.121 892382
3 239.121 892114
3 239.121 889957
3 239.121 887006
3 240.713 885473
3 240.713 885468
3 240.713 884120
3 242.278 875503
1 247.947 859244
3 248.259 856778
3 252.093 1049179
3 252.093 1000999
3 252.093 978433
3 252.093 973966
3 252.093 964968
3 252.093 961381
3 252.093 934944
3 252.484 906214
3 252.758 892975
3 252.758 888108
3 252.758 885052
3 253.074 884503
3 253.074 883155
3 257.203 873068
3 257.726 865291
3 257.726 864290
3 257.726 862964
3 257.726 862617
3 258.129 854983
3 258.129 853454
3 258.129 852128
3 266.076 1065407
3 266.076 1042930
3 266.076 1040493
3 266.076 1032095
3 266.076 1010384
3 266.076 988501
3 266.076 966787
3 266.076 938084
3 266.642 921919
3 266.642 897926
3 266.642 886960
3 267.126 868844
3 267.126 856505
3 280.232 1011487
3 280.232 943683
3 280.232 937461
3 280.232 915578
3 280.232 913621
3 280.56 912273
3 280.56 910167
3 280.56 899595
3 280.56 898648
3 280.56 894606
3 280.56 893709
3 280.924 881617
3 280.924 873863
3 281.228 865270
3 281.228 863450
3 281.228 861144
3 282.131 859818
3 294.251 1072321
3 294.251 1064507
3 294.251 987176
3 294.251 985201
3 294.251 952060
3 294.251 943047
3 294.251 938335
3 294.251 936987
3 294.251 925652
3 294.251 918206
3 294.251 914661
3 294.877 911766
3 294.877 889250
3 294.877 880891
3 296.381 880649
3 296.381 877763
3 297.251 876697
3 297.251 872824
3 308.4 1037981
3 308.4 1031541
3 308.4 1005115
3 308.4 1004000
3 308.4 1001116
3 308.4 981671
3 308.4 973857
3 308.4 960232
3 309.005 959396
3 309.005 956272
3 309.005 950050
3 309.005 928167
3 309.526 919699
3 309.526 917374
3 310.004 914658
3 310.474 913271
3 310.474 908498
3 310.474 904752
3 310.474 903504
1 311.16 901463
3 311.16 901067
3 311.451 894900
3 311.731 894451
3 311.731 889512
3 311.731 882563
3 312.027 881838
3 312.027 872189
3 312.027 861290
3 312.027 859964
3 312.467 858799
3 312.467 854087
3 322.397 963567
3 322.397 941684
3 322.397 936317
3 322.397 929803
3 322.397 928503
3 322.397 918366
3 322.819 912216
1 322.819 905425
3 322.819 904077
3 322.819 899365
3 322.819 892916
3 322.819 891313
3 322.819 889965
3 323.22 886856
3 323.564 886404
3 323.881 885811
3 324.195 885128
3 324.517 884485
3 336.38 988708
3 336.38 948208
3 336.38 944071
3 336.38 941790
3 336.38 937234
3 336.38 934264
3 336.38 915483
3 336.38 911659
3 336.38 905535
3 336.975 905369
3 336.975 898188
3 336.975 894568
3 336.975 877636
3 338.067 875767
3 350.028 1027174
3 350.028 1009227
3 350.028 1001413
3 350.028 999577
3 350.028 993355
3 350.028 992561
3 350.595 971864
3 350.595 959795
3 350.595 958691
3 350.595 936808
3 350.595 930857
1 350.595 910013
3 350.595 909972
3 350.595 903327
3 351.043 903223
3 351.043 900518
3 351.043 899428
3 351.043 899064
3 351.423 898615
3 351.423 896909
3 351.423 895581
3 351.423 894262
3 351.423 887822
3 351.869 887312
3 351.869 881215
3 351.869 872578
3 352.547 871411
3 352.547 870962
3 357.245 864472
3 360.608 863452
3 360.608 863185
3 364.225 962996
3 364.225 956310
3 364.225 928079
3 364.225 913676
3 364.225 912755
3 364.225 896789
3 364.225 896689
3 364.225 888270
3 364.605 885251
3 364.605 878371
3 364.88 878257
3 364.88 876409
3 364.88 874652
3 365.231 874087
3 365.231 867517
3 365.231 860244
3 365.772 858487
3 365.772 856221
3 365.772 855638
3 378.404 989182
3 378.404 965924
3 378.404 959479
3 378.404 946505
3 378.404 935663
3 378.404 921352
3 378.404 914666
3 378.977 913318
3 378.977 906878
3 378.977 906686
3 378.977 905505
3 379.474 902955
3 379.474 900516
3 379.474 899153
3 379.474 894366
3 379.474 890779
3 379.974 885847
3 379.974 884614
3 380.88 864958
3 392.084 1084875
3 392.084 1039847
3 392.084 990598
3 392.084 989061
3 392.084 968271
3 392.084 924815
3 392.084 899979
3 392.084 890940
3 392.773 890491
3 393.239 888180
3 393.707 879543
3 399.324 875059
3 399.324 874433
3 400.185 873727
3 400.185 871863
3 400.686 866619
3 400.686 864826
3 401.147 864311
3 402.82 863940
3 406.236 1078404
3 406.236 1026159
3 406.236 1019719
3 406.236 988844
3 406.236 985933
3 406.937 965854
3 406.937 937454
3 406.937 932050
3 406.937 927111
3 406.937 925873
3 407.587 923194
3 407.587 915971
3 407.587 914306
3 407.587 899971
3 407.587 895259
3 408.118 891100
3 408.118 884538
3 408.118 879581
3 408.613 879164
3 408.613 877760
3 408.613 877734
3 408.613 870615
3 408.613 865903
3 409.111 861558
3 409.111 852052
3 409.956 849610
3 411.637 847643
3 412.056 847340
1 412.896 840843
3 420.262 967289
3 420.262 932392
3 420.262 927680
3 420.262 920994
3 420.262 917407
3 420.262 912022
3 420.937 902505
3 420.937 891075
3 420.937 882754
3 420.937 881126
3 420.937 868555
3 420.937 864619
3 420.937 863271
3 421.67 861945
3 421.67 856569
3 422.042 855643
3 422.042 854280
3 422.042 853057
3 422.042 851709
1 422.677 850724
3 422.677 842633
3 423.767 837921
3 434.221 995691
3 434.221 957564
3 434.221 957246
3 434.221 939751
3 434.221 924976
3 434.764 919388
3 434.764 917437
3 434.764 906459
3 435.25 901056
3 435.25 900471
3 435.25 890055
3 435.25 880720
3 435.724 873498
1 448.381 942722
3 448.381 938789
3 448.381 938751
3 448.381 918744
3 448.893 915157
3 448.893 912478
3 448.893 911419
3 449.205 903728
3 449.205 902186
3 449.205 896819
3 449.497 888609
3 449.497 874902
3 450.769 871315
3 462.133 1056521
3 462.133 1051809
3 462.133 1003140
3 462.133 998366
3 462.133 991926
3 462.133 971821
3 462.133 961051
3 462.133 947425
3 462.133 940739
3 462.133 919114
3 462.133 912892
3 462.133 899629
3 462.532 891546
3 462.532 890676
3 462.532 878328
3 462.532 870798
3 462.532 869460
3 463.121 868505
3 463.121 864748
1 465.879 859626
3 465.879 855797
3 465.879 845941
3 469.285 845759
3 469.285 842172
3 471.613 838127
3 476.045 937887
3 476.045 937283
3 476.045 933947
3 476.045 921207
3 476.045 919153
3 476.045 917827
3 476.045 915169
3 476.388 903286
3 476.388 902863
3 476.388 901938
3 476.388 900049
3 476.388 898895
3 476.388 895717
3 476.388 895656
3 476.388 894776
3 476.388 893428
3 476.388 891311
3 476.749 890749
3 476.749 889216
3 477.089 887729
3 478.017 886811
3 478.017 878036
3 478.017 875357
3 478.017 867543
3 478.531 864380
3 478.531 864010
3 478.531 863030
3 478.993 862158
3 490.122 1083778
3 490.122 1031533
3 490.122 1012472
3 490.122 964712
1 490.122 950180
3 490.122 917039
3 490.122 915225
3 490.122 907860
3 490.527 891226
3 490.527 889878
3 490.995 888329
3 490.995 883390
3 490.995 882298
3 490.995 869917
3 490.995 869851
3 490.995 867606
3 491.516 864019
3 491.516 861280
3 492.926 853107
3 492.926 852809
3 504.378 1006413
3 504.378 1004422
3 504.378 964665
3 504.378 954037
3 504.378 936966
3 504.378 918364
3 504.932 915518
3 504.932 911731
3 504.932 900637
3 504.932 886537
3 504.932 877361
3 504.932 876988
3 504.932 876611
3 504.932 872173
3 504.932 869124
3 505.502 868963
3 518.086 1071402
3 518.086 1063588
3 518.086 986257
3 518.086 939167
3 518.086 914006
3 518.086 906775
3 518.086 904093
3 518.504 899410
3 518.504 892970
3 518.504 889165
3 518.504 887839
3 518.504 884274
3 519.031 870645
3 519.031 868968
3 519.031 866891
3 519.497 860514
3 520.348 849444
3 520.348 844732
3 532.371 1002223
3 532.371 990900
3 532.371 921037
3 532.371 915361
3 532.371 913466
3 532.371 902677
3 532.371 894040
3 532.941 891032
3 533.41 890598
3 533.41 889684
3 537.306 887965
3 537.595 881244
3 537.595 874924
3 537.595 874490
3 537.595 873694
3 538.18 873430
3 546.176 1068168
3 546.176 1015923
3 546.176 955812
3 546.176 953268
3 546.176 949681
3 546.176 943073
3 546.176 936302
3 546.176 934897
3 546.176 930220
3 546.176 930171
3 546.176 923549
3 546.176 905997
3 546.826 902155
3 546.826 897276
3 546.826 892564
3 547.232 890904
3 547.232 881059
3 547.232 879821
3 547.232 877142
3 547.715 874256
3 548.223 862954
3 548.223 859618
3 548.223 856332
3 548.223 855422
3 548.773 854263
3 548.773 852707
3 548.773 850279
3 549.648 844729
3 550.098 844057
3 550.098 843381
3 560.042 1019125
3 560.042 1004184
3 560.042 999340
3 560.042 991526
3 560.042 986659
3 560.042 957755
3 560.042 950832
3 560.042 950355
3 560.646 945327
3 560.646 940615
1 560.646 918288
3 560.646 910650
3 560.646 907314
3 560.646 906209
3 561.182 904383
3 561.182 901497
3 561.182 900171
3 561.182 899318
3 561.772 897515
3 561.772 892639
3 561.772 892074
3 561.772 891293
3 564.459 886574
3 564.459 885538
3 566.236 875885
3 566.236 875481
3 567.537 874133
3 574.057 977113
3 574.057 972174
3 574.057 964360
3 574.057 958138
3 574.057 930864
3 574.057 919842
3 574.057 918476
3 574.493 906957
3 574.816 897293
3 574.816 887148
3 575.151 886580
3 575.151 885232
3 575.151 883552
3 575.434 883211
3 575.434 881863
3 575.712 880559
3 575.712 880186
3 575.712 879207
3 575.99 875142
3 575.99 874340
3 575.99 872997
3 575.99 872473
3 576.281 870690
3 588.293 1031258
3 588.293 1009375
3 588.293 1001561
3 588.293 970235
3 588.293 952740
3 588.293 951414
3 588.293 908190
3 588.293 906842
3 588.293 905893
3 588.293 904589
3 588.293 888291
3 588.941 877361
3 588.941 866476
3 588.941 862889
3 588.941 861592
3 588.941 859314
3 588.941 859263
3 590.479 854675
3 590.479 851088
3 590.941 849664
3 590.941 848855
3 602.405 1108746
3 602.405 1041894
3 602.405 1036585
3 602.405 1030363
3 602.405 994096
3 602.405 990128
3 602.405 980025
3 602.405 949150
3 602.405 942710
3 602.405 942261
3 602.405 934896
3 602.405 915366
3 602.405 906729
3 602.405 891141
3 603.084 887799
3 603.084 887305
3 603.084 884659
3 603.084 877973
3 603.084 872159
3 603.581 861175
3 603.581 858639
3 616.202 1001212
3 616.202 997625
3 616.202 986525
3 616.202 934972
3 616.548 934523
3 616.548 928311
3 616.548 913780
3 616.548 905361
3 616.548 904223
3 616.548 887908
3 617.048 885166
3 617.048 883818
3 617.387 881693
3 617.387 880281
3 617.387 878726
3 617.716 877378
3 617.99 870013
3 627.084 869989
3 627.572 865216
3 628.014 860029
3 628.014 857402
3 630.053 1089351
3 630.053 1056720
3 630.053 1052008
3 630.053 1046897
3 630.053 1040543
3 630.053 1021133
3 630.053 955346
3 630.053 947060
3 630.053 940745
3 630.053 934059
3 630.053 898096
3 630.053 897779
3 630.053 893957
3 630.053 893794
3 630.761 889172
3 630.761 884306
3 630.761 880590
3 630.761 880344
3 630.761 877866
3 631.262 875671
3 631.262 874323
3 631.262 873874
3 632.174 864538
3 632.656 864060
3 633.091 860724
3 633.475 859176
3 633.744 855785
3 634.258 854309
3 634.258 844824
3 634.535 841453
3 634.846 841091
3 644.225 983493
3 644.225 954705
3 644.225 953379
3 644.225 945887
3 644.225 940482
3 644.225 936895
3 644.225 931830
3 644.663 916898
3 644.663 907746
3 644.663 884027
3 644.663 869659
3 644.663 868525
3 644.663 863197
3 644.663 859745
3 645.117 858579
3 645.117 853931
3 645.117 852295
3 645.117 850199
3 645.465 846063
3 645.465 840992
3 645.465 839735
3 645.465 839175
3 646.645 838439
3 648.153 835639
3 648.662 832795
3 658.249 951264
3 658.249 939398
3 658.249 933176
3 658.249 926892
3 658.249 925086
1 658.249 922497
3 658.249 921690
3 658.249 918038
3 658.747 917721
3 658.747 908690
3 659.494 904589
3 659.494 903241
3 659.792 897352
3 660.322 896041
3 660.884 893988
3 661.18 892640
3 663.177 888674
3 663.177 885087
3 663.177 860461
3 663.177 856385
3 663.177 843240
3 663.177 841616
3 663.554 841245
3 663.554 840268
3 663.836 838776
3 672.14 1003409
3 672.14 997201
3 672.14 947410
3 672.14 895165
3 672.915 893817
3 673.727 890887
3 673.992 888737
3 673.992 883051
3 678.476 868716
3 686.181 1020573
3 686.181 1015861
3 686.181 997080
3 686.181 990640
3 686.181 969400
3 686.181 942462
3 686.181 930943
3 686.181 924721
3 686.552 920024
3 686.552 915925
3 686.552 899229
3 686.552 889230
3 686.552 884518
3 686.907 880550
3 687.797 876632
3 687.797 874322
3 687.797 872736
3 689.388 871609
3 689.388 868690
3 689.839 864947
3 689.839 864320
3 689.839 861434
3 689.839 860086
3 690.944 860058
3 700.188 976557
3 700.188 971871
3 700.188 927350
3 700.188 924671
3 700.188 915478
3 700.188 903959
3 700.188 897134
3 700.188 895808
3 700.188 879554
3 701.272 876037
3 701.272 873332
3 701.786 870718
3 701.786 865779
3 702.276 863025
1 702.276 855348
3 702.819 854908
3 702.819 835637
3 714.232 1049212
3 714.232 1008301
3 714.232 993545
3 714.232 975701
3 714.232 965557
3 714.232 925800
3 714.232 912988
3 714.61 912043
1 714.61 896646
3 714.61 888158
3 714.911 884041
3 714.911 865991
3 714.911 864643
3 715.197 858579
3 715.197 853284
3 715.197 853124
3 728.216 1060629
3 728.216 1059198
3 728.216 1042944
3 728.216 1037266
3 728.216 1024048
3 728.216 996254
3 728.638 990648
3 728.638 976989
3 728.638 974932
3 728.638 968710
3 728.638 960896
3 728.966 960395
3 728.966 943508
3 728.966 941110
3 728.966 940797
3 728.966 937210
3 729.603 934904
3 729.603 932498
3 729.603 912576
3 729.603 892478
3 730.724 888703
3 730.724 884270
3 731.185 880683
1 733.343 877559
3 733.343 876991
3 733.809 870107
3 733.809 868759
3 742.211 1050348
3 742.211 1028465
3 742.211 997590
3 742.211 990815
3 742.211 969806
3 742.211 928836
3 742.211 925249
3 742.211 920537
3 742.211 919967
3 742.211 912153
3 742.211 902325
3 742.948 894731
3 743.386 889792
3 744.71 887113
3 745.577 886274
3 746.358 875606
3 746.358 870774
3 746.358 866879
3 747.171 860501
3 747.961 853890
3 747.961 851146
3 747.961 849798
3 756.073 1019097
3 756.073 1009780
3 756.073 1002843
3 756.073 999058
3 756.073 981132
3 756.073 939868
3 756.073 927629
3 756.073 926094
3 756.073 923321
3 756.073 919141
3 756.073 906680
3 756.073 905233
3 756.511 904045
3 756.511 901869
3 756.511 900521
3 756.511 896377
3 756.511 885464
3 756.511 880123
3 756.511 878797
3 756.511 861302
3 757.007 857966
3 761.253 857085
3 761.253 854439
3 770.308 1010041
3 770.308 1003601
3 770.308 953489
3 770.308 951356
3 770.308 950008
3 770.308 948111
3 770.308 941853
3 770.308 920096
3 770.812 916885
3 770.812 889467
3 770.812 886847
3 770.812 883919
3 771.14 879692
3 771.555 879207
3 772.041 876524
3 772.041 871825
3 772.492 870477
3 773.123 862506
3 773.483 858919
3 773.483 857713
3 784.102 1115768
3 784.102 1095043
3 784.102 1079815
3 784.102 1021660
3 784.102 1019861
3 784.102 988986
3 784.102 954482
3 784.102 936724
1 784.102 930349
3 784.102 925816
3 784.102 896548
3 784.503 895200
3 784.866 895038
3 784.866 886813
3 784.866 882101
3 785.337 875879
3 785.337 868065
3 785.337 864367
3 787.515 862578
3 787.515 862575
3 787.968 857643
3 787.968 856169
3 793.766 853490
3 793.766 850464
3 794.208 848278
3 798.275 1025283
3 798.275 1009181
3 798.275 956936
3 798.275 934642
3 798.275 933605
3 798.275 932653
3 798.804 921483
3 798.804 915969
3 798.804 911450
3 798.804 909877
3 799.295 899931
3 799.747 894722
3 800.186 888282
3 800.625 882824
3 801.137 876602
3 803.237 875839
3 803.237 866440
3 803.237 860653
3 804.087 859952
3 804.087 858626
3 805.457 852735
3 805.851 851797
3 805.851 850120
3 806.355 847473
3 806.61 846393
3 806.61 845575
3 807.116 844978
3 812.233 982962
3 812.233 964427
3 812.233 959614
3 812.233 951800
3 812.233 933413
3 812.233 900677
3 812.233 897090
3 812.233 892421
3 812.855 888882
3 812.855 887328
3 812.855 885980
3 813.145 879540
3 814.404 867048
3 814.404 860608
3 814.404 857021
3 814.404 856977
3 814.705 856459
3 814.705 850019
3 826.164 986287
3 826.164 953433
3 826.164 937179
3 826.164 935570
3 826.164 926231
3 826.164 921519
3 826.164 919339
3 826.164 899389
3 826.164 895003
3 826.164 894529
3 826.925 886562
3 826.925 878748
3 826.925 875161
3 826.925 872638
3 827.624 872351
3 827.897 870076
3 827.897 869059
3 828.672 863636
3 828.672 862142
1 830.281 861245
3 840.387 934525
3 840.387 926128
3 840.387 894322
3 840.707 883689
3 840.707 883298
3 841.31 880220
3 841.31 879248
3 846.723 878345
3 846.723 873659
3 846.723 872744
3 846.723 867805
3 847.222 865890
3 847.649 863632
3 847.649 862284
3 847.649 861562
3 847.649 859014
3 848.115 854470
3 854.163 1021528
3 854.163 1018192
3 854.163 981925
3 854.163 963937
3 854.163 959225
3 854.163 958592
3 854.163 941097
3 854.163 938211
3 854.163 936863
3 854.709 932695
3 854.709 931647
3 854.709 924533
3 854.709 919821
3 855.057 910880
3 855.057 909031
3 855.057 893658
3 855.057 890979
3 855.057 890257
3 855.057 888927
3 855.766 886951
3 855.766 882239
3 855.766 880891
3 857.577 880145
3 857.577 876809
3 858.114 871572
3 858.114 868177
3 858.429 855769
3 858.429 852182
3 863.276 851984
3 863.276 848951
3 868.104 1009839
3 868.104 1005127
3 868.104 985416
3 868.104 940030
3 868.104 932574
3 868.104 909840
3 868.104 903839
3 868.478 900252
3 868.478 893566
3 868.478 890230
3 868.755 884741
3 868.755 881154
3 868.755 878328
3 869.091 870865
3 869.091 870853
3 869.091 859735
3 869.377 855131
3 869.638 851142
3 870.149 849253
3 870.921 849074
3 882.353 1058910
3 882.353 1055098
3 882.353 1015341
3 882.353 1011083
3 882.353 1004861
3 882.353 1003535
3 882.353 986940
3 882.353 965931
3 882.353 963447
3 882.353 952563
3 882.353 949884
3 882.973 949080
3 882.973 943946
3 882.973 943908
3 882.973 940405
3 882.973 934955
1 883.304 931227
3 883.304 913136
3 883.304 905096
3 883.304 886315
3 883.683 881027
3 884.215 873704
3 884.482 869336
3 884.482 867532
3 884.799 863274
3 890.633 861938
3 890.633 859446
3 892.845 858861
1 894.585 851496
3 894.585 849978
3 894.585 849654
3 895.075 848139
3 896.068 1122967
3 896.068 1073718
3 896.068 1031558
3 896.068 1000683
3 896.068 992869
3 896.421 979231
3 896.421 928398
3 896.421 926960
3 896.421 913342
3 896.421 910490
3 896.421 891652
3 896.421 888282
3 896.421 885283
3 896.806 882035
3 896.806 865025
3 896.806 864225
3 896.806 863699
3 897.141 861020
3 897.141 854798
3 910.4 964870
3 910.4 952517
3 910.4 949849
3 910.4 947805
3 910.4 945969
3 910.4 943474
3 910.4 928474
3 910.4 926856
3 911.008 925795
3 911.008 924447
3 911.008 921713
3 911.008 918018
3 911.395 912522
3 911.733 911196
3 911.733 898687
3 912.082 882364
3 912.082 876804
3 912.614 871412
3 912.966 870564
3 912.966 865892
3 912.966 856930
3 916.087 856485
3 924.042 1003872
3 924.042 999160
3 924.042 996274
3 924.042 977302
3 924.042 958719
3 924.042 957030
3 924.042 943114
3 924.042 937595
3 924.042 926559
3 924.042 922144
3 924.042 916050
3 924.042 895149
3 924.687 883865
3 924.687 880278
3 925.205 878817
3 925.205 878081
3 925.205 877105
3 925.205 875003
3 925.205 873425
3 925.205 872410
3 925.205 867471
3 925.753 866123
3 926.215 865855
3 938.011 938873
3 938.011 922271
3 938.011 920949
3 938.011 920430
3 938.011 920309
3 938.011 917569
3 938.011 910883
3 938.011 903348
3 938.011 901675
3 938.011 893093
3 938.011 889332
3 938.463 884620
3 938.463 879918
3 938.463 878592
3 939.03 861097
3 939.03 859845
3 939.301 858035
3 939.301 856126
3 942.003 854937
3 942.003 854575
3 942.003 854284
3 942.003 848135
3 943.355 845598
3 943.355 845102
3 943.763 844816
3 943.763 841437
3 943.763 839214
3 952.119 1104478
3 952.119 1100891
3 952.119 1036926
3 952.119 1019431
3 952.119 1012991
3 952.119 993755
3 952.552 976551
3 952.552 944754
3 952.552 936117
3 952.552 934477
3 952.901 885274
3 952.901 880335
3 953.203 880315
3 953.203 858753
3 953.203 858358
3 953.203 855170
3 954.352 853822
3 954.352 853814
3 954.352 848748
3 960.427 844432
3 966.341 1011872
3 966.341 972379
3 966.341 969700
3 966.341 924861
3 966.341 923513
3 966.854 919223
3 966.854 918801
3 966.854 918306
3 966.854 917093
3 966.854 902709
3 966.854 899122
3 967.435 898692
3 967.435 872978
3 967.435 869081
3 967.435 857637
3 967.435 852807
3 967.835 848095
3 968.207 846769
3 980.228 1079244
3 980.228 1055702
3 980.228 1036670
3 980.228 1007967
3 980.228 991460
3 980.228 990112
3 980.228 966432
3 980.228 940863
3 980.228 934423
3 980.809 924467
3 980.809 922547
3 980.809 919399
3 980.809 908823
3 981.3 905734
3 981.3 903884
3 981.3 899512
3 981.3 884724
3 981.3 883992
3 981.3 883570
3 981.837 880189
3 981.837 876602
3 985.801 875845
3 985.801 872968
3 985.801 872258
3 985.801 871620
3 986.326 861666
3 986.775 860732
3 986.775 859384
3 988.716 859056
3 989.573 855203
3 990.415 853680
3 994.158 926849
3 994.158 924153
3 994.158 917713
3 994.158 881153
3 994.158 881102
3 994.158 873339
3 994.158 870207
3 994.158 863487
3 994.158 860564
3 994.523 856977
3 994.781 853995
3 994.781 852647
3 995.057 851439
3 1008.11 1011591
3 1008.11 995773
3 1008.11 974062
3 1008.11 959463
3 1008.11 934779
3 1008.11 933431
3 1008.11 925508
3 1008.11 920796
3 1008.11 915965
3 1008.11 912629
3 1008.11 904314
3 1008.11 868653
3 1008.54 866174
3 1008.54 865066
3 1008.54 864328
3 1008.54 864088
3 1008.84 860501
3 1014.51 859165
3 1014.51 852809
3 1014.51 851461
3 1021.68 847910
3 1021.68 841083
3 1022.14 1068898
3 1022.14 1039896
3 1022.14 1023389
3 1022.14 996983
3 1022.14 994304
3 1022.14 987864
3 1022.14 985567
3 1022.14 946030
3 1022.14 929597
3 1022.14 913513
3 1022.14 909584
3 1022.79 896399
3 1022.79 889108
3 1023.16 885521
3 1023.16 879701
3 1023.16 878294
3 1024.6 872049
3 1024.6 871854
3 1025.41 867022
3 1025.41 866715
3 1025.86 864338
3 1025.86 864143
3 1036.08 903265
3 1036.08 892752
3 1036.08 890840
3 1036.39 883398
3 1036.39 880633
3 1036.39 880528
3 1036.39 877580
3 1036.39 868945
3 1036.9 868646
3 1036.9 866464
3 1037.81 860840
3 1050.14 973866
3 1050.14 955939
3 1050.14 935129
3 1050.14 929172
3 1050.14 922732
3 1050.14 919152
3 1050.51 912326
3 1050.51 910978
3 1050.51 903164
3 1050.51 899558
3 1050.51 892872
3 1051.13 892279
3 1051.49 890931
3 1051.49 890267
3 1051.49 885992
3 1051.8 879775
3 1052.09 877461
3 1052.09 851770
3 1052.09 849287
3 1060.12 841800
3 1060.12 841648
3 1060.39 840452
3 1064.08 992137
3 1064.08 973094
3 1064.08 956840
3 1064.08 927572
3 1064.08 910686
3 1064.08 909242
3 1064.08 906914
3 1064.08 903746
3 1064.08 890034
3 1064.08 889615
3 1064.47 882614
3 1064.47 868646
3 1064.47 862261
3 1064.93 857935
3 1066.23 857684
3 1066.67 856609
3 1067.95 855680
3 1068.4 850886
3 1068.4 850069
3 1078.17 895677
3 1078.17 875221
3 1078.17 874973
3 1078.17 872398
3 1078.59 867785
3 1078.59 867686
3 1079.13 864756
3 1079.57 864743
3 1080 859365
3 1080 857348
3 1080.43 856183
3 1081.09 855962
3 1081.52 855731
3 1081.52 855147
3 1092.22 1034658
3 1092.22 1031071
3 1092.22 1019056
3 1092.22 978861
3 1092.22 978584
3 1092.22 967927
3 1092.22 956189
3 1092.22 878858
3 1092.22 877556
3 1092.84 875329
3 1092.84 868677
3 1093.35 866473
3 1093.35 859354
3 1093.77 855336
3 1094.39 855154
3 1094.66 850415
3 1094.66 848237
3 1094.66 847340
3 1106.23 1131823
3 1106.23 1111293
3 1106.23 1095605
3 1106.23 1074677
3 1106.23 1061059
3 1106.23 1025988
3 1106.23 1025808
3 1106.23 985740
3 1106.23 949170
3 1106.6 946737
3 1106.6 944484
3 1106.6 943136
3 1106.6 918478
3 1106.6 917367
3 1106.6 915570
3 1106.6 914431
3 1106.6 908396
3 1106.6 900060
3 1106.6 894280
3 1106.6 891394
3 1107.17 889334
3 1107.17 883919
3 1107.17 879207
3 1107.78 878922
3 1108.06 870285
3 1108.06 856695
3 1108.72 853359
3 1109.01 848782
3 1110.54 846302
3 1110.54 845940
3 1120.15 1023460
3 1120.15 966716
3 1120.15 947935
3 1120.15 935062
3 1120.15 928376
3 1120.15 919838
3 1120.15 918076
3 1120.15 917511
3 1120.56 890742
3 1120.56 887812
3 1120.56 884096
3 1120.56 879538
3 1120.56 877631
3 1121.07 872085
3 1121.07 867385
3 1121.88 865645
3 1122.59 865377
3 1122.59 861790
3 1123.11 857078
3 1123.55 854745
3 1123.55 852139
3 1134.38 1046675
3 1134.38 1038861
3 1134.38 1035985
3 1134.38 1021529
3 1134.38 1015206
3 1134.38 1005310
3 1134.38 1004223
3 1134.38 986503
3 1134.38 952092
3 1134.38 945652
3 1134.98 918484
3 1134.98 915550
3 1134.98 911015
3 1134.98 908174
3 1134.98 898311
3 1134.98 887030
3 1134.98 886774
3 1134.98 884215
3 1134.98 884082
3 1134.98 883178
3 1135.57 882729
3 1135.57 877813
3 1136.02 877022
3 1136.02 875074
3 1136.46 873037
3 1136.46 872807
3 1136.9 871894
3 1136.9 867709
3 1136.9 863897
3 1136.9 862997
3 1137.38 860357
3 1137.38 860120
3 1138.01 859031
3 1138.01 856557
3 1148 941970
3 1148 913267
3 1148.5 905673
3 1148.5 901049
3 1148.5 899723
3 1148.99 897255
3 1148.99 894478
3 1148.99 894029
3 1149.47 891543
3 1149.47 891384
3 1149.47 890935
3 1149.95 889090
3 1150.41 886411
3 1150.41 879837
3 1150.88 879810
3 1152.59 878480
3 1154.62 878020
3 1154.88 866143
3 1154.88 865159
3 1154.88 862556
3 1154.88 862136
3 1154.88 861431
3 1154.88 860362
3 1155.2 859036
3 1155.2 858338
3 1155.86 856990
3 1157.31 850080
3 1159.36 847794
3 1162.07 974379
3 1162.07 970441
3 1162.07 966809
3 1162.07 962097
3 1162.07 938560
3 1162.07 921431
3 1162.07 916719
3 1162.07 910279
3 1162.79 906192
3 1162.79 903447
3 1162.79 902099
3 1163.34 895703
3 1163.34 893624
3 1163.69 886837
3 1163.69 883285
3 1163.69 878418
3 1165.88 876506
1 1170.66 874451
3 1170.66 865957
3 1170.66 860380
3 1176.05 1016253
3 1176.05 964008
3 1176.05 957322
3 1176.05 925315
3 1176.05 921055
3 1176.56 917957
3 1176.56 915641
3 1176.56 889169
3 1176.56 887821
3 1176.56 886616
3 1177.07 883418
3 1177.52 881677
3 1177.52 878840
3 1177.52 878257
3 1178 875465
3 1178 867651
3 1178 867331
3 1178.49 866325
3 1178.49 864053
3 1178.49 863261
3 1179.42 855447
3 1190.01 1003858
3 1190.01 995800
3 1190.01 975155
3 1190.01 942895
3 1190.01 912128
3 1190.01 905906
3 1190.01 899775
3 1190.01 899326
3 1190.37 897375
3 1190.37 893224
3 1190.37 890935
3 1191.22 889090
3 1191.22 885754
3 1191.22 883317
3 1191.75 882868
3 1192.19 882029
3 1192.62 880435
3 1192.62 878257
1 1194.19 876292
3 1195.05 875367
3 1195.05 874041
3 1195.05 870731
3 1195.57 863643
3 1196.09 860056
3 1196.09 859001
3 1197.36 856256
3 1200.29 850124
3 1200.29 849649
3 1204.04 1007304
3 1204.04 1006269
3 1204.04 1001611
3 1204.04 985502
3 1204.04 968939
3 1204.04 927660
3 1204.58 922948
3 1204.58 894755
3 1204.58 889433
3 1204.58 877208
3 1204.58 869865
3 1204.58 863817
3 1205.09 863663
3 1205.09 861662
3 1205.09 855222
3 1205.55 853874
3 1206.84 846060
3 1218.23 981884
3 1218.23 951009
3 1218.23 928959
3 1218.23 921145
3 1218.23 915325
3 1218.23 914290
3 1218.75 884974
3 1218.75 877453
3 1218.75 874533
3 1218.75 872937
3 1218.75 872832
3 1218.75 866822
1 1230.58 864767
3 1230.58 863225
3 1230.58 857525
3 1231.17 856490
3 1231.17 854448
3 1232.1 885847
3 1232.1 871692
3 1232.1 865470
3 1234.68 865434
3 1236.36 865064
3 1237.21 862045
3 1237.63 860913
3 1237.63 860495
3 1238.07 858942
3 1239.52 854230
3 1243.68 853850
3 1243.68 852502
3 1244.11 850665
3 1246.13 1058169
3 1246.13 1002900
3 1246.13 992649
3 1246.13 991301
3 1246.13 986589
3 1246.13 980149
3 1246.13 962234
3 1246.13 941457
3 1246.13 913169
3 1246.13 890115
3 1246.51 889032
3 1251.04 888464
3 1251.04 879136
3 1251.04 875069
3 1251.04 866822
3 1251.69 864143
3 1260.07 1025996
3 1260.07 1009894
3 1260.07 1007215
3 1260.07 999401
3 1260.07 975585
3 1260.07 954576
3 1260.65 953929
3 1260.65 948990
3 1260.65 930441
3 1260.65 929093
3 1260.65 928239
3 1262.18 924915
3 1262.6 904050
3 1262.6 900463
3 1263.01 899910
3 1263.01 898562
3 1274.15 1008506
3 1274.15 979238
3 1274.15 932909
3 1274.15 929187
3 1274.15 923151
3 1274.15 922747
3 1274.15 901832
3 1274.15 894268
3 1274.52 891066
3 1274.52 880303
3 1274.52 876918
3 1274.82 875046
3 1275.64 870849
3 1275.64 867364
3 1276.5 864524
3 1276.77 862652
3 1288.24 937116
3 1288.24 919099
3 1288.24 916420
3 1288.24 910585
3 1288.24 902771
3 1288.24 901423
3 1288.24 901168
3 1288.24 894782
3 1288.79 893517
3 1288.79 892696
3 1288.79 890754
3 1288.79 889406
3 1288.79 868025
3 1289.32 862321
3 1289.74 858626
3 1290.59 858382
3 1290.59 857034
3 1292.7 852386
3 1302.17 941062
3 1302.17 939714
3 1302.17 918003
3 1302.17 917374
3 1302.17 904506
3 1302.17 899534
3 1302.17 894822
3 1302.17 891235
3 1303.14 889473
3 1303.14 880836
3 1315.56 877797
3 1315.56 876449
3 1316.32 1076969
3 1316.32 1073694
3 1316.32 1004942
3 1316.32 935127
3 1316.32 934635
3 1316.32 933341
3 1316.32 893584
3 1316.73 888645
3 1316.73 887854
3 1317.05 882830
3 1317.67 881388
3 1317.67 880040
3 1318.13 876137
3 1318.13 875824
3 1318.13 874220
3 1320.33 869657
3 1320.64 866417
3 1320.64 860329
3 1330.15 1023068
3 1330.15 1018356
3 1330.15 989071
3 1330.15 984918
3 1330.15 954043
3 1330.15 952935
3 1330.15 951587
3 1330.15 946925
3 1330.65 910822
3 1330.92 899303
3 1330.92 897181
3 1330.92 894591
3 1331.47 868453
3 1331.47 867451
3 1331.47 866560
3 1331.77 866509
3 1333.02 865307
3 1333.02 862737
3 1333.48 858989
3 1333.48 848925
3 1333.48 843754
3 1344.24 930845
3 1344.24 922745
3 1344.24 914083
3 1344.24 909371
3 1344.24 904810
3 1344.24 892377
3 1344.24 886880
3 1344.6 877791
3 1344.6 877315
3 1344.6 876941
3 1344.6 876208
3 1344.9 874952
3 1344.9 868394
3 1344.9 867068
3 1345.71 864657
3 1345.71 863232
3 1345.71 862148
3 1346 855708
3 1351.77 854506
3 1351.77 851603
3 1351.77 847701
3 1352.77 840528
3 1358.27 955294
3 1358.27 943629
3 1358.27 913806
3 1358.27 895337
3 1358.27 877842
3 1358.27 876935
3 1358.82 865086
3 1359.32 861965
3 1359.32 858864
3 1359.32 858464
3 1359.32 857741
3 1359.8 853029
3 1359.8 848646
3 1361.53 848557
3 1361.53 848319
3 1361.53 847298
3 1371.39 846670
3 1371.39 846060
3 1372.32 896776
3 1372.32 896033
3 1372.32 895428
3 1372.32 890561
3 1372.32 889834
3 1373.73 887206
3 1373.73 884267
3 1374.41 883394
3 1374.91 881302
3 1375.45 879364
3 1375.45 873142
3 1375.45 872784
3 1375.45 872107
3 1375.96 867395
3 1375.96 866877
3 1375.96 866724
3 1376.41 864313
3 1377.29 860437
3 1377.75 858045
3 1377.75 856223
3 1379.89 843005
3 1380.32 842556
3 1386.33 997481
3 1386.33 993508
3 1386.33 973510
3 1386.33 966374
3 1386.33 965925
3 1386.33 958111
3 1386.33 937648
3 1386.33 918867
3 1386.33 918354
3 1387.39 915842
3 1387.39 915188
3 1387.85 914034
3 1389.15 913113
3 1389.46 908401
3 1390.08 907712
3 1390.41 903700
3 1390.41 899898
3 1390.71 899487
3 1390.71 896943
3 1390.71 892885
3 1390.71 886510
3 1391.11 884037
3 1393.03 878264
3 1393.32 873552
3 1399.54 872876
3 1400.04 981510
3 1400.04 969991
3 1400.04 952596
3 1400.04 949860
3 1400.04 934499
3 1400.04 927896
3 1400.04 925920
3 1400.04 918454
3 1400.39 910640
3 1400.65 903954
3 1400.65 900830
3 1402.41 892836
3 1402.41 886486
3 1402.41 874756
3 1402.41 866980
3 1402.95 852613
3 1403.8 842591
3 1404.92 841665
3 1406.1 840317
3 1414.09 1089800
3 1414.09 1086525
3 1414.09 1040162
3 1414.09 1023623
3 1414.09 1007521
3 1414.09 1005084
3 1414.09 1004635
3 1414.09 993092
3 1414.09 988380
3 1414.09 957505
3 1414.09 956157
3 1414.09 953478
3 1414.09 920958
3 1414.64 900158
3 1414.95 894198
3 1414.95 893718
3 1414.95 882917
3 1415.27 879581
3 1415.95 871275
3 1415.95 859178
3 1415.95 855336
3 1417.26 855324
3 1417.26 852052
3 1417.69 851737
3 1417.69 847340
1 1424.98 845051
3 1428.28 1057646
3 1428.28 1044286
3 1428.28 971892
3 1428.28 952181
3 1428.28 937813
3 1428.28 934042
3 1428.28 933189
3 1428.28 928244
3 1428.74 927276
3 1428.74 912910
3 1428.74 910686
3 1428.74 910405
3 1428.74 901079
3 1429.13 898193
3 1429.13 897096
3 1429.13 895107
3 1429.43 892470
3 1429.43 892157
3 1429.43 889887
3 1429.43 881169
3 1429.74 873796
3 1429.74 873506
3 1429.74 872180
3 1430.03 869274
3 1430.93 866126
3 1431.19 859248
3 1431.46 859230
3 1431.46 858312
3 1442.39 989906
3 1442.39 986319
3 1442.39 943584
3 1442.39 943253
3 1442.9 932739
3 1442.9 929220
3 1442.9 926066
3 1442.9 924353
3 1442.9 921312
3 1442.9 920078
3 1442.9 916714
3 1442.9 915567
3 1442.9 907555
3 1442.9 906930
3 1443.48 906751
3 1443.96 893916
3 1443.96 889204
3 1443.96 872745
1 1444.45 866702
3 1444.45 866627
3 1444.45 866612
3 1444.94 860172
3 1445.38 855367
3 1445.38 852500
3 1446.88 852399
3 1456.06 990720
3 1456.06 967516
3 1456.06 964180
3 1456.53 951987
3 1456.53 930978
3 1456.53 924767
3 1456.53 911819
3 1456.85 897960
3 1456.85 892290
3 1456.85 886068
3 1458.3 885572
3 1458.3 883924
3 1458.58 878590
3 1458.58 876725
3 1458.58 873252
3 1458.87 871904
3 1470.41 948889
3 1470.41 947940
3 1470.41 944603
3 1470.41 944118
3 1470.41 938131
3 1470.41 937210
3 1470.41 920724
3 1470.41 919281
3 1471.05 918173
3 1471.05 917694
3 1471.05 917454
3 1471.05 916346
3 1471.05 912625
3 1471.05 911911
3 1471.05 909038
3 1471.05 908292
3 1471.59 907690
3 1471.59 901852
3 1471.59 901468
3 1471.59 884576
3 1471.59 871248
3 1472.09 870404
3 1472.42 868639
3 1473.69 866568
3 1473.69 855569
3 1473.69 855235
3 1473.98 853968
3 1474.25 853669
3 1474.25 848802
3 1478.54 846374
3 1478.54 844485
3 1478.54 841662
3 1479.83 840898
3 1484.11 1092081
3 1484.11 1070198
3 1484.11 1038598
3 1484.11 1030784
3 1484.11 996078
3 1484.11 982016
3 1484.11 966747
3 1484.11 957531
3 1484.11 938184
3 1484.11 934591
3 1484.75 932808
3 1484.75 926368
3 1484.75 915838
3 1484.75 906337
3 1484.75 904799
3 1484.75 904798
3 1485.27 901248
3 1485.65 900010
3 1485.65 895298
3 1485.65 893469
3 1486.18 892164
3 1486.18 879548
3 1486.45 878200
3 1487.78 872824
3 1489.94 871890
3 1490.21 871699
3 1490.21 868082
3 1490.21 867769
3 1490.21 866060
3 1490.58 866041
3 1494.81 865131
3 1495.1 861692
3 1498.01 1091604
3 1498.01 1065548
3 1498.01 1034673
1 1498.01 1033582
3 1498.01 1032256
3 1498.01 986080
3 1498.01 984276
3 1498.01 952331
3 1498.65 951366
3 1498.65 946434
3 1498.65 935758
3 1498.65 932983
3 1498.65 906783
3 1498.65 902819
3 1498.65 897082
3 1498.65 896670
3 1499.21 887091
3 1499.21 882152
3 1499.21 881138
3 1499.21 879790
3 1499.61 878001
3 1499.86 876892
3 1499.86 874899
3 1499.86 864945
3 1499.86 860240
3 1499.86 853079
3 1499.86 852868
3 1500.41 851298
3 1501 849970
3 1501.85 840564
3 1512.2 958406
3 1512.2 953514
3 1512.2 930470
3 1512.2 917252
3 1512.2 915810
3 1512.2 911309
3 1512.2 909591
3 1512.2 884490
3 1512.2 866350
3 1512.2 857388
3 1512.2 852676
1 1521.86 850212
3 1521.86 843990
3 1526.4 977196
3 1526.4 963854
3 1526.4 953958
3 1526.4 928198
3 1526.4 923777
3 1526.4 918224
3 1526.98 917803
3 1526.98 917167
3 1526.98 915819
3 1526.98 914583
3 1526.98 897302
3 1527.52 896327
3 1528.46 895302
3 1528.92 891715
3 1534.86 881346
3 1535.21 875124
3 1535.21 873975
3 1535.21 866161
3 1535.76 862584
3 1536.36 859639
3 1536.64 859000
3 1540.1 1046810
3 1540.1 987438
3 1540.1 967652
3 1540.1 964288
3 1540.1 948119
3 1540.1 913159
3 1540.1 902980
3 1540.1 900495
3 1540.73 897096
3 1540.73 892157
3 1541.23 890951
3 1541.67 890362
3 1541.67 888156
3 1541.67 887127
3 1542.18 885801
3 1542.18 879035
3 1542.18 872349
3 1543.1 870192
3 1543.54 862792
3 1543.54 862759
3 1544.04 855264
3 1544.04 854945
3 1544.04 853916
3 1544.04 852590
3 1554.16 1080517
3 1554.16 1058806
3 1554.16 1054094
3 1554.16 1000159
3 1554.16 954094
3 1554.16 952746
3 1554.16 907542
3 1554.16 902405
3 1554.72 894591
3 1555.68 891912
3 1556.09 885793
3 1556.09 883116
3 1558.45 872451
3 1558.71 869955
3 1558.71 868714
3 1558.71 868652
3 1558.99 866229
3 1558.99 863940
3 1568.01 999717
3 1568.01 998369
3 1568.01 976788
3 1568.01 970566
3 1568.01 967689
3 1568.01 961003
3 1568.01 949484
3 1568.01 948136
3 1568.01 946102
3 1568.01 938288
3 1568.47 938140
3 1568.47 920957
3 1568.47 916686
3 1568.77 907157
3 1568.77 898383
3 1568.77 894796
3 1570.08 892358
3 1582.14 996182
3 1582.14 973141
3 1582.14 966019
3 1582.14 937316
3 1582.14 934879
3 1582.14 920933
3 1582.14 917128
3 1582.14 916349
3 1582.51 903131
3 1582.51 901473
3 1582.51 898264
3 1582.51 876381
3 1582.79 875844
3 1582.79 871595
3 1583.29 869802
3 1583.78 868706
3 1584.26 868567
3 1596.1 982982
3 1596.1 976760
3 1596.1 944112
3 1596.1 919380
3 1596.53 919251
3 1596.53 904086
3 1596.53 894971
3 1596.53 881433
3 1597.42 879402
3 1597.88 874068
3 1607.48 872641
3 1607.96 869623
3 1607.96 863401
3 1608.43 858689
3 1610.05 919658
3 1610.05 916383
3 1610.05 916328
3 1610.05 915763
3 1610.05 913581
3 1610.05 913575
3 1610.05 897802
3 1610.05 895277
3 1610.05 880966
3 1610.64 879931
3 1610.64 879570
3 1612.54 878874
3 1612.54 878766
3 1612.95 876583
3 1612.95 874514
3 1612.95 871279
3 1613.47 869931
3 1617.36 869118
3 1618.69 868896
3 1619.2 868200
3 1624.03 971228
3 1624.03 966289
3 1624.03 964941
3 1624.03 958163
3 1624.03 942634
3 1624.03 939292
3 1624.03 933070
3 1624.6 932087
3 1624.6 931142
3 1624.6 919498
3 1624.6 913861
3 1625.1 896366
3 1625.1 893984
3 1625.1 888796
3 1625.1 887158
3 1625.1 885978
3 1625.1 881522
3 1625.62 880577
3 1625.62 872741
3 1625.62 869154
3 1625.62 863750
3 1625.62 860820
3 1625.62 859472
3 1626.15 859169
3 1638.04 966263
3 1638.04 944552
3 1638.04 938330
3 1638.04 931595
3 1638.04 928675
3 1638.04 919972
3 1638.04 915352
3 1638.04 908572
3 1638.04 906721
3 1638.44 876750
3 1638.44 865924
3 1638.72 865693
3 1638.72 862095
3 1638.72 858990
3 1639.02 857642
3 1639.59 854896
3 1639.59 852733
3 1639.87 852217
3 1639.87 850979
3 1639.87 850434
3 1640.53 847505
3 1640.53 844619
3 1652.23 1022533
3 1652.23 1001175
3 1652.23 992538
3 1652.23 980100
3 1652.23 973660
3 1652.23 957406
3 1652.6 928949
3 1652.6 928031
3 1652.89 927575
3 1653.27 926683
3 1653.27 912807
3 1653.71 909220
3 1653.71 900445
3 1653.71 894206
3 1654.18 891821
3 1654.18 884778
3 1654.18 879158
3 1654.68 878539
3 1654.68 876114
3 1654.68 874766
3 1656.26 874026
3 1666.4 1029769
3 1666.4 1007828
3 1666.4 1001606
3 1666.4 984144
3 1666.4 982437
3 1666.4 952454
3 1666.4 940897
3 1666.4 937310
3 1666.4 935735
3 1666.4 930247
3 1666.4 921813
3 1666.4 910236
3 1667.04 894679
3 1667.04 890336
3 1667.04 887733
3 1667.04 886875
3 1667.04 885148
3 1667.59 885067
3 1668.51 881686
3 1668.97 876819
3 1668.97 875898
3 1668.97 873869
3 1669.95 867298
3 1669.95 864635
3 1669.95 864615
3 1671.31 855607
3 1671.31 855104
3 1671.76 854327
3 1680.43 1062227
3 1680.43 1055787
3 1680.43 1018384
3 1680.43 1007179
3 1680.43 1003592
3 1680.43 1000464
3 1680.43 987208
3 1680.43 929405
3 1681.02 901581
3 1681.02 894289
3 1681.02 893477
3 1681.02 885895
3 1681.02 881183
3 1681.5 881141
3 1681.8 878462
3 1681.8 878314
3 1682.07 877114
3 1682.57 871394
3 1690.36 870320
3 1690.36 865701
3 1690.82 865523
3 1690.82 862816
3 1691.26 861842
3 1691.72 856584
3 1691.72 855236
3 1691.72 853127
3 1692.17 852994
3 1692.17 850605
3 1692.17 850488
3 1692.17 848728
3 1693.11 848282
3 1694.18 996317
3 1694.18 972636
3 1694.18 964778
3 1694.18 958556
3 1694.18 957267
3 1694.18 957208
3 1694.18 949858
3 1694.18 945413
3 1694.18 929703
3 1694.77 923263
3 1694.77 923014
3 1694.77 915684
3 1694.77 911495
3 1694.77 910560
3 1695.26 885167
3 1695.66 883279
3 1696.03 882985
3 1697.22 882866
3 1697.22 881008
3 1697.7 877578
3 1697.7 876296
3 1699.02 851448
3 1699.02 848919
3 1699.45 847028
3 1708.45 1050183
3 1708.45 998469
3 1708.45 995645
3 1708.45 971301
3 1708.45 954794
3 1708.45 945064
3 1708.45 922492
3 1708.45 913855
3 1708.45 907857
3 1708.45 896216
3 1709.05 888612
3 1709.05 882390
3 1709.05 879926
3 1709.05 874855
3 1709.05 870941
3 1709.05 870677
1 1709.05 868415
3 1709.05 865485
3 1709.59 862545
3 1709.59 857833
3 1710.03 856681
3 1710.03 854512
3 1710.48 851968
3 1710.48 851696
3 1711.02 850019
3 1714.54 845288
3 1716.67 842800
3 1717.54 842118
3 1717.54 841296
3 1718 836584
3 1722.11 1037164
3 1722.11 1006289
3 1722.11 975863
3 1722.11 966532
3 1722.11 960092
3 1722.11 958744
3 1722.11 940678
3 1722.11 926367
3 1722.11 924182
3 1722.49 923261
3 1722.49 912818
3 1722.49 912610
3 1722.49 906651
3 1722.49 905303
3 1723.47 897938
3 1724.42 893754
3 1724.42 888164
3 1724.42 882838
3 1724.78 881512
3 1724.78 877626
3 1724.78 872687
3 1725.17 866107
3 1725.44 864441
3 1725.85 864017
3 1731.28 862673
3 1731.7 861153
3 1731.7 860543
3 1732.57 859195
3 1734.65 856853
3 1734.65 853266
3 1736.09 1102849
3 1736.09 1099919
3 1736.09 1050670
3 1736.09 1007161
3 1736.09 987450
3 1736.09 975838
3 1736.09 972952
3 1736.09 953161
3 1736.09 934967
3 1736.09 923448
3 1736.09 903393
3 1736.09 888408
3 1736.09 887454
3 1736.09 886786
3 1736.09 883001
3 1736.58 869984
3 1736.58 852726
3 1736.58 850831
3 1736.58 849501
3 1738.17 845664
3 1738.47 842842
3 1738.98 841494
3 1741.87 837337
3 1750.1 968964
3 1750.1 968515
3 1750.1 962848
3 1750.1 957227
3 1750.1 952642
3 1750.1 951721
3 1750.1 944905
3 1750.1 919824
3 1750.1 913881
3 1750.1 910822
3 1750.1 907286
3 1750.54 899048
3 1750.54 898713
3 1750.54 894198
3 1750.54 886833
3 1750.54 883023
3 1750.54 881697
3 1750.91 878110
3 1750.91 871888
3 1751.75 871292
3 1764.06 984876
3 1764.06 979254
3 1764.06 974542
3 1764.06 948714
3 1764.06 936941
3 1764.06 934011
3 1764.61 918935
3 1764.61 916771
3 1764.61 894431
3 1764.61 892955
3 1764.61 887131
3 1765.12 885851
3 1765.12 884133
3 1765.12 883484
3 1765.12 877270
3 1765.61 875037
1 1766.02 871673
3 1766.02 860154
3 1766.44 855442
3 1777.94 851456
3 1777.94 845234
3 1777.94 843886
3 1778.32 1103673
3 1778.32 1063916
3 1778.32 1017893
3 1778.32 985746
3 1778.32 979654
3 1778.32 975555
3 1778.32 960087
3 1778.83 947362
3 1778.83 926353
3 1779.5 922766
3 1779.5 910030
3 1779.84 909524
3 1780.16 895523
3 1780.16 894178
3 1780.64 891240
3 1781.18 883426
1 1782.24 875603
3 1782.67 874692
3 1782.67 874467
3 1792.13 939371
3 1792.13 930997
3 1792.13 925898
3 1792.13 922968
3 1792.13 922559
3 1792.13 919430
3 1792.13 919381
3 1792.13 902625
3 1792.13 900120
3 1792.13 891985
3 1792.13 885545
3 1792.61 880678
3 1792.61 868408
3 1792.95 863469
3 1794.78 848517
3 1795.06 848492
3 1795.32 847222
3 1795.32 845874
3 1806.32 1147867
3 1806.32 1143155
3 1806.32 1137779
3 1806.32 1088530
3 1806.32 1072877
3 1806.32 1027400
3 1806.32 1020960
3 1806.32 999444
3 1806.32 968715
3 1806.92 921272
3 1806.92 920670
3 1806.92 914448
3 1806.92 910111
3 1807.4 897579
3 1807.4 893503
3 1807.4 891241
3 1807.88 890644
3 1807.88 884422
3 1807.88 881978
3 1808.78 877616
3 1808.78 876268
3 1808.78 871322
3 1810.91 865903
3 1813.98 862439
3 1814.37 857267
3 1814.37 856673
3 1814.37 853802
3 1815.57 853680
3 1820.23 983867
3 1820.23 973524
3 1820.23 973471
3 1820.23 971289
3 1820.23 967702
3 1820.23 964578
3 1820.23 958356
3 1820.23 953905
3 1820.9 951007
3 1820.9 950638
3 1820.9 928023
3 1820.9 926526
3 1820.9 923311
3 1820.9 922276
3 1821.44 918649
3 1821.44 918280
3 1821.44 913413
3 1821.44 912964
3 1821.97 910821
3 1821.97 908463
3 1821.97 907318
3 1821.97 906435
3 1821.97 902139
3 1822.49 899253
3 1822.49 892594
3 1822.94 891888
3 1822.94 889384
3 1822.94 888161
3 1823.32 886707
3 1823.32 883658
3 1823.32 881840
3 1823.92 881391
3 1824.19 878325
3 1824.19 875821
3 1824.8 870858
3 1824.8 869316
3 1824.8 866662
1 1825.12 864665
3 1825.68 862575
3 1825.68 861282
3 1825.68 856944
3 1825.97 853938
3 1834.26 1064655
3 1834.26 1059943
3 1834.26 1035522
3 1834.26 1014513
3 1834.26 1003184
3 1834.26 972994
3 1834.26 960728
1 1835.02 950120
3 1835.62 931927
1 1835.62 917772
3 1835.62 903139
3 1835.62 901518
3 1835.62 891867
3 1835.62 890537
3 1836.29 889528
3 1836.29 889442
3 1836.29 883002
3 1848.14 987528
3 1848.14 978529
3 1848.14 972089
3 1848.14 969658
3 1848.14 938096
3 1848.71 932224
3 1848.71 930163
3 1848.71 928434
3 1848.71 922817
3 1848.71 918139
3 1848.71 909502
3 1849.26 908995
3 1849.26 908811
3 1849.26 904602
3 1849.26 896362
3 1849.83 896024
3 1849.83 892807
3 1849.83 887940
3 1849.83 887774
3 1849.83 874120
3 1849.83 871520
3 1851.41 871282
3 1851.41 869603
3 1851.41 869170
3 1853.85 865477
3 1854.27 864736
3 1862.13 1071494
3 1862.13 1063680
3 1862.13 1057240
3 1862.13 1036592
3 1862.13 1002262
3 1862.13 996040
3 1862.13 992247
3 1862.13 956029
3 1862.13 944072
3 1862.13 939043
3 1862.63 937695
1 1862.63 931267
3 1862.63 930292
3 1863.1 925353
3 1863.1 904397
3 1863.1 888047
3 1863.1 887483
3 1863.1 881052
3 1863.1 869533
3 1863.1 867681
3 1863.6 866855
3 1863.6 845593
3 1876.09 992904
3 1876.09 988192
3 1876.09 980378
3 1876.09 973938
3 1876.09 972590
3 1876.09 930653
3 1876.09 925990
3 1876.09 922358
3 1876.66 917114
3 1876.66 896718
3 1876.66 888538
3 1877.14 887212
3 1877.59 886888
3 1877.59 885517
3 1877.59 884433
3 1877.59 877366
3 1877.59 874662
3 1877.59 857384
3 1890.23 1023164
3 1890.23 1016752
3 1890.23 1010530
3 1890.23 1002867
3 1890.23 986437
3 1890.81 950170
3 1890.81 936185
3 1890.81 929296
3 1890.81 927693
3 1891.32 911858
3 1891.32 908124
3 1891.32 882590
3 1891.82 880572
3 1891.82 874350
3 1892.28 868501
3 1894.36 867003
3 1894.36 857781
3 1894.89 856427
3 1894.89 852375
3 1895.16 851715
3 1904.16 1055553
3 1904.16 1043528
3 1904.16 1012009
3 1904.16 1004495
3 1904.16 993228
3 1904.16 987006
3 1904.16 973788
3 1904.16 929424
3 1904.16 925671
3 1904.55 913277
3 1904.55 907816
3 1904.55 907191
3 1904.55 900751
3 1904.86 889832
3 1904.86 888325
3 1904.86 885827
3 1905.16 883146
3 1905.16 882990
3 1905.52 880318
3 1905.79 876836
3 1905.79 868321
3 1906.08 861497
1 1906.95 860133
3 1907.23 859742
3 1907.23 855019
3 1907.5 853693
3 1918.39 1057997
3 1918.39 1005869
3 1918.39 963433
3 1918.39 934488
3 1918.39 921327
3 1918.39 900452
3 1918.39 890787
3 1918.39 884181
3 1918.79 882927
3 1918.79 879196
3 1918.79 875614
3 1918.79 852052
3 1919.08 851737
3 1919.08 847340
3 1932.21 1017311
3 1932.21 1011935
3 1932.21 1009454
3 1932.21 991580
3 1932.21 986061
3 1932.21 925763
3 1932.21 909661
3 1932.21 871116
3 1932.21 867459
3 1932.64 866249
3 1932.64 864104
3 1933.43 863772
3 1933.43 863655
3 1934.73 862071
3 1934.73 858735
3 1934.73 857885
3 1935.27 854113
3 1935.27 849246
3 1936.96 848524
3 1946.21 1047729
3 1946.21 1027004
3 1946.21 1011476
3 1946.21 997260
3 1946.21 990560
3 1946.21 981928
3 1946.21 981890
3 1946.21 945623
3 1946.21 944837
3 1946.81 902088
3 1946.81 894274
3 1946.81 876569
3 1946.81 867522
3 1946.81 866700
3 1947.19 858597
3 1947.19 845284
3 1947.19 839651
3 1960.2 1045089
3 1960.2 967758
3 1960.2 965508
3 1960.2 945875
3 1960.2 900343
3 1960.2 893630
3 1960.2 889087
3 1960.2 888918
3 1960.2 882478
3 1960.2 874664
3 1974.09 974960
3 1974.09 973070
3 1974.09 943086
3 1974.09 936400
3 1974.09 925623
3 1974.09 909977
3 1974.09 905669
3 1974.09 885024
3 1974.09 881688
3 1974.57 880716
3 1974.57 873942
3 1974.84 865884
3 1974.84 860496
3 1975.13 859621
3 1975.13 854140
3 1975.97 848546
3 1976.26 847690
3 1976.54 843187
3 1976.82 842978
3 1988.12 960735
3 1988.12 948787
3 1988.12 933680
3 1988.12 931909
3 1988.12 928979
3 1988.12 920350
3 1988.12 914077
3 1988.12 884145
3 1988.12 865707
3 1988.73 865364
3 1988.73 860968
3 1988.73 856101
3 1991.49 851860
3 1991.49 848273
1 1991.77 846514
3 1992.03 846166
3 2002.31 1018765
3 2002.31 1018316
3 2002.31 1002103
3 2002.31 998695
3 2002.31 990487
3 2002.31 952360
3 2002.31 944881
3 2002.31 942202
3 2002.31 902831
3 2002.31 897964
3 2002.31 886913
3 2002.31 880682
3 2002.72 879997
3 2002.72 878584
3 2002.72 877236
3 2002.72 874875
3 2003.02 869936
3 2003.02 869739
3 2003.02 867502
3 2003.02 865717
3 2003.56 864161
3 2003.56 863507
3 2004.07 862831
3 2006.86 862177
3 2016.02 1051730
3 2016.02 1001845
3 2016.02 957020
3 2016.02 956571
3 2016.02 951859
3 2016.02 941251
3 2016.59 916922
3 2016.59 904094
3 2017.08 896747
3 2017.96 895388
3 2017.96 891420
3 2018.41 888242
3 2018.41 880664
3 2018.89 879456
3 2020.28 878015
3 2020.73 875038
3 2020.73 871793
3 2021.68 868572
3 2021.68 867224
3 2030.06 1031013
3 2030.06 966540
3 2030.06 958514
3 2030.06 943618
3 2030.06 942260
3 2030.06 929377
3 2030.06 915215
3 2030.06 902462
3 2030.43 899398
3 2030.43 899050
3 2030.43 895491
3 2030.43 893608
3 2030.43 888661
3 2030.43 884785
3 2030.43 875734
3 2030.43 872752
3 2030.43 871796
3 2030.94 869165
3 2030.94 869117
3 2030.94 868082
3 2032.04 860621
3 2042.96 860371
3 2044.15 993684
3 2044.15 975926
3 2044.15 959824
3 2044.15 955177
3 2044.15 951590
3 2044.15 949518
3 2044.57 948478
3 2044.57 947577
3 2044.57 946229
3 2044.57 915046
3 2044.57 913693
3 2044.57 912772
3 2044.57 910396
3 2044.57 908060
3 2044.57 906734
3 2044.57 900699
3 2045.52 894691
1 2048.77 893128
3 2049.06 892679
3 2049.6 886390
3 2049.6 882803
3 2050.16 881741
3 2050.16 878119
3 2050.16 877443
3 2050.16 875911
3 2051.02 872324
3 2051.69 870222
3 2052.65 866843
3 2052.65 864919
3 2052.65 861250
3 2058.05 1046779
3 2058.05 969448
3 2058.05 947737
3 2058.05 946702
3 2058.05 942357
3 2058.49 935917
3 2058.49 931864
3 2058.49 912957
3 2058.49 907991
3 2058.49 905701
3 2058.49 901940
3 2059.02 881816
3 2059.02 872793
3 2059.02 869778
3 2059.02 868430
3 2059.51 865447
3 2059.51 862208
3 2059.51 854862
3 2060 853738
3 2060.85 853536
3 2060.85 847298
3 2065.72 846060
3 2072.1 970332
3 2072.1 966745
3 2072.1 945953
3 2072.1 914736
3 2072.1 912675
3 2072.1 903227
3 2072.1 899136
3 2072.1 894710
3 2072.49 894472
3 2072.49 891634
3 2072.49 885194
3 2072.49 879462
3 2072.49 870967
3 2072.49 869619
3 2072.8 863851
3 2072.8 860459
3 2073.12 860186
3 2073.65 860132
3 2073.91 856927
3 2073.91 856822
3 2074.92 856566
3 2074.92 855543
3 2075.45 852433
3 2075.45 852168
3 2075.75 850805
3 2086.15 1022568
3 2086.15 960607
3 2086.15 922221
3 2086.15 922096
3 2086.15 902014
3 2086.15 894325
3 2086.15 888885
3 2086.15 868037
3 2086.73 863325
3 2092.63 860564
3 2092.63 855918
3 2092.63 854342
3 2093.08 853874
3 2093.37 850755
3 2093.37 848850
3 2093.37 847524
3 2094.03 847298
3 2094.57 847152
3 2095.12 846060
3 2100.09 1004395
3 2100.09 1001049
3 2100.09 984542
3 2100.09 944385
3 2100.09 939614
3 2100.09 933174
3 2100.09 928462
1 2100.09 899038
3 2100.63 897690
3 2100.63 891468
3 2100.63 886552
3 2101.27 883027
3 2101.53 876407
3 2101.53 874009
3 2101.84 872661
3 2102.16 871195
3 2107.89 869221
3 2107.89 867147
3 2114.17 1049408
1 2114.17 1008203
3 2114.17 1006877
3 2114.17 980903
3 2114.17 976552
3 2114.17 959012
3 2114.17 948833
3 2114.17 943894
3 2114.62 939502
3 2114.62 930426
3 2114.62 924227
3 2114.62 920640
3 2114.62 906996
3 2114.62 905801
3 2115.29 905252
3 2115.29 902214
3 2115.29 900249
3 2115.29 894616
3 2115.29 891960
3 2115.29 887367
3 2115.29 886019
3 2116.07 883578
3 2116.07 879553
3 2116.35 878205
3 2117.93 870429
3 2118.38 869547
3 2118.38 868118
3 2118.84 861967
3 2118.84 859922
3 2119.91 859481
3 2128.13 1150176
3 2128.13 1086863
3 2128.13 1086501
3 2128.13 1085153
3 2128.13 1077339
3 2128.13 1028090
3 2128.13 950759
3 2128.13 918367
3 2128.13 896584
3 2128.13 891872
3 2128.13 882780
3 2128.13 881186
3 2128.54 877001
3 2128.81 875837
3 2128.81 875415
3 2128.81 866330
3 2128.81 866282
3 2129.12 865702
3 2129.12 865275
3 2129.12 862392
3 2129.12 859713
3 2129.41 857091
3 2129.41 850405
3 2129.41 847505
3 2129.73 846818
3 2142.37 957729
3 2142.37 947240
3 2142.37 944295
3 2142.37 936481
3 2142.37 935133
3 2142.37 934307
3 2142.37 933476
3 2142.94 932206
3 2142.94 922613
3 2142.94 917682
3 2142.94 916783
3 2142.94 913896
3 2142.94 904961
3 2143.39 897147
3 2143.39 896449
3 2143.68 895819
3 2143.68 894222
3 2143.68 878926
3 2143.98 878521
3 2143.98 876531
3 2144.28 875588
3 2144.28 872764
3 2144.28 870309
3 2156.12 1035052
3 2156.12 1027238
3 2156.12 1025890
3 2156.12 1013216
3 2156.45 982487
3 2156.45 946253
3 2156.45 931128
3 2156.45 928797
3 2156.45 914317
3 2156.75 912016
3 2157.01 906465
3 2157.53 902483
3 2157.53 896568
3 2157.53 895262
3 2157.53 891675
3 2157.82 887931
3 2157.82 886583
3 2158.07 881826
3 2158.07 881165
3 2158.07 880355
3 2158.07 879481
3 2158.07 875393
3 2158.39 872244
3 2158.39 867448
3 2158.39 866269
3 2158.39 866100
3 2170.06 990892
3 2170.06 987305
3 2170.06 966102
3 2170.06 950736
3 2170.06 927878
3 2170.06 921656
3 2170.06 895496
3 2170.06 890861
3 2170.06 889673
3 2170.06 881403
3 2170.06 876691
3 2170.68 874941
3 2170.68 869386
3 2170.68 858953
3 2170.68 842851
3 2171.19 839264
3 2184.23 1007464
3 2184.23 976589
3 2184.23 968775
3 2184.23 953209
3 2184.23 946987
3 2184.23 940245
3 2184.23 932073
3 2184.78 915566
3 2185.23 910190
3 2186.11 906276
3 2186.11 905528
3 2186.56 900773
3 2186.56 886438
3 2187.01 875546
3 2187.01 871143
3 2187.01 869817
3 2187.41 868844
3 2187.72 856778
3 2188.32 856735
3 2188.32 850080
3 2189.54 848982
3 2189.54 843896
3 2189.54 842548
3 2198.09 1031842
3 2198.09 1023440
3 2198.09 1017553
3 2198.09 1001046
3 2198.09 992219
3 2198.09 985779
3 2198.09 970360
3 2198.09 964306
3 2198.09 958778
3 2198.09 952556
3 2198.09 949839
3 2198.09 918964
3 2199.16 912150
3 2199.6 902984
3 2199.6 900724
3 2199.6 896850
3 2199.6 896779
3 2199.6 878174
3 2199.6 874896
3 2200.99 868777
3 2200.99 866100
3 2212.05 980040
3 2212.05 943822
3 2212.05 939414
3 2212.05 932541
3 2212.05 930777
3 2212.05 921356
3 2212.4 913197
3 2212.4 908330
3 2212.4 889549
3 2212.4 888201
3 2212.4 885928
3 2212.4 875841
3 2212.4 872016
3 2213 868429
3 2213.27 860878
3 2219.57 858342
3 2226.3 954298
3 2226.3 953644
3 2226.3 937600
3 2226.3 928963
3 2226.3 925763
3 2226.3 919644
3 2226.3 918903
3 2226.3 917887
3 2226.3 913175
3 2226.81 881624
3 2226.81 879853
3 2227.26 876123
3 2227.26 875159
3 2227.71 873810
3 2227.71 872039
3 2227.71 871726
3 2228.62 868991
3 2228.62 868666
3 2229.05 867665
3 2229.89 862814
3 2230.46 861982
3 2230.46 857115
3 2230.8 851739
3 2240.01 1016106
3 2240.01 976349
3 2240.01 973463
3 2240.01 937245
3 2240.01 935396
3 2240.01 934231
3 2240.01 928266
3 2240.01 926301
3 2240.01 925203
3 2240.01 924396
3 2240.43 917912
3 2240.43 879374
3 2240.89 879232
3 2240.89 867606
3 2241.62 866212
3 2241.62 864864
3 2251.32 861237
3 2251.78 858564
3 2252.11 853625
3 2252.38 853418
3 2252.38 852070
3 2252.7 850745
3 2254.18 949320
3 2254.18 944002
3 2254.18 941296
3 2254.18 921894
3 2254.18 915112
3 2254.18 908890
3 2254.78 901076
3 2254.78 898965
3 2254.78 890557
3 2255.26 888662
3 2255.26 865621
3 2255.26 864261
3 2255.78 861591
1 2268.31 1013393
3 2268.31 981400
3 2268.31 943089
3 2268.31 918471
3 2268.31 912031
3 2268.31 909593
3 2270.3 893450
3 2270.77 882193
3 2270.77 875461
3 2270.77 874738
3 2270.77 870550
3 2271.65 868790
3 2271.65 866963
3 2271.65 866699
3 2271.97 863362
3 2271.97 862253
3 2272.73 860741
3 2273.75 855599
3 2274.02 850975
3 2274.28 849649
3 2282.01 989293
3 2282.01 987423
3 2282.01 985155
3 2282.01 976518
3 2282.01 936162
3 2282.01 918982
3 2282.01 899424
3 2282.59 893313
3 2282.59 892663
3 2283.03 885523
3 2283.03 877374
3 2283.03 872662
3 2283.03 869711
3 2283.5 866561
3 2284.05 862974
3 2285.76 861626
3 2296.11 966044
3 2296.11 959604
3 2296.11 943503
3 2296.11 933061
3 2296.11 928194
3 2296.11 925273
3 2296.11 921972
3 2296.11 921628
3 2296.11 915829
3 2296.11 905035
3 2296.53 889980
3 2296.81 889155
3 2296.81 867272
3 2296.81 858635
3 2297.35 857277
3 2297.61 855951
3 2297.87 854410
3 2298.15 850138
3 2298.15 845864
3 2299.81 843834
1 2301.07 841569
3 2301.47 839270
3 2301.47 838089
3 2301.47 836630
3 2310.07 1008731
3 2310.07 1007401
3 2310.07 984371
3 2310.07 983336
3 2310.07 961668
1 2310.07 955633
3 2310.07 942727
3 2310.07 929853
3 2310.07 923198
3 2310.07 922317
3 2310.44 919999
3 2310.44 915287
3 2310.44 902523
3 2310.44 901175
3 2310.44 897637
3 2310.75 894998
3 2310.75 894735
3 2311.04 891411
3 2311.29 884725
3 2311.81 877976
3 2311.81 876628
3 2311.81 873292
3 2312.1 870587
3 2312.1 864627
3 2312.37 861733
3 2312.78 860804
3 2313.21 859688
3 2314.32 857802
3 2314.32 856476
3 2314.83 852581
3 2315.08 851425
3 2315.08 851100
3 2324.3 1076616
3 2324.3 1050838
3 2324.3 1047483
3 2324.3 1031222
3 2324.3 1019217
3 2324.3 1011495
3 2324.3 1007902
3 2324.3 1006549
3 2324.3 990259
3 2324.3 944352
3 2324.3 936987
3 2324.7 923434
3 2324.7 916033
3 2324.7 908435
3 2325.05 901074
3 2325.05 897748
3 2325.05 893709
3 2325.37 893663
3 2325.37 887943
3 2325.37 883570
3 2332.32 883372
3 2332.58 882824
3 2332.58 879488
3 2332.58 876602
3 2334.15 875604
3 2334.67 870892
3 2334.93 867893
3 2335.33 864557
3 2338.39 1010238
3 2338.39 979363
3 2338.39 971246
3 2338.39 968602
3 2338.39 955593
3 2338.39 916165
3 2338.39 914770
3 2338.39 910116
3 2338.39 905140
3 2338.39 868242
3 2338.98 857446
3 2338.98 856106
3 2338.98 854894
3 2338.98 853568
3 2339.35 852572
3 2339.61 851224
3 2339.86 849629
3 2339.86 848175
3 2346.78 843419
3 2352.02 1118486
3 2352.02 1115211
3 2352.02 1086184
3 2352.02 1082252
3 2352.02 1077540
3 2352.02 1048327
3 2352.02 1017452
3 2352.02 1004229
3 2352.02 951984
3 2352.02 932787
3 2352.02 930409
3 2352.02 923026
3 2352.43 913557
3 2352.43 908737
3 2352.43 906063
3 2352.43 890565
3 2352.73 879046
3 2352.73 875710
3 2353.01 870865
3 2353.01 870644
3 2353.3 869318
3 2353.56 865982
3 2354.57 861757
3 2354.83 856818
3 2354.83 853253
3 2354.83 851927
3 2356.62 851614
3 2366.2 1153211
3 2366.2 1114355
3 2366.2 1037024
3 2366.2 1035245
3 2366.2 989768
3 2366.2 937523
3 2366.2 917813
3 2366.2 915859
3 2366.55 911798
3 2366.55 905576
3 2366.55 899541
3 2366.55 895908
3 2366.55 892299
3 2367.07 892167
3 2367.07 890520
3 2367.07 889172
3 2367.07 884460
3 2367.58 882295
3 2367.58 878020
3 2369.75 872400
3 2370.64 857650
3 2380.13 1024671
3 2380.13 997688
3 2380.13 991002
3 2380.13 990544
3 2380.13 985691
3 2380.13 971763
3 2380.13 971474
3 2380.13 965980
3 2380.13 962257
3 2380.13 929865
3 2380.59 927661
3 2380.59 911961
3 2380.59 910236
3 2380.59 900499
3 2380.59 895925
3 2381.13 890309
3 2381.13 889703
1 2382.97 885280
3 2382.97 881022
3 2383.43 875653
3 2383.43 875337
3 2383.43 871079
3 2384.7 864857
3 2388.42 857479
3 2394.05 933839
3 2394.05 919504
3 2394.05 916168
3 2394.05 911229
3 2394.05 899710
3 2394.05 887036
3 2394.57 882389
3 2394.57 880484
3 2394.57 879158
3 2394.57 870978
3 2395.12 867391
3 2395.12 858389
3 2396.44 855009
3 2396.89 845366
3 2396.89 845017
3 2396.89 844040
3 2396.89 838926
3 2396.89 838181
3 2396.89 838155
3 2399.06 836983
3 2408.29 1122164
3 2408.29 1088294
3 2408.29 1081854
3 2408.29 1023699
3 2408.29 1006070
3 2408.29 1001816
3 2408.29 954033
3 2408.29 952374
3 2408.29 934903
3 2408.29 913020
3 2408.9 908308
3 2408.9 907526
3 2408.9 902866
3 2408.9 902475
3 2408.9 901518
3 2409.42 898182
3 2409.42 895979
3 2409.42 891040
3 2409.42 884114
3 2410.33 880318
3 2410.97 876731
3 2412.49 865737
3 2412.87 863535
3 2413.46 852688
3 2413.46 849246
3 2414.02 848126
3 2414.02 847362
3 2414.02 845127
3 2414.3 844784
3 2414.3 843820
3 2414.6 842276
3 2415.04 841726
3 2422.22 1009103
3 2422.22 986062
3 2422.22 974425
3 2422.22 963568
1 2422.22 955265
3 2422.22 948579
3 2422.79 909885
3 2422.79 908313
3 2422.79 906963
3 2422.79 902520
3 2422.79 897144
3 2422.79 895796
3 2424.2 895595
3 2424.2 879529
3 2424.2 873089
3 2433.75 865185
3 2433.75 865095
3 2433.75 857878
3 2433.75 851718
3 2434.68 844519
3 2434.68 843515
3 2435.12 842452
3 2435.12 839648
3 2435.97 835999
3 2436.41 954794
3 2436.41 953446
3 2436.41 948271
3 2436.41 946430
3 2436.41 936771
3 2436.41 916647
3 2436.41 912551
3 2436.41 911935
3 2436.41 885590
3 2436.41 882003
3 2436.41 875799
3 2436.41 875317
3 2438.26 874391
3 2438.26 869506
3 2438.26 859129
3 2438.78 859051
3 2439.22 854417
3 2450.35 964077
3 2450.35 963445
3 2450.35 945530
3 2450.35 915340
3 2450.35 904250
3 2450.35 892731
3 2450.35 884917
3 2450.35 880777
3 2450.72 879344
3 2450.72 874453
3 2450.72 873711
3 2450.72 873215
3 2451.01 871273
3 2451.01 866561
3 2464.04 1048385
3 2464.04 1043009
3 2464.04 1038749
3 2464.04 1007874
3 2464.04 1001400
3 2464.04 943245
3 2464.04 935187
3 2464.58 921677
3 2465.14 920210
3 2465.14 918620
3 2465.14 915455
3 2465.14 903696
3 2465.49 888427
3 2467.01 887263
3 2467.41 885937
3 2467.41 884399
3 2468.24 883051
3 2478.07 965222
3 2478.07 932081
3 2478.07 915297
3 2478.07 914695
3 2478.07 913547
3 2478.07 899402
3 2478.07 882231
3 2478.53 880572
3 2478.53 880035
3 2478.83 878916
1 2484.16 878335
3 2484.45 865477
3 2484.72 858791
3 2484.72 852351
3 2485.04 852055
3 2486.12 851149
3 2486.12 849515
3 2488.36 839981
1 2488.82 837996
3 2492.26 1013699
3 2492.26 981051
3 2492.26 962176
3 2492.26 938486
3 2492.26 934351
3 2492.26 931301
3 2492.26 926589
3 2492.26 918775
3 2492.86 905116
3 2492.86 903768
3 2492.86 894990
3 2492.86 880185
3 2492.86 872765
3 2493.84 866079
3 2493.84 863412
3 2493.84 862782
3 2493.84 854775
3 2506.08 946341
3 2506.08 946196
3 2506.08 944690
3 2506.08 934201
3 2506.08 927762
3 2506.61 923982
3 2506.61 919115
3 2506.61 915081
3 2507.05 885222
3 2507.05 862012
3 2507.05 853199
3 2507.6 851298
3 2508.39 848692
3 2512.59 846552
3 2520.53 1013419
3 2520.53 1005605
3 2520.53 1004257
3 2520.53 997571
3 2521.15 993844
3 2521.15 979693
3 2521.15 959514
3 2521.15 949146
3 2521.15 922571
3 2521.7 913361
3 2522.08 882519
3 2522.59 878289
3 2522.59 876941
3 2522.59 875615
3 2522.92 869706
3 2525.31 866534
3 2525.31 862947
3 2525.31 861356
3 2525.31 857959
3 2525.31 856486
3 2525.67 853034
3 2525.67 851619
3 2526.05 851306
3 2526.05 851176
3 2526.05 847494
3 2526.39 846594
3 2526.39 843395
3 2534.03 1009713
3 2534.03 982702
3 2534.03 979333
3 2534.03 974621
3 2534.03 968181
3 2534.03 948470
3 2534.03 935938
3 2534.03 916803
3 2534.03 908989
3 2535.06 901281
1 2536.35 896639
3 2536.35 884024
3 2536.35 876899
1 2536.35 858386
3 2538.78 857772
3 2539.21 852133
3 2539.21 849642
3 2539.64 848607
3 2539.64 848294
3 2540.09 847279
3 2540.51 842854
3 2540.93 841819
3 2541.35 841625
3 2542.16 840793
3 2548 1097976
3 2548 1090162
3 2548 1075924
3 2548 1059822
3 2548 1057553
3 2548 1052841
3 2548 1021966
3 2548 992420
3 2548 974676
3 2548 965295
3 2548 963811
3 2548 946067
3 2548 939845
3 2548 934025
3 2548.42 913189
3 2548.42 905599
3 2548.42 904771
3 2548.42 898231
3 2548.42 897711
3 2548.91 897565
3 2548.91 896201
3 2548.91 887396
3 2548.91 886723
3 2549.38 882011
3 2549.38 881760
3 2549.38 881615
3 2549.38 880580
3 2549.38 875209
3 2553.21 868688
3 2553.21 864384
3 2553.21 860133
3 2553.5 859693
3 2553.5 859000
3 2556.12 858384
3 2556.66 857595
3 2557.35 857036
3 2562.32 974629
3 2562.32 916474
3 2562.32 889252
3 2562.32 888103
3 2562.32 873931
3 2562.32 872922
3 2562.32 872751
3 2562.32 871421
3 2562.89 868048
3 2562.89 863450
3 2562.89 851931
3 2563.37 850583
3 2570.27 849205
3 2576.27 971822
3 2576.27 921656
3 2576.27 896893
3 2576.27 893464
3 2576.27 889877
3 2576.27 889332
3 2576.27 888298
3 2576.62 886950
3 2576.62 886465
3 2576.89 886016
3 2576.89 873874
3 2577.17 873016
3 2577.43 867672
3 2577.43 866346
3 2577.43 856147
3 2577.43 855785
3 2577.76 854005
3 2577.76 849919
3 2578.24 849259
3 2578.24 848338
3 2578.24 845209
3 2579.84 839249
3 2590.09 995474
3 2590.09 988246
3 2590.09 959543
3 2590.09 944448
3 2590.09 943445
3 2590.09 925950
3 2590.09 909696
1 2590.09 902280
3 2590.66 896075
3 2590.66 894466
3 2592.34 881825
3 2592.34 870306
3 2592.63 866072
3 2592.93 864756
3 2604.17 1107302
3 2604.17 1044841
3 2604.17 1016839
3 2604.17 992596
3 2604.17 985910
3 2604.17 984672
3 2604.17 976858
3 2604.17 937101
3 2604.17 933514
3 2604.59 918245
3 2605.19 912869
3 2605.71 893940
3 2605.71 891358
3 2606.12 884918
3 2606.12 883570
3 2606.57 877142
3 2606.57 871056
3 2606.57 870920
3 2606.57 870240
3 2607.51 865222
3 2607.51 863051
3 2610.07 857675
3 2612.53 857586
3 2612.53 857267
3 2612.8 856290
3 2613.05 853802
3 2613.47 853680
3 2618.04 982997
3 2618.04 979410
3 2618.04 963156
3 2618.04 956716
3 2618.04 947059
3 2618.04 922536
3 2618.04 909234
3 2618.04 909064
3 2618.04 899261
3 2618.04 898605
3 2618.65 894549
3 2618.65 893997
3 2618.65 881651
3 2618.65 874766
3 2619.12 873463
3 2619.12 867514
3 2619.12 865524
3 2619.63 862891
3 2621.38 859961
3 2621.38 858502
3 2621.38 857999
3 2621.89 854915
3 2621.89 853980
3 2621.89 852570
3 2622.27 850841
3 2622.27 849713
3 2622.98 849268
3 2632.11 1055105
3 2632.11 1029654
3 2632.11 977774
3 2632.11 942703
3 2632.11 929638
3 2632.11 918206
3 2632.11 915072
3 2632.11 897683
3 2632.11 891461
3 2632.11 886109
3 2632.11 880954
3 2632.53 880203
3 2632.53 879529
3 2632.53 879287
3 2632.88 878333
3 2633.14 876482
3 2633.14 875152
3 2633.72 873804
3 2635.47 869243
3 2635.47 867769
3 2639.18 860100
3 2639.18 858074
3 2639.51 856261
3 2639.8 852674
3 2640.43 851893
3 2640.76 851193
3 2640.76 848876
3 2640.76 847528
3 2643.72 844704
3 2644.49 842025
3 2646.35 962315
3 2646.35 957603
3 2646.35 954116
3 2646.35 924136
3 2646.35 917914
3 2646.35 911228
3 2646.9 909882
3 2646.9 909534
3 2646.9 898901
3 2646.9 892507
3 2646.9 885857
3 2646.9 880943
3 2647.31 879571
3 2647.31 876120
3 2647.58 873839
3 2647.86 873737
3 2649.43 869132
3 2649.43 868692
3 2649.71 864902
3 2649.98 862387
3 2649.98 861675
3 2649.98 861318
3 2650.4 860878
3 2650.4 857833
3 2652.61 856808
3 2653.95 855096
3 2660.26 941761
3 2660.26 935321
3 2660.26 919789
3 2660.26 918840
3 2660.26 915253
3 2660.26 901573
3 2660.26 897626
3 2660.26 896472
1 2662.23 895064
3 2662.23 893738
3 2662.23 891788
3 2662.23 887261
3 2662.79 879447
3 2663.25 872908
3 2663.25 871896
3 2664.56 871673
3 2664.56 870395
3 2665.02 868839
3 2665.02 867439
3 2665.02 851503
3 2674.18 1097312
3 2674.18 1089498
3 2674.18 1031343
3 2674.18 1010042
3 2674.18 1002240
3 2674.18 988752
3 2674.18 942562
3 2674.18 925743
3 2674.18 913104
3 2674.18 913061
3 2674.18 911421
3 2674.18 898993
3 2674.82 897334
3 2674.82 868631
3 2674.82 860856
3 2675.3 859618
3 2675.78 853725
3 2676.24 850979
3 2676.67 848093
3 2676.67 843991
3 2677.11 843381
3 2688.16 1084836
3 2688.16 1083488
3 2688.16 1078112
3 2688.16 1038355
3 2688.16 1035227
3 2688.16 1030541
3 2688.16 1013386
3 2688.16 968786
3 2688.16 954718
3 2688.16 948278
3 2688.16 946009
3 2688.86 909791
3 2688.86 908465
3 2688.86 895582
3 2688.86 892903
3 2689.21 890462
3 2689.57 887387
3 2689.57 884271
3 2689.57 882746
3 2689.57 879159
3 2689.57 879136
3 2689.99 876457
3 2690.83 875349
3 2690.83 857455
3 2691.28 857373
3 2692.61 857209
3 2692.61 851066
3 2692.61 849736
3 2693.12 843050
3 2693.53 841702
3 2702.15 1063445
3 2702.15 1052434
3 2702.15 1031053
3 2702.15 1001738
3 2702.15 1000953
3 2702.15 982091
3 2702.15 980743
3 2702.15 978288
3 2702.15 959066
3 2702.15 954199
3 2702.15 948945
3 2702.15 948414
3 2702.15 938474
3 2702.15 932252
3 2702.85 913247
3 2702.85 908535
3 2703.83 894325
3 2703.83 886520
3 2703.83 883362
3 2704.25 876676
3 2704.25 874477
3 2704.25 870351
3 2704.25 869765
3 2704.75 869025
3 2704.75 863325
3 2706.7 856797
3 2707.14 854945
3 2707.14 843872
3 2708.01 843745
3 2716.04 977671
3 2716.04 950246
3 2716.04 949579
3 2716.04 916931
3 2716.04 915568
3 2716.04 915091
3 2716.04 912481
3 2716.39 903277
3 2716.39 898837
3 2716.39 896629
3 2716.39 890276
3 2716.7 885564
3 2717.33 875293
3 2717.33 866656
3 2721.47 865801
3 2722.09 858273
3 2722.09 853526
3 2722.37 851516
3 2722.62 850803
3 2723.76 850316
3 2724.06 847049
3 2730.37 979405
3 2730.37 941801
3 2730.37 940475
3 2730.37 934253
3 2730.37 932071
3 2730.37 930968
3 2730.98 919950
3 2730.98 914627
3 2730.98 913279
3 2730.98 905914
3 2730.98 892902
3 2731.54 889315
3 2732.55 882181
3 2744.35 964224
3 2744.35 952268
3 2744.35 947556
3 2744.35 937424
3 2744.35 917563
3 2744.35 909755
3 2744.35 877806
3 2744.91 870947
3 2744.91 868067
3 2745.37 864507
3 2746.66 864259
3 2748.92 863133
3 2749.19 858399
3 2758.36 1045198
3 2758.36 1038512
3 2758.36 1029572
3 2758.36 1010989
3 2758.36 967805
3 2758.36 946531
3 2758.36 940309
3 2758.36 925641
3 2758.36 924293
3 2758.36 924055
3 2758.36 916090
1 2758.36 907819
3 2758.36 892804
3 2759.08 891456
3 2759.08 889697
3 2759.08 883014
3 2759.08 882908
3 2759.63 882302
3 2759.63 881060
3 2760.26 880941
3 2760.26 878872
3 2760.63 877546
3 2760.63 876925
3 2760.91 872193
3 2761.16 870684
3 2761.16 864673
3 2761.47 863325
3 2761.98 861878
3 2763.43 861075
3 2763.85 856939
3 2763.85 851048
3 2763.85 850907
3 2772.11 936023
3 2772.11 931084
3 2772.11 919565
3 2772.11 900305
3 2772.44 899521
3 2772.44 876480
3 2772.73 871621
3 2772.73 865399
3 2773.83 865005
3 2774.09 864051
3 2783.12 860646
3 2783.12 859266
3 2783.12 857917
3 2783.12 856868
3 2783.12 854277
3 2783.6 853205
3 2786.17 1004136
3 2786.17 981095
3 2786.17 957553
3 2786.17 949495
3 2786.59 943520
3 2786.59 938211
3 2786.59 935574
3 2786.59 930198
3 2786.59 928850
3 2786.59 921945
3 2786.59 921016
3 2786.59 902907
3 2786.59 893817
3 2787.88 890887
3 2788.36 889713
3 2789.32 886996
3 2789.32 883364
3 2789.32 883051
query_times: 141
Score = 841093
