    Blocking waiting for file lock on package cache
    Blocking waiting for file lock on package cache
    Blocking waiting for file lock on package cache
    Finished release [optimized] target(s) in 0.04s
     Running `target/release/tester ../a.out 0047`
3 5.01 1473624
3 5.01 1468137
3 5.01 1446050
3 5.01 1445963
3 5.01 1421122
3 5.01 1414811
3 5.771 1414023
3 5.771 1412494
3 5.771 1411270
3 6.68 1400106
3 6.68 1397266
3 6.68 1396532
3 6.68 1392650
3 6.68 1388200
3 8.207 1387511
3 9.382 1386347
3 9.382 1386017
3 9.382 1378494
3 10.583 1376957
3 10.583 1375297
3 10.583 1375102
3 11.274 1374094
3 11.274 1373168
3 11.274 1370720
3 11.274 1367285
3 14.061 1478085
3 14.061 1474831
3 14.061 1468086
3 14.061 1465962
3 14.061 1451682
3 14.061 1424074
3 14.061 1423857
3 14.061 1420503
3 16.023 1412241
3 16.023 1411354
3 16.023 1407260
3 16.023 1406132
3 16.023 1404587
3 16.023 1397283
3 17.049 1397245
3 17.049 1394547
3 17.049 1385050
3 17.049 1378717
3 17.049 1378408
3 17.049 1376443
3 17.815 1373831
3 17.815 1372119
3 17.815 1369967
3 17.815 1369805
3 17.815 1367731
3 18.754 1365766
3 18.754 1365281
3 19.688 1364153
3 20.621 1362881
3 20.621 1360866
3 21.601 1357676
3 23.455 1349607
3 28.304 1501357
3 28.304 1493095
3 28.304 1486746
3 28.304 1471821
3 28.304 1461025
3 28.304 1454678
3 29.32 1452858
3 29.32 1447093
3 29.927 1446282
3 29.927 1439679
3 31.619 1439131
3 31.619 1432561
3 32.363 1423909
3 32.363 1411693
3 32.363 1409930
3 32.363 1408166
3 33.373 1407038
3 34.141 1399109
3 34.141 1390273
3 34.141 1387499
3 34.141 1386373
3 34.141 1386286
3 34.141 1385588
3 35.727 1384913
3 35.727 1384687
3 35.727 1382093
3 35.727 1381586
3 35.727 1376651
3 42.448 1482538
3 42.448 1479362
3 42.448 1470920
3 42.448 1467497
3 42.448 1464396
3 43.141 1461825
3 43.141 1449494
3 43.141 1444923
3 43.141 1429269
3 43.141 1426890
3 43.141 1422379
3 43.141 1410618
3 43.141 1408664
3 43.821 1405697
3 43.821 1403774
3 43.821 1401229
3 43.821 1399164
3 44.466 1394345
3 44.466 1392089
3 44.466 1381110
3 45.109 1379269
3 45.109 1376495
3 45.109 1374346
3 46.186 1368334
3 46.186 1364244
3 47.187 1363563
3 49.611 1358598
3 49.611 1354753
3 49.611 1353666
3 50.491 1351607
3 56.744 1476293
3 56.744 1441094
3 56.744 1436802
3 56.744 1425177
3 57.796 1423201
3 57.796 1412879
3 57.796 1411507
3 57.796 1409867
3 57.796 1407769
3 57.796 1407752
3 57.796 1399871
3 58.835 1394220
3 58.835 1393092
3 58.835 1377927
3 59.797 1377056
3 59.797 1374488
3 59.797 1374142
3 60.773 1374124
3 63.844 1372102
3 63.844 1368207
3 63.844 1366247
3 67.623 1366132
3 68.303 1365952
3 69.498 1365735
3 70.382 1479766
3 70.382 1466725
3 70.382 1454431
3 70.382 1450802
3 70.382 1450286
3 70.382 1441409
3 71.463 1435284
3 71.463 1425731
3 71.463 1422349
3 71.463 1421784
3 71.463 1420384
3 71.463 1415433
3 71.463 1401641
3 72.286 1396434
3 72.286 1392557
3 72.286 1389531
3 72.286 1379825
3 72.286 1376803
3 72.286 1376313
3 72.286 1370574
3 73.344 1368576
3 73.344 1367310
3 74.287 1366173
3 74.287 1364208
3 75.249 1363139
3 76.175 1363013
3 77.106 1360610
3 79.04 1355568
3 80.15 1355140
3 81.552 1355053
3 83.309 1353498
3 84.426 1526816
3 84.426 1499077
3 84.426 1496673
3 84.426 1481989
3 85.556 1481078
3 85.556 1456794
3 85.556 1450440
3 85.556 1443798
3 85.556 1443655
3 85.556 1437755
3 86.388 1435369
3 86.388 1434761
3 87.398 1434310
3 87.398 1421670
3 87.398 1420995
3 88.402 1417148
3 88.402 1415431
3 88.402 1414756
3 88.402 1406596
3 89.513 1401766
3 89.513 1390772
3 89.513 1389551
3 89.513 1389266
3 89.513 1387050
3 90.642 1386814
3 90.642 1386139
3 91.649 1385151
3 92.622 1380580
3 92.622 1376441
3 93.599 1374566
3 93.599 1373168
3 96.603 1371869
3 98.568 1406488
3 98.568 1398874
3 98.568 1391842
3 98.568 1388336
3 98.568 1386696
3 98.568 1380738
3 99.636 1377621
3 99.636 1375997
3 99.636 1375357
3 99.636 1372130
3 99.636 1369981
3 100.659 1368340
3 101.537 1362545
3 102.689 1359092
3 102.689 1358532
3 103.834 1358496
3 103.834 1357368
3 105.135 1353035
3 105.135 1350386
3 108.149 1350327
3 109.831 1349895
3 110.833 1349251
3 111.771 1348090
3 112.514 1418168
3 112.514 1412154
3 112.514 1406436
3 113.148 1406276
3 113.148 1406061
3 113.148 1402727
3 114.066 1402522
3 114.066 1401846
3 114.066 1401453
3 114.066 1399161
3 114.066 1397519
3 114.903 1393190
3 114.903 1390661
3 114.903 1387694
3 115.521 1386873
3 115.521 1386455
3 115.521 1385448
3 116.153 1379122
3 116.153 1376075
3 116.762 1375578
3 117.409 1373938
3 118.08 1373251
3 118.08 1372734
3 118.08 1371221
3 118.699 1371056
3 118.699 1369416
3 118.699 1367932
3 119.502 1367845
3 119.502 1359700
3 120.771 1355820
3 120.771 1354180
3 126.349 1456965
3 126.349 1455325
3 126.349 1444199
3 126.349 1440100
3 126.349 1439852
3 126.349 1430664
3 127.011 1430447
3 127.011 1429724
3 127.011 1421044
3 127.011 1406273
3 127.669 1405447
3 128.271 1403841
3 128.271 1394209
3 129.259 1392335
3 131.98 1390657
3 131.98 1385653
3 131.98 1380459
3 131.98 1375499
3 132.67 1374131
3 132.67 1372046
3 132.67 1371880
3 132.67 1371678
3 133.285 1371430
3 133.285 1371052
3 133.884 1369738
3 133.884 1369651
3 133.884 1367053
3 134.558 1366062
3 134.558 1365359
3 134.558 1364717
3 135.756 1364009
3 136.347 1363792
3 140.495 1512010
3 140.495 1477976
3 140.495 1466105
3 140.495 1462122
3 140.495 1457732
3 140.495 1456509
3 140.495 1452887
3 140.495 1450358
3 140.495 1442944
3 140.495 1435881
3 140.495 1434222
3 141.331 1420551
3 141.331 1420482
1 141.331 1412992
3 141.331 1403880
3 141.331 1401195
3 142.002 1393923
3 142.632 1393706
3 143.452 1385639
3 143.452 1377351
3 144.423 1374438
3 144.423 1372066
3 144.423 1371145
3 144.423 1367520
3 145.844 1364503
3 148.773 1364333
3 148.773 1363445
3 149.394 1363228
3 150.65 1362208
3 151.238 1361744
3 151.895 1360440
3 153.078 1358291
3 154.446 1486788
3 154.446 1470298
3 154.446 1466862
3 154.446 1460892
3 154.446 1448695
3 154.446 1442697
3 154.446 1437338
3 154.446 1436290
3 154.446 1422762
3 154.446 1420731
3 154.446 1415537
1 155.38 1401709
3 155.38 1396053
3 155.988 1396029
3 155.988 1395411
3 156.685 1394627
3 157.286 1394480
3 157.889 1394465
3 158.549 1394141
3 159.127 1390006
3 159.127 1389364
3 159.729 1388781
3 159.729 1386252
3 159.729 1378971
3 160.637 1377924
3 161.603 1376928
3 161.603 1374897
3 162.486 1374669
3 162.486 1371478
3 162.486 1362094
3 163.096 1362013
3 166.643 1361553
3 167.638 1361396
3 168.568 1548166
3 168.568 1520323
3 168.568 1516031
3 168.568 1515814
3 168.568 1499083
3 168.568 1481661
3 168.568 1477884
3 168.568 1465864
3 169.66 1451777
3 169.66 1436017
3 170.67 1435800
3 170.67 1418509
3 170.67 1405869
3 170.67 1396092
3 170.67 1395756
3 171.692 1393107
3 171.692 1392462
3 172.645 1391787
3 173.583 1391786
3 173.583 1388185
3 174.571 1385202
3 175.556 1383981
3 175.556 1383940
3 177.966 1377170
3 177.966 1376087
3 178.681 1374260
3 179.625 1373372
3 179.625 1366858
3 179.625 1364348
3 181.014 1362336
3 181.014 1362249
3 181.802 1361474
3 181.802 1360670
3 182.626 1491835
3 182.626 1456392
3 182.626 1438445
3 182.626 1431613
3 182.626 1426350
3 182.626 1426208
3 182.626 1421426
3 182.626 1412451
3 182.626 1409195
3 183.797 1398446
3 183.797 1392625
3 184.807 1388525
3 184.807 1385612
3 185.809 1381571
3 185.809 1379042
3 185.809 1374471
3 186.89 1373772
3 186.89 1370728
3 187.872 1368243
3 188.819 1366818
3 188.819 1366673
3 188.819 1365150
3 191.736 1364144
3 193.681 1361427
3 193.681 1359774
3 194.696 1359764
3 195.633 1359467
3 196.579 1448997
3 196.579 1436118
3 196.579 1431793
3 196.579 1429056
3 196.579 1414091
3 197.516 1412648
3 197.516 1410614
3 197.516 1406634
3 197.516 1405388
3 197.516 1399372
3 197.516 1396883
3 198.375 1393777
3 198.375 1388728
3 199.371 1388636
3 200.098 1383437
3 200.098 1383432
3 201.647 1382408
3 201.647 1381504
3 205.137 1378996
3 205.137 1378325
3 205.764 1378321
3 206.365 1376948
3 206.983 1370306
3 206.983 1370208
3 206.983 1370069
3 207.586 1369134
3 207.586 1368946
3 207.586 1368271
3 208.178 1367577
3 209.133 1365318
3 210.138 1556916
3 210.138 1542918
3 210.138 1510941
3 210.138 1499355
3 210.138 1498615
3 210.138 1464470
3 210.138 1463647
3 210.138 1454627
3 210.138 1445324
3 210.138 1443988
3 210.138 1437396
3 210.138 1434867
3 210.138 1425915
3 210.138 1418954
3 211.368 1396609
3 211.368 1393744
3 211.368 1392351
3 212.356 1387681
3 213.304 1386427
3 214.285 1381708
3 214.285 1380760
3 214.285 1380049
3 215.271 1379980
3 216.215 1374237
3 216.215 1373327
3 218.234 1372186
3 219.216 1370798
3 219.216 1369640
3 221.464 1369158
3 222.448 1368734
3 222.448 1368059
3 224.349 1459841
3 224.349 1453842
3 224.349 1440110
3 224.349 1423514
3 224.349 1404776
3 225.072 1400484
3 225.072 1397091
3 225.072 1396830
3 225.072 1395396
3 225.885 1379119
3 225.885 1378772
3 225.885 1371986
3 226.886 1370858
3 228.033 1363430
3 228.033 1360901
3 228.033 1359356
3 229.266 1358257
3 229.266 1356292
3 238.078 1480503
3 238.078 1446420
3 238.078 1436744
3 238.078 1436069
3 238.078 1431312
3 238.078 1428258
3 238.078 1424093
3 239.244 1420052
3 239.244 1419831
3 239.244 1419444
3 240.524 1419424
3 240.524 1415816
3 240.524 1409593
3 240.524 1402466
3 241.386 1400826
3 241.386 1398470
3 241.386 1391754
3 241.386 1390626
3 241.386 1390233
3 242.183 1386537
3 242.183 1384008
3 243.572 1383210
3 245.483 1380478
3 246.445 1379113
3 247.412 1378124
3 247.412 1373040
3 247.412 1371400
3 248.347 1371225
3 248.347 1370670
3 248.933 1370406
3 249.504 1368113
3 249.504 1368006
3 251.572 1367271
3 251.572 1366331
3 252.574 1508481
3 252.574 1490144
3 252.574 1470601
3 252.574 1459853
3 252.574 1452549
3 252.574 1450382
3 252.574 1441250
3 252.574 1421423
3 253.356 1409064
3 253.356 1402206
3 253.356 1394554
3 253.356 1389190
3 253.356 1386217
3 253.356 1383764
3 253.356 1375088
3 254.782 1371642
3 254.782 1370721
3 254.782 1370544
3 255.41 1370005
3 257.01 1368768
3 257.01 1367762
3 257.01 1365233
3 257.65 1363172
3 257.65 1362189
3 259.187 1361878
3 259.187 1361705
3 259.187 1360932
3 259.187 1358765
3 260.143 1356165
3 262.895 1356092
3 262.895 1353563
3 265.694 1350137
3 265.694 1348045
3 266.655 1468959
3 266.655 1468760
3 266.655 1464905
3 266.655 1444022
3 266.655 1443394
3 266.655 1430539
3 266.655 1424567
3 266.655 1422831
3 266.655 1417153
3 266.655 1415305
3 266.655 1413062
3 267.433 1403693
3 267.433 1403476
3 267.433 1394436
3 268.08 1389549
3 268.08 1385287
3 268.08 1385134
3 268.701 1381842
1 269.293 1379860
3 269.293 1379643
3 269.293 1371712
3 270.31 1371461
3 270.31 1368103
3 270.31 1365823
3 271.208 1361352
3 271.208 1360595
3 271.208 1355379
3 271.208 1351982
3 271.879 1351021
3 271.879 1350620
3 271.879 1349188
3 271.879 1347024
3 275.132 1343004
3 275.132 1339070
3 275.132 1338620
3 275.132 1336471
3 276.16 1336385
3 276.16 1331840
3 278.814 1329311
3 278.814 1328507
3 280.514 1526771
3 280.514 1516160
3 280.514 1499774
3 280.514 1498646
3 280.514 1482757
3 280.514 1470650
3 280.514 1468284
3 280.514 1464008
3 280.514 1461479
3 281.457 1452933
3 281.457 1446960
3 281.457 1446919
3 281.457 1444954
3 281.457 1428353
3 281.457 1428136
3 281.457 1427441
3 281.457 1424558
3 282.303 1423341
3 282.303 1422847
3 282.303 1419119
3 283.318 1417143
3 283.318 1415299
3 284.312 1412614
3 284.312 1412397
3 285.313 1410435
3 285.313 1401330
3 286.299 1400849
3 286.299 1398050
3 291.716 1395327
3 292.572 1395086
3 294.552 1523141
3 294.552 1504003
3 294.552 1497501
3 294.552 1479164
3 294.552 1455482
3 294.552 1453506
3 294.552 1448026
3 294.552 1442012
3 294.552 1426588
3 294.552 1425971
3 295.786 1423822
3 295.786 1421988
3 295.786 1416880
3 295.786 1412214
3 295.786 1411416
3 297.062 1410478
3 297.062 1410175
3 297.062 1408948
3 298.112 1408173
3 298.112 1407956
3 298.112 1405813
3 298.112 1401887
3 299.174 1399786
3 302.395 1399623
3 302.395 1399569
3 303.382 1395862
3 303.382 1395425
3 304.358 1395390
3 306.247 1393750
3 308.165 1477880
3 308.165 1475821
3 308.165 1464490
3 308.165 1454954
3 308.165 1430271
3 308.165 1429898
3 309.241 1428873
3 309.241 1414005
3 309.241 1382259
3 309.241 1378479
3 315.944 1375881
3 316.805 1375218
3 316.805 1361678
3 316.805 1361101
3 316.805 1358693
3 316.805 1357053
3 316.805 1355885
3 322.427 1545673
3 322.427 1543431
3 322.427 1539558
3 322.427 1515399
3 322.427 1509832
3 322.427 1501187
3 322.427 1499222
3 323.486 1496888
3 323.486 1494536
3 323.486 1491139
3 323.486 1490902
3 323.486 1490051
3 324.474 1482797
3 324.474 1463810
3 324.474 1446599
3 325.494 1434801
3 325.494 1412099
3 325.494 1411841
3 325.494 1406723
3 325.494 1402441
3 327.441 1401006
3 327.441 1399204
3 327.441 1398298
3 327.441 1398258
3 328.607 1397623
3 328.607 1397279
3 329.559 1397131
3 329.559 1395672
3 329.559 1395455
3 329.559 1394215
3 330.859 1393852
3 332.155 1391887
3 333.339 1389957
3 333.339 1389220
3 333.339 1385390
3 334.351 1376876
3 335.434 1375793
3 335.434 1375691
3 336.447 1469360
3 336.447 1467340
3 336.447 1460244
3 336.447 1457394
3 336.447 1445513
3 336.447 1443248
3 336.447 1443078
3 336.447 1442892
3 347.129 1428696
3 347.129 1424184
3 347.129 1423086
3 347.129 1419105
3 347.129 1417164
3 347.129 1411469
3 347.129 1411451
3 348.606 1406872
3 348.606 1402553
3 349.608 1399078
3 349.608 1395969
3 350.582 1468443
3 350.582 1452611
3 350.582 1423622
3 350.582 1423604
3 350.582 1421363
3 350.582 1421134
3 351.678 1419573
3 352.698 1417424
3 352.698 1417020
3 352.698 1416946
3 352.698 1411713
3 352.698 1409645
3 353.612 1407204
3 353.612 1406863
3 353.612 1405738
3 354.615 1404512
3 354.615 1402133
3 354.615 1401190
3 354.615 1400849
3 355.666 1399724
3 355.666 1397656
3 355.666 1393876
3 356.749 1388682
3 356.749 1386195
3 356.749 1383364
3 356.749 1381455
3 356.749 1379565
3 357.771 1377675
3 357.771 1376908
3 357.771 1371344
3 358.805 1365281
3 358.805 1364670
3 358.805 1363745
3 359.76 1362755
3 359.76 1359716
3 364.695 1548328
3 364.695 1522087
3 364.695 1519271
3 364.695 1518144
3 364.695 1486295
3 364.695 1485301
3 364.695 1476662
3 364.695 1467126
3 364.695 1465965
3 364.695 1444995
3 364.695 1432355
3 365.799 1427161
3 365.799 1425862
3 365.799 1423264
3 365.799 1421353
3 365.799 1416187
3 368.123 1415790
3 368.123 1410034
3 369.128 1406333
3 369.128 1395067
3 369.128 1392715
1 371.472 1388097
3 372.431 1380683
3 373.41 1379399
3 378.104 1469292
3 378.104 1461878
3 378.104 1460218
3 378.104 1439839
3 378.104 1437690
3 378.104 1427630
3 379.139 1420773
3 379.139 1412356
3 379.73 1410863
3 380.314 1409924
3 380.314 1406324
3 380.314 1396410
3 380.314 1394217
3 380.314 1391625
3 380.314 1376354
3 381.539 1376255
3 382.105 1375762
3 382.708 1374645
3 382.708 1374630
3 383.84 1373988
3 384.607 1373313
3 385.656 1371242
3 386.441 1369972
3 386.441 1369430
3 387.168 1367790
3 388.568 1367548
3 388.568 1367542
3 391.563 1366003
3 392.144 1521021
3 392.144 1509095
3 392.144 1502030
3 392.144 1500390
3 392.144 1489078
3 392.144 1479132
3 392.144 1477779
3 392.144 1474971
3 392.144 1474561
3 392.144 1472412
3 392.144 1460923
3 392.144 1454104
3 393.328 1452128
3 393.328 1449210
3 393.328 1438916
3 393.328 1437507
3 393.328 1433561
3 393.328 1427648
3 393.328 1424506
3 393.328 1423413
3 394.348 1411947
3 394.348 1411493
3 394.348 1410583
3 394.348 1396585
3 394.348 1394756
3 395.06 1393541
3 396.22 1383055
3 398.005 1382375
3 398.681 1381214
3 398.681 1380539
3 406.19 1476724
3 406.19 1475084
3 406.19 1458542
3 406.19 1432626
3 406.19 1429160
3 406.19 1424734
3 406.19 1424362
3 406.19 1405840
3 406.912 1396215
3 406.912 1390606
3 406.912 1386736
3 406.912 1381249
3 407.574 1378029
3 407.574 1375696
3 407.574 1375677
3 408.237 1373148
3 408.237 1370782
3 408.832 1370501
3 409.458 1369394
3 410.251 1363380
3 410.982 1357318
3 410.982 1356326
3 410.982 1355281
3 411.975 1353316
3 411.975 1353050
3 411.975 1350839
3 412.981 1350415
3 413.922 1350207
3 413.922 1350199
3 413.922 1349900
3 417.339 1343163
3 420.23 1493608
3 420.23 1484689
3 420.23 1480115
3 420.23 1476396
3 420.23 1474429
3 420.23 1464289
3 420.23 1459968
3 420.23 1445376
3 420.23 1429869
3 420.23 1426927
3 420.963 1418547
3 420.963 1416695
3 420.963 1413885
3 420.963 1409593
3 420.963 1409365
3 420.963 1404633
3 422.271 1399382
3 422.271 1390683
3 422.271 1387741
3 423.252 1386872
3 423.252 1380069
3 423.252 1378771
3 423.252 1376728
3 423.252 1370714
3 424.272 1368185
3 424.272 1367510
3 425.258 1367293
3 428.739 1365968
3 429.931 1365528
3 431.836 1359170
3 433.292 1357033
3 433.292 1349392
3 434.281 1443900
3 434.281 1432787
3 434.281 1424890
3 434.281 1410600
3 434.281 1406230
3 435.085 1400128
3 435.085 1398259
3 435.729 1390102
3 435.729 1388374
3 435.729 1387878
3 437.533 1384519
3 438.184 1381680
3 438.184 1373135
3 438.184 1367928
3 441.405 1366770
3 442.356 1365704
3 445.027 1363888
3 445.63 1358672
3 445.63 1358267
3 445.63 1355693
3 445.63 1355661
3 446.271 1355529
3 446.271 1354797
3 448.051 1534055
3 448.051 1491640
3 448.051 1482960
3 448.051 1442806
3 448.051 1432653
3 448.051 1427142
3 448.051 1421726
3 448.967 1419555
3 448.967 1409367
3 448.967 1407402
3 448.967 1395295
3 449.847 1392214
3 449.847 1388815
3 449.847 1378818
3 449.847 1375774
3 449.847 1375754
3 453.144 1375192
3 453.144 1370201
3 453.865 1369493
3 454.479 1366101
3 454.479 1363085
3 462.564 1541736
3 462.564 1540515
3 462.564 1537986
3 462.564 1497524
3 462.564 1489622
3 462.564 1489405
3 462.564 1484054
3 462.564 1469692
3 462.564 1461615
3 462.564 1452503
3 462.564 1451150
3 462.564 1440936
3 462.564 1437951
3 463.627 1435811
3 463.627 1435144
3 463.627 1431344
3 463.627 1426257
3 463.627 1420038
3 463.627 1415746
3 463.627 1413394
3 464.698 1405541
3 464.698 1397734
3 466.322 1391526
3 467.065 1384579
3 467.817 1384362
3 470.369 1384221
3 472.805 1382656
3 476.249 1450150
3 476.249 1440329
3 476.249 1436174
3 476.249 1425677
3 476.249 1412756
3 476.249 1407569
3 476.249 1395198
3 476.249 1394978
3 476.935 1393850
3 476.935 1391000
3 476.935 1389360
3 477.92 1388193
3 477.92 1383619
3 477.92 1379454
3 477.92 1376659
3 478.987 1373440
3 478.987 1371074
3 478.987 1369343
3 484.875 1364709
3 484.875 1362560
3 485.774 1360920
3 489.933 1360226
3 490.597 1445386
3 490.597 1437692
3 490.597 1435823
3 490.597 1432686
3 490.597 1416905
3 490.597 1401613
3 490.597 1390834
3 490.597 1390129
3 490.597 1383190
3 491.897 1372240
3 491.897 1372215
3 492.499 1371369
3 492.499 1370767
3 493.081 1370164
3 493.081 1370077
3 494.033 1369402
3 503.662 1367480
3 504.3 1499444
3 504.3 1465860
3 504.3 1460328
3 504.3 1459662
3 504.3 1456157
3 504.3 1439529
3 504.967 1434912
3 505.596 1431817
3 505.596 1425142
3 505.596 1424818
3 505.596 1419128
3 505.596 1415785
3 505.596 1412459
3 506.339 1411289
3 506.339 1408043
3 506.943 1404083
3 506.943 1398156
3 506.943 1395030
3 506.943 1389908
3 507.598 1386218
3 507.598 1384552
3 507.598 1382237
3 507.598 1377945
3 508.211 1375908
3 508.84 1375442
3 508.84 1373477
3 508.84 1368642
3 508.84 1368582
3 510.618 1363717
3 511.555 1363500
3 512.505 1358760
3 512.505 1358325
3 513.471 1357202
3 514.434 1356630
3 515.367 1351164
3 517.236 1349372
3 517.236 1347167
3 518.894 1487631
3 518.894 1486334
3 518.894 1478804
3 518.894 1476119
3 518.894 1472686
3 518.894 1470181
3 518.894 1466326
3 518.894 1455710
3 520.181 1453358
3 520.181 1452358
3 520.181 1443406
3 520.181 1438835
3 520.181 1436942
3 520.181 1430928
3 520.181 1426444
3 521.23 1425323
3 521.23 1410804
3 521.23 1408383
3 521.23 1401984
3 521.23 1400184
3 521.23 1399101
3 521.23 1392410
3 522.088 1386429
3 522.088 1382774
3 522.088 1380723
3 523.651 1379489
3 523.651 1378574
3 524.687 1377493
3 525.384 1376934
3 526.54 1374640
3 526.54 1368576
3 527.136 1367226
3 527.136 1365113
3 527.786 1364182
3 531.146 1364099
3 531.146 1363603
3 531.813 1363300
3 531.813 1362531
3 531.813 1362042
3 531.813 1359346
3 531.813 1359024
3 532.544 1501023
3 532.544 1457766
3 532.544 1454383
3 532.544 1446421
3 532.544 1444962
3 532.544 1442610
3 532.544 1442440
3 532.544 1442143
3 532.544 1437569
3 532.544 1435877
3 533.296 1432022
3 533.296 1423342
3 533.296 1423263
3 533.296 1422135
3 533.296 1419069
3 533.296 1417966
3 533.296 1409699
3 533.296 1405844
3 533.985 1397606
3 533.985 1390977
3 533.985 1386431
3 533.985 1383563
3 533.985 1377801
3 534.668 1373462
3 535.258 1370422
3 535.848 1368010
3 535.848 1367347
3 536.442 1365707
3 537.691 1364703
3 538.372 1364028
3 538.372 1363986
3 538.372 1362419
3 539.049 1360454
3 539.049 1353279
3 541.12 1352170
3 542.115 1351101
3 544.064 1348122
3 545.009 1347967
3 545.938 1347207
3 545.938 1339509
3 546.876 1444820
3 546.876 1437816
3 547.845 1412984
3 547.845 1407168
3 547.845 1397782
3 548.626 1397221
3 548.626 1396142
3 548.626 1394988
3 548.626 1394228
3 548.626 1389016
3 549.455 1388821
3 549.455 1387039
3 549.455 1382127
3 549.455 1382121
3 551.006 1380243
3 551.611 1378094
3 551.611 1377702
3 551.611 1376536
3 551.611 1375409
3 552.602 1372762
3 552.602 1372087
3 552.602 1364673
3 553.225 1361180
3 553.225 1359443
3 554.026 1357417
3 555.665 1356742
3 558.02 1355897
3 559.758 1355396
3 559.758 1355056
3 560.72 1456577
3 560.72 1451764
3 560.72 1449750
3 560.72 1449034
3 560.72 1448817
3 560.72 1442214
3 560.72 1440835
3 561.958 1439076
3 561.958 1429563
3 561.958 1426592
3 561.958 1421866
3 561.958 1411877
3 563.012 1407969
3 563.012 1407294
3 563.012 1403396
3 563.012 1402268
3 563.937 1401304
3 563.937 1398730
3 563.937 1390523
3 564.707 1389673
3 565.28 1388455
3 565.28 1386270
3 565.28 1369937
3 566.125 1368438
3 566.125 1368419
3 566.125 1367101
3 566.125 1366488
3 567.067 1364908
3 567.067 1364574
3 567.067 1362766
3 568.941 1361776
3 568.941 1360712
3 568.941 1360625
3 569.902 1359983
3 570.863 1359091
3 570.863 1355664
3 570.863 1354456
3 571.803 1351455
3 571.803 1351238
3 574.451 1478924
3 574.451 1470865
3 574.451 1453178
3 574.451 1450946
3 574.451 1442919
3 574.451 1429452
3 574.451 1424889
3 574.451 1416887
3 574.451 1395611
3 575.588 1395264
3 575.588 1390237
3 575.588 1379110
3 575.588 1373923
3 575.588 1369139
3 576.527 1367712
3 576.527 1367625
3 576.527 1360479
3 577.52 1358762
3 577.52 1356783
3 579.806 1356562
3 579.806 1354922
3 579.806 1354874
3 583.061 1354323
3 584.237 1354078
3 585.112 1353624
3 587.446 1352919
3 588.235 1520395
3 588.235 1520308
3 588.235 1512777
3 588.235 1510812
3 588.235 1505792
3 588.235 1500364
3 588.235 1494184
3 588.235 1486785
3 588.235 1475621
3 588.235 1468979
3 588.235 1451384
3 588.981 1447908
3 588.981 1446952
3 588.981 1438830
3 589.606 1437248
3 589.606 1431933
3 589.606 1427200
3 589.606 1421326
3 589.606 1418878
3 589.606 1414546
3 590.303 1403382
3 590.303 1395120
3 591.565 1384154
3 592.169 1380701
3 592.169 1379766
3 592.169 1373024
3 592.169 1364387
3 595.415 1362775
3 595.415 1362670
3 596.182 1360951
3 597.619 1360864
3 599.502 1358496
3 600.468 1356035
3 600.468 1353135
3 602.254 1503704
3 602.254 1485862
3 602.254 1482008
3 602.254 1479465
3 602.254 1478790
3 602.254 1470394
3 602.254 1464688
3 602.254 1436196
3 603.128 1436101
3 603.128 1432202
3 603.128 1432115
3 603.128 1423976
3 603.837 1422694
3 603.837 1421886
3 603.837 1420246
3 603.837 1418876
3 603.837 1418201
3 603.837 1415653
3 604.506 1415554
3 604.506 1411009
3 604.506 1409505
3 604.506 1407865
3 605.197 1407211
3 605.197 1403214
3 605.802 1400678
3 605.802 1398092
3 605.802 1397411
3 605.802 1397099
3 605.802 1396195
3 605.802 1393999
3 605.802 1393430
3 606.492 1391377
3 606.492 1375022
3 606.492 1374428
3 607.389 1372791
3 607.389 1370308
3 608.106 1367941
3 608.106 1367724
3 608.106 1366106
3 608.106 1365944
3 609.852 1364270
3 611.269 1364141
3 616.378 1585146
3 616.378 1566433
3 616.378 1547101
3 616.378 1541657
3 616.378 1521393
3 616.378 1514267
3 616.378 1510286
3 616.378 1500750
3 616.378 1489586
3 616.378 1479210
3 616.378 1469191
3 617.471 1466533
3 617.471 1459813
3 617.471 1444468
3 617.471 1434932
3 617.471 1426959
3 618.562 1420506
3 618.562 1405296
3 618.562 1397397
3 618.562 1394760
3 618.562 1387621
3 619.395 1385981
3 619.395 1384421
3 620.08 1383451
3 620.08 1380947
3 620.08 1375075
3 620.688 1374858
3 621.285 1373416
3 625.226 1372731
3 628.684 1368786
3 630.438 1459997
3 630.438 1453572
3 630.438 1451151
3 630.438 1450934
3 630.438 1445194
3 630.438 1444260
3 630.438 1443737
3 631.327 1440835
3 631.327 1425192
3 631.327 1424582
3 631.327 1423537
3 631.327 1417523
3 632.406 1414930
3 632.406 1412019
3 633.371 1401398
3 633.371 1394490
3 633.371 1392730
3 633.371 1389779
3 633.371 1389171
3 633.371 1381455
3 633.371 1376261
3 634.283 1376174
3 634.283 1370630
3 634.283 1370415
3 634.85 1369740
3 636.215 1367423
3 636.949 1366955
3 636.949 1366333
3 636.949 1362534
3 636.949 1362141
3 636.949 1361558
3 637.712 1360894
3 638.578 1359467
3 639.713 1357694
3 641.513 1356782
3 644.354 1449477
3 644.354 1442631
3 644.354 1441624
3 644.354 1430696
3 644.354 1429056
3 644.354 1428485
3 644.354 1421843
3 644.354 1421168
3 644.354 1418205
3 645.08 1413022
3 645.08 1411082
3 645.08 1407290
3 645.08 1406371
3 645.08 1406113
3 645.743 1404938
3 646.379 1403911
3 646.379 1396460
3 646.379 1392460
1 646.379 1388426
3 646.379 1387683
3 647.457 1387508
3 648.062 1387097
3 648.062 1386605
3 648.062 1385299
3 648.062 1381562
3 648.062 1373959
3 649.447 1368884
3 651.17 1367386
3 655.443 1363689
3 657.046 1361347
3 657.046 1360004
3 657.656 1358373
3 658.25 1444517
3 658.25 1438503
3 658.25 1437835
3 658.25 1437160
3 658.25 1433738
3 658.894 1433483
3 658.894 1428289
3 658.894 1420090
3 658.894 1420003
3 659.752 1419302
3 659.752 1418847
3 659.752 1410917
3 659.752 1400078
3 660.834 1400006
3 660.834 1398041
3 660.834 1397145
3 663.157 1390693
3 663.157 1384302
3 672.037 1449057
3 672.037 1446528
3 672.037 1436253
3 672.037 1435681
3 672.037 1421394
3 672.037 1403552
3 672.037 1395703
3 672.037 1381024
3 672.037 1378033
3 672.793 1376732
3 672.793 1369135
3 672.793 1368493
3 672.793 1368488
3 672.793 1367581
3 672.793 1366983
3 674.055 1363944
3 674.637 1361979
3 675.582 1358817
3 675.582 1357910
3 684.167 1357688
3 684.167 1355159
3 685.343 1354739
3 686.543 1492172
3 686.543 1477764
3 686.543 1472810
3 686.543 1459091
3 686.543 1449596
3 686.543 1430369
3 686.543 1429653
3 687.202 1428863
3 687.202 1423709
3 687.202 1410562
3 687.202 1407607
3 687.202 1402916
3 687.906 1399400
3 687.906 1398474
3 687.906 1396325
3 687.906 1389867
3 687.906 1389237
3 688.605 1387306
3 688.605 1387089
3 688.605 1386317
3 688.605 1381432
3 688.605 1379665
3 688.605 1375951
3 690.147 1375411
3 690.743 1374203
3 691.631 1373605
3 692.249 1367845
3 692.249 1362030
3 692.903 1360954
3 692.903 1360915
3 692.903 1359400
3 692.903 1359234
3 692.903 1357705
3 693.534 1357415
3 694.214 1356828
3 694.214 1356757
3 695.514 1355117
3 700.745 1457791
3 700.745 1445432
3 700.745 1444304
3 700.745 1437361
3 700.745 1413012
3 700.745 1412495
3 700.745 1397935
3 700.745 1395970
3 700.745 1394806
3 700.745 1390156
3 701.651 1387112
3 701.651 1382181
3 701.651 1380777
3 701.651 1379104
3 701.651 1368009
3 702.415 1367990
3 702.415 1366881
3 703.588 1365044
3 703.588 1364800
3 703.588 1356201
3 704.259 1352748
3 704.259 1350427
3 704.924 1349697
3 704.924 1349277
3 705.873 1346943
3 708.792 1345657
3 709.724 1345570
3 709.724 1345405
3 714.123 1484200
3 714.123 1480345
3 714.123 1474904
3 714.123 1472755
3 714.123 1457765
3 714.123 1450107
3 714.123 1449859
3 714.123 1447330
3 714.123 1442136
3 714.123 1439688
3 715.188 1432265
3 715.188 1430576
3 715.188 1415591
3 715.188 1414962
3 716.199 1410887
3 716.199 1410741
3 716.199 1409778
3 716.199 1409561
3 718.198 1402956
3 720.211 1402462
3 720.211 1398418
3 720.211 1395374
3 720.211 1389877
3 720.211 1388634
3 721.237 1387884
3 728.149 1493657
3 728.149 1480462
1 728.149 1475799
3 728.149 1452206
3 728.149 1450527
3 728.828 1450180
3 729.667 1445888
3 729.667 1434679
3 730.719 1433092
3 730.719 1431857
3 730.719 1429172
3 730.719 1427778
3 730.719 1412201
3 731.405 1382381
3 731.405 1380528
3 731.405 1379695
3 731.405 1376431
3 732.202 1374993
3 732.202 1373665
3 734.166 1371700
3 734.166 1369593
3 734.166 1367064
3 735.893 1364714
3 735.893 1362565
3 738.681 1362557
3 742.537 1599010
3 742.537 1531887
3 742.537 1525989
3 742.537 1512671
3 742.537 1504781
3 742.537 1503719
3 742.537 1494673
3 742.537 1488659
3 742.537 1456810
3 743.254 1455837
3 743.254 1448447
3 743.254 1440418
3 743.254 1431107
3 743.254 1428286
3 743.254 1416578
3 743.254 1411990
3 743.254 1404641
3 744.341 1400907
3 744.341 1398632
3 744.937 1397957
3 744.937 1397740
3 745.528 1397497
3 745.528 1389343
3 745.528 1386031
3 745.528 1384884
3 745.528 1382126
3 745.528 1381308
3 745.528 1377443
3 746.211 1374056
3 746.211 1370220
3 746.211 1366365
3 746.826 1357202
3 746.826 1356738
3 746.826 1355748
3 747.419 1352704
3 749.144 1351277
3 749.144 1347988
3 750.957 1345617
3 750.957 1344077
3 750.957 1342167
3 752.743 1339685
3 753.307 1338544
3 756.442 1492035
3 756.442 1479676
3 756.442 1471203
3 756.442 1465234
3 756.442 1462625
3 756.442 1457228
3 756.442 1455983
3 757.541 1451598
3 757.541 1442161
3 757.541 1435252
3 757.541 1422478
3 757.541 1420431
3 757.541 1410932
3 757.541 1410708
3 758.334 1405307
3 758.334 1403158
3 758.918 1402863
3 760.068 1402610
3 760.068 1392629
3 760.068 1390196
3 760.068 1389691
3 760.068 1389541
3 760.7 1386085
3 760.7 1383041
3 761.345 1382143
3 761.945 1381632
3 762.93 1380062
3 762.93 1376698
3 762.93 1376481
3 763.52 1375046
3 764.821 1374342
3 765.413 1366447
3 766.03 1364482
3 767.171 1362842
3 767.751 1361272
3 768.722 1360606
3 770.249 1475815
3 770.249 1464229
3 770.249 1422783
3 770.249 1422607
3 770.249 1401683
3 770.249 1398990
3 770.249 1396299
3 770.249 1393770
3 770.249 1389679
3 771.181 1386226
3 771.181 1385551
3 771.181 1382940
3 772.169 1380561
3 772.169 1379537
3 772.169 1376758
3 772.169 1370116
3 772.169 1368476
3 773.19 1365947
3 773.19 1364819
3 773.776 1364645
3 773.776 1356792
3 773.776 1350085
3 774.367 1344731
3 774.367 1342078
3 775.329 1339549
3 775.329 1337443
3 780.376 1337135
3 783.873 1334670
3 784.488 1456107
3 784.488 1454142
3 784.488 1444234
3 784.488 1428433
3 784.488 1427071
3 784.488 1417005
3 784.488 1408977
3 784.488 1408580
3 784.488 1407418
3 784.488 1403461
3 785.59 1394886
3 785.59 1393523
3 785.59 1387509
3 785.59 1385078
3 785.59 1378691
3 786.799 1377573
3 786.799 1372149
3 786.799 1366641
3 788.451 1364676
3 790.761 1364296
3 790.761 1363690
3 792.551 1362325
3 793.527 1353730
3 794.137 1353493
3 798.144 1496341
3 798.144 1484619
3 798.144 1476167
3 798.144 1470079
3 798.144 1464065
3 798.144 1460767
3 798.144 1454797
3 798.144 1452879
3 798.144 1429201
3 798.144 1426516
3 798.144 1422224
3 798.945 1412240
3 798.945 1408415
3 798.945 1401861
3 799.577 1393465
3 799.577 1384305
3 799.577 1382899
3 799.577 1380937
3 800.357 1379579
3 800.357 1378504
3 800.357 1377862
3 800.357 1377346
3 801.346 1375383
3 802.12 1374982
3 802.721 1372133
3 802.721 1370366
3 802.721 1368991
3 803.414 1366727
3 805.803 1366290
3 806.56 1366073
3 807.75 1361341
3 808.324 1345673
3 811.434 1344671
3 812.389 1520384
3 812.389 1500746
3 812.389 1499618
3 812.389 1497198
3 812.389 1484343
3 812.389 1462216
3 812.389 1458485
3 812.389 1452921
3 813.533 1440671
3 813.533 1440060
3 813.533 1436062
3 813.533 1433038
3 814.556 1432923
3 814.556 1426909
3 814.556 1424380
3 814.556 1419363
3 814.556 1410429
3 814.556 1404760
3 815.617 1396907
3 815.617 1390938
3 816.641 1387502
3 820.362 1387402
3 820.362 1386970
3 821.415 1385186
3 821.415 1381810
3 821.415 1381594
3 821.415 1376909
3 822.253 1374346
3 822.253 1366714
3 822.824 1366493
3 823.411 1363019
3 825.121 1361891
3 826.348 1427145
3 826.348 1424616
3 826.348 1422728
3 827.059 1421507
3 827.059 1410256
3 827.059 1393487
3 827.059 1390298
3 827.059 1387838
3 827.059 1382861
3 827.752 1378030
3 827.752 1374283
3 829.042 1368745
3 834.617 1365269
3 834.617 1365024
3 834.617 1360555
3 837.284 1358686
3 837.889 1353810
3 840.505 1495326
3 840.505 1487194
3 840.505 1481768
3 840.505 1479320
3 840.505 1467329
3 840.505 1453092
3 840.505 1451699
3 840.505 1441931
3 840.505 1441878
3 841.583 1437619
3 841.583 1437016
3 841.583 1428754
3 841.583 1424188
3 841.583 1421102
3 842.226 1417921
3 842.226 1410507
3 842.226 1409832
3 842.833 1409730
3 842.833 1409274
3 843.47 1407598
3 843.47 1404963
3 843.47 1399577
3 843.47 1385716
3 843.47 1383750
3 844.111 1382729
3 844.111 1380377
3 844.708 1379249
3 844.708 1376830
3 844.708 1376366
3 845.382 1375263
3 846.556 1372328
3 847.136 1370179
3 847.136 1358548
3 847.136 1357873
3 847.853 1355627
3 847.853 1353662
3 847.853 1349370
3 854.212 1442021
3 854.212 1438208
3 854.212 1436568
3 854.212 1420918
3 854.212 1416273
3 854.212 1407883
3 854.212 1400824
3 855.498 1396345
3 855.498 1391923
3 855.498 1390848
3 855.498 1390611
3 855.498 1390394
3 856.157 1376693
3 856.157 1376674
3 856.157 1374709
3 856.157 1373146
3 856.157 1370617
3 856.783 1369489
3 857.364 1367706
3 857.364 1365888
3 857.364 1365651
3 858.042 1364011
3 858.61 1362397
3 858.61 1358748
3 859.188 1358080
3 860.987 1353755
3 868.35 1454867
3 868.35 1438285
3 868.35 1432196
3 868.35 1423409
3 868.35 1422734
3 868.35 1418114
3 868.35 1416292
3 869.405 1411896
3 869.405 1410434
3 869.405 1405882
3 869.405 1404039
3 869.405 1404033
3 869.405 1400538
3 870.452 1394610
3 870.452 1391131
3 870.452 1389822
3 871.195 1387993
3 871.195 1387665
3 873.672 1386883
3 873.672 1386480
3 874.512 1386263
3 874.512 1383219
3 875.379 1381300
3 875.379 1379126
3 875.379 1376597
3 875.379 1372701
3 875.379 1372359
3 878.669 1371594
3 878.669 1369929
3 879.69 1369607
3 879.69 1368965
3 880.666 1367085
3 881.624 1366710
3 882.601 1492232
3 882.601 1483800
3 882.601 1478088
3 882.601 1472667
3 882.601 1468634
3 882.601 1458281
3 882.601 1450322
3 883.732 1450136
3 883.732 1441184
3 883.732 1439669
3 883.732 1436402
3 883.732 1433061
3 883.732 1425996
3 883.732 1424838
3 885.727 1424529
3 886.716 1424240
3 886.716 1422428
3 888.651 1422091
3 888.651 1416149
3 888.651 1415886
3 888.651 1413795
3 889.732 1413320
3 890.675 1411171
3 890.675 1404672
3 890.675 1401198
3 891.494 1388839
3 891.494 1387199
3 891.494 1386982
3 892.131 1380370
3 892.131 1371747
3 893.443 1366345
3 893.443 1364778
3 896.344 1498276
3 896.344 1491653
3 896.344 1489301
3 896.344 1484730
3 896.344 1483090
3 896.344 1476834
3 897.019 1467882
3 897.019 1466790
3 897.019 1450595
3 897.019 1445810
3 897.752 1431169
3 897.752 1426491
3 897.752 1424696
3 897.752 1412551
3 897.752 1406878
3 897.752 1399146
3 898.621 1397852
3 898.621 1396212
3 899.517 1395576
3 899.517 1394284
3 900.346 1387642
3 900.944 1383602
3 901.559 1383089
3 905.102 1382977
3 906.312 1382391
3 906.891 1379050
3 906.891 1378408
3 910.346 1557725
3 910.346 1544339
3 910.346 1538633
3 910.346 1536743
3 910.346 1480548
3 911.352 1462706
3 911.352 1462104
3 911.352 1458967
3 911.352 1456765
3 911.352 1442179
3 911.352 1423588
3 912.016 1417441
3 912.016 1417317
3 912.016 1395784
3 912.016 1393992
3 912.016 1384677
3 912.016 1375570
3 912.016 1375353
3 913.289 1372309
3 913.289 1368383
3 913.895 1365908
3 913.895 1365676
3 913.895 1364984
3 914.585 1364152
3 914.585 1361623
3 915.201 1359493
3 915.784 1359182
3 918.777 1358701
3 918.777 1354585
3 924.614 1496123
3 924.614 1482594
3 924.614 1444440
3 924.614 1441911
3 924.614 1439744
3 924.614 1439567
3 924.614 1432253
3 924.614 1424400
3 924.614 1423404
3 924.614 1417218
3 925.747 1412636
3 925.747 1411115
3 926.581 1410213
3 926.581 1407528
3 927.175 1407055
3 927.175 1406027
3 927.778 1402185
3 927.778 1394771
3 927.778 1391919
3 927.778 1391033
3 928.54 1390070
3 929.321 1382217
3 931.363 1374490
3 931.363 1372850
3 932.349 1368757
3 932.349 1367629
3 932.349 1366610
3 934.294 1363157
3 934.294 1363117
3 934.294 1362191
3 935.44 1362087
3 935.44 1359244
3 936.327 1359140
3 938.166 1430763
3 938.166 1429909
3 938.166 1414158
3 938.166 1409979
3 938.166 1404792
3 938.166 1401027
3 938.166 1399986
3 938.166 1389425
3 938.166 1382204
3 938.166 1380564
3 938.874 1379376
3 938.874 1377335
3 938.874 1376578
3 938.874 1376361
3 938.874 1376341
3 939.525 1375045
3 939.525 1373760
3 939.525 1373673
3 939.525 1372545
3 940.157 1371297
3 940.157 1369026
3 941.561 1368291
3 941.561 1368253
3 942.548 1362239
3 942.548 1361613
3 943.155 1361396
3 948.659 1360351
3 949.846 1360317
3 950.508 1358725
3 951.733 1356613
3 952.686 1513713
3 952.686 1486608
3 952.686 1466968
3 952.686 1465793
3 952.686 1462246
3 952.686 1447816
3 952.686 1440253
3 952.686 1439886
3 952.686 1438709
3 952.686 1437069
3 953.8 1425661
3 953.8 1422891
3 953.8 1420206
3 953.8 1412850
3 954.819 1409331
3 954.819 1409263
3 954.819 1395190
3 955.426 1394183
3 955.426 1390734
3 955.426 1385779
3 956.05 1382725
3 956.05 1369893
3 956.05 1368253
3 956.05 1366601
3 956.05 1365901
3 956.05 1361330
3 958.661 1357086
3 959.623 1356817
3 959.623 1356219
3 959.623 1355946
3 961.893 1351714
3 961.893 1350347
3 962.882 1348856
3 963.835 1348367
3 965.681 1347769
3 966.394 1526856
3 966.394 1518685
3 966.394 1486126
3 966.394 1474539
3 966.394 1470829
3 966.394 1453845
3 966.394 1452912
3 966.394 1430177
3 967.228 1416732
3 967.228 1413006
3 967.228 1411993
3 967.228 1409869
3 967.228 1404255
3 967.228 1399216
3 967.228 1397251
3 967.907 1396965
3 967.907 1395164
3 967.907 1394578
3 967.907 1392958
3 967.907 1392283
3 968.915 1385555
3 969.715 1379908
3 969.715 1379632
3 969.715 1378635
3 970.922 1377103
3 973.163 1376735
3 973.163 1372811
3 975.624 1370445
3 975.624 1369725
3 975.624 1367739
3 975.624 1366901
3 976.253 1366684
3 976.253 1356069
3 976.834 1355117
3 976.834 1354315
3 978.599 1353422
3 978.599 1350438
3 980.32 1479279
3 980.32 1477962
3 980.32 1476301
3 980.32 1471110
3 980.32 1464708
3 980.32 1434990
3 980.32 1433250
3 980.32 1432349
3 980.32 1428368
3 980.32 1416959
3 980.32 1410039
3 980.32 1384331
3 980.32 1374325
3 981.138 1371162
3 981.138 1370945
3 981.138 1370714
3 981.138 1370667
3 981.138 1369552
3 981.138 1366911
3 981.138 1355980
3 982.01 1354793
3 982.01 1353981
3 982.01 1348526
3 984.723 1346377
3 985.478 1346202
3 985.478 1344651
3 985.478 1343558
3 986.242 1342528
3 994.409 1495963
3 994.409 1489048
3 994.409 1485152
3 994.409 1484428
3 994.409 1482788
3 994.409 1458883
3 994.409 1447345
3 994.409 1447150
3 994.409 1446878
3 994.409 1442665
3 994.409 1424900
3 994.409 1424606
3 994.409 1411071
3 994.409 1410596
3 995.21 1408655
3 995.21 1394759
3 995.21 1394542
3 995.21 1391857
3 995.21 1385072
3 995.21 1384849
3 995.21 1384831
3 995.21 1384744
3 995.21 1383324
3 995.936 1382649
3 995.936 1379910
3 996.586 1369875
3 996.586 1369521
3 997.181 1368013
3 997.181 1365328
3 997.823 1365111
3 1001 1364895
3 1001.59 1364643
3 1001.59 1363939
3 1002.24 1363730
3 1002.24 1360646
3 1002.87 1359855
3 1004.66 1358840
3 1005.36 1356124
3 1005.36 1356037
3 1007.58 1355586
3 1008.33 1440922
3 1008.33 1439059
3 1008.33 1435977
3 1008.33 1426687
3 1008.33 1424612
3 1008.33 1421485
3 1009.41 1417554
3 1009.41 1415589
3 1009.41 1405119
3 1009.41 1404444
3 1009.41 1404246
3 1010.34 1400982
3 1010.34 1399340
3 1011.07 1397296
3 1011.07 1392698
3 1011.07 1390708
3 1011.07 1383709
3 1011.07 1377456
3 1011.75 1376137
3 1012.35 1365531
3 1013.02 1364317
3 1013.02 1362669
3 1013.02 1362582
3 1013.02 1361440
3 1014.06 1359621
3 1014.06 1358687
3 1014.06 1357269
3 1015.05 1355875
3 1015.99 1353028
3 1015.99 1352221
3 1015.99 1348423
3 1017.02 1348322
3 1017.02 1348105
3 1017.02 1347463
3 1017.02 1344826
3 1017.02 1343768
3 1022.08 1490217
3 1022.08 1482703
3 1022.08 1473711
3 1022.08 1466325
3 1023.19 1458334
3 1023.19 1447317
3 1023.99 1445677
3 1023.99 1445652
3 1025.2 1442871
3 1025.2 1442654
3 1025.2 1418610
3 1025.2 1416970
3 1025.2 1410956
3 1025.2 1405769
3 1026.49 1403620
3 1026.49 1400956
3 1027.15 1395194
3 1027.15 1391261
3 1030.24 1386618
3 1030.24 1384369
3 1030.24 1376745
3 1030.24 1376273
3 1032.11 1376069
3 1032.11 1374633
3 1033.41 1372506
3 1033.41 1372096
3 1034.02 1371754
3 1034.02 1368078
3 1034.63 1366121
3 1034.63 1362912
1 1034.63 1362595
3 1035.3 1361953
3 1035.3 1359682
3 1035.91 1357725
3 1036.5 1459214
3 1036.5 1457574
3 1036.5 1435473
3 1036.5 1422618
3 1036.5 1419481
3 1036.5 1418335
3 1036.5 1415880
3 1036.5 1400170
3 1036.5 1396591
3 1037.2 1395505
3 1037.2 1386784
3 1037.2 1385014
3 1038.42 1383127
3 1039.63 1377526
3 1040.21 1376485
3 1049.86 1374721
3 1050.85 1530251
3 1050.85 1521299
3 1050.85 1485164
3 1050.85 1475868
3 1051.73 1443008
3 1052.43 1439641
3 1052.43 1438373
3 1052.43 1438111
3 1052.43 1415571
3 1052.43 1408607
3 1052.43 1407927
3 1053.96 1404289
3 1054.94 1399452
3 1055.93 1398410
3 1055.93 1397011
3 1055.93 1392634
3 1056.92 1386620
3 1062.12 1382243
3 1063.25 1382011
3 1063.83 1381167
3 1064.4 1507644
3 1064.4 1500230
3 1064.4 1498769
3 1064.4 1483859
3 1064.4 1482219
3 1064.4 1465143
3 1065.06 1462014
3 1065.06 1444461
3 1065.06 1437734
3 1065.91 1429121
3 1065.91 1427313
3 1065.91 1426955
3 1066.57 1422974
3 1066.57 1418413
3 1066.57 1414669
3 1067.17 1413953
3 1067.17 1411301
3 1067.17 1406191
3 1067.17 1403316
3 1067.81 1398632
3 1067.81 1397108
3 1067.81 1390445
3 1067.81 1389840
3 1067.81 1389753
3 1068.46 1386457
3 1069.15 1380507
3 1069.15 1376553
3 1069.15 1373386
3 1070.17 1372774
3 1070.17 1368383
3 1072.88 1367647
3 1072.88 1363281
3 1072.88 1362372
3 1074.17 1359010
3 1075.01 1357805
3 1075.01 1356386
3 1075.58 1355180
3 1075.58 1354524
3 1076.73 1353396
3 1076.73 1353377
3 1078.48 1508884
3 1078.48 1494988
3 1078.48 1491928
3 1078.48 1488309
3 1078.48 1475366
3 1078.48 1450435
3 1078.48 1447429
3 1078.48 1432745
3 1078.48 1425416
3 1078.48 1411728
3 1078.48 1410722
3 1078.48 1406125
3 1079.22 1402394
3 1079.22 1391533
3 1079.22 1388484
3 1079.22 1388247
3 1079.22 1388160
3 1079.22 1387343
3 1079.22 1387187
3 1079.91 1371736
3 1079.91 1371376
3 1079.91 1356991
3 1079.91 1354708
3 1079.91 1352281
3 1079.91 1349752
3 1080.55 1347695
3 1080.55 1347400
3 1080.55 1347183
3 1081.37 1342551
3 1081.37 1341974
3 1084.49 1341423
3 1084.49 1340574
3 1085.13 1340380
3 1089.59 1338488
3 1089.59 1337360
3 1090.46 1336848
3 1092.26 1422084
3 1092.26 1416289
3 1092.26 1415933
3 1092.26 1409040
3 1093.09 1407375
3 1093.09 1405980
3 1093.09 1405945
3 1093.09 1400257
3 1093.09 1392404
3 1096.55 1391234
3 1096.55 1390120
3 1096.55 1385154
3 1096.55 1384479
3 1096.55 1376166
3 1098.92 1370718
3 1100.7 1368752
3 1101.4 1368708
3 1106.67 1514050
3 1106.67 1481949
3 1106.67 1462889
3 1106.67 1460842
3 1106.67 1454779
3 1106.67 1450487
3 1106.67 1443367
3 1106.67 1441201
3 1106.67 1440984
3 1107.74 1432346
3 1107.74 1424887
3 1108.35 1422351
3 1108.35 1417077
3 1108.35 1416402
3 1108.35 1410244
3 1108.35 1406577
3 1108.35 1404278
3 1108.35 1396961
3 1109 1396794
3 1109 1395805
3 1109 1393276
3 1109 1392082
3 1109 1391255
3 1109.82 1390580
3 1109.82 1390450
3 1109.82 1378098
3 1110.61 1377881
3 1110.61 1373967
3 1110.61 1372839
3 1110.61 1371279
3 1111.36 1369215
3 1111.94 1368540
3 1111.94 1366450
3 1111.94 1365851
3 1111.94 1365268
3 1111.94 1360145
3 1113.31 1359790
3 1120.41 1518189
3 1120.41 1470576
3 1120.41 1466718
3 1120.41 1461959
3 1120.41 1457477
3 1120.41 1453916
3 1120.41 1451387
3 1121.11 1446927
3 1121.11 1430477
3 1121.11 1421892
3 1121.11 1419645
3 1121.81 1415250
3 1121.81 1414546
3 1121.81 1404846
3 1121.81 1398223
3 1121.81 1396960
3 1121.81 1393975
3 1121.81 1392847
3 1122.51 1390370
3 1122.51 1373978
3 1124.94 1371853
3 1124.94 1371178
3 1124.94 1371091
3 1124.94 1369245
3 1125.92 1369009
3 1125.92 1367149
3 1126.6 1366690
3 1126.6 1365303
3 1127.34 1362482
3 1127.34 1360841
3 1127.34 1359625
3 1128.1 1358541
3 1128.69 1358273
3 1128.69 1356353
3 1128.69 1355225
3 1131.12 1352813
3 1131.12 1350521
3 1131.72 1348372
3 1131.72 1348254
3 1131.72 1346806
3 1133.92 1345891
3 1134.89 1523550
3 1134.89 1505056
3 1134.89 1503928
3 1134.89 1499428
3 1134.89 1498753
3 1135.87 1493071
3 1135.87 1489618
3 1135.87 1481765
3 1136.52 1476462
3 1136.52 1468132
3 1136.52 1465402
3 1136.52 1462001
3 1136.52 1458864
3 1136.52 1439926
3 1136.52 1437322
3 1137.36 1433532
3 1137.36 1432480
3 1138.37 1430611
3 1138.37 1429673
3 1138.37 1429405
3 1138.37 1428763
3 1139.68 1428529
3 1139.68 1427357
3 1139.68 1426229
3 1139.68 1424034
3 1139.68 1422525
3 1139.68 1419597
3 1141.02 1414313
3 1141.02 1411744
3 1141.02 1408687
3 1141.85 1407173
3 1141.85 1402771
3 1142.87 1402684
3 1143.93 1398309
3 1143.93 1396290
3 1143.93 1387006
3 1144.73 1384028
3 1144.73 1381477
3 1144.73 1379487
3 1148.94 1534340
3 1148.94 1508741
3 1148.94 1471557
3 1148.94 1466947
3 1148.94 1461437
3 1148.94 1454483
3 1148.94 1451598
3 1148.94 1446629
3 1148.94 1420006
3 1150.09 1418366
3 1150.09 1414320
3 1150.09 1412740
3 1150.09 1410465
3 1150.09 1403870
3 1150.09 1402230
3 1150.09 1399849
3 1151.12 1398806
3 1151.12 1396166
3 1151.12 1395038
3 1151.12 1392913
3 1151.76 1381568
3 1151.76 1378475
3 1151.76 1376522
3 1153.05 1376337
3 1153.05 1376202
3 1153.05 1375332
3 1153.79 1374750
3 1153.79 1374711
3 1153.79 1373852
3 1154.44 1373832
3 1154.44 1371887
3 1154.44 1368891
3 1154.44 1368412
3 1154.44 1366919
3 1155.18 1366832
3 1155.18 1360798
3 1156.07 1359978
3 1156.07 1359761
3 1157.12 1359090
3 1157.12 1353215
3 1157.12 1352511
3 1158.25 1352424
3 1158.25 1352207
3 1159.26 1348566
3 1160.23 1346964
3 1160.23 1346289
3 1161.26 1345923
3 1162.33 1544682
3 1162.33 1532547
3 1162.33 1525394
3 1162.33 1516282
3 1162.33 1515881
3 1162.33 1506929
3 1162.33 1487271
3 1162.33 1481986
3 1162.33 1478553
3 1162.33 1472915
3 1162.33 1467489
3 1162.33 1466413
3 1163.5 1459638
3 1163.5 1455783
3 1163.5 1446831
3 1163.5 1441405
3 1163.5 1437975
3 1164.58 1437797
3 1164.58 1437721
3 1164.58 1435369
3 1164.58 1432270
3 1164.58 1418272
3 1165.65 1417871
3 1165.65 1414827
3 1165.65 1413907
3 1165.65 1407018
3 1165.65 1404333
3 1165.65 1402551
3 1165.65 1401303
3 1165.65 1394691
3 1166.5 1394564
3 1166.5 1392093
3 1166.5 1390957
3 1167.18 1388595
3 1167.18 1388281
3 1167.9 1382002
3 1167.9 1377903
3 1167.9 1375218
3 1168.62 1375001
3 1168.62 1373341
3 1168.62 1371693
3 1169.63 1371601
3 1169.63 1369162
3 1170.74 1362720
3 1171.73 1362422
3 1172.71 1361691
3 1172.71 1359542
3 1175.03 1359351
3 1175.03 1359067
3 1175.99 1357284
3 1176.93 1452838
3 1176.93 1443659
3 1176.93 1427209
3 1176.93 1426210
3 1176.93 1421553
3 1176.93 1420880
3 1176.93 1420018
3 1176.93 1410441
3 1176.93 1401702
3 1178.11 1394262
3 1178.11 1383623
3 1178.11 1380376
3 1178.11 1379149
3 1179.19 1377441
3 1180.17 1375036
3 1180.17 1375035
3 1180.17 1373011
3 1181.11 1368058
3 1181.11 1367182
3 1181.77 1367013
3 1182.61 1365559
3 1182.61 1365373
3 1185.15 1357860
3 1185.15 1357643
3 1185.8 1355480
3 1186.44 1355075
3 1186.44 1353351
3 1190.38 1494389
3 1190.38 1468802
3 1190.38 1446797
3 1190.38 1442613
3 1190.38 1412275
3 1190.38 1405848
1 1191.07 1403207
3 1191.07 1400146
3 1191.07 1395205
3 1191.69 1387395
3 1191.69 1384210
3 1191.69 1381381
3 1192.3 1369433
3 1192.92 1361805
3 1193.84 1360874
3 1195.31 1355782
3 1196.16 1354142
3 1199.04 1348243
3 1199.04 1347958
3 1200.01 1347822
3 1200.01 1344404
3 1200.98 1343709
3 1201.97 1343387
3 1202.76 1341180
3 1204.53 1488141
3 1204.53 1481831
3 1204.53 1477384
3 1204.53 1463998
3 1204.53 1462793
3 1204.53 1448963
3 1204.53 1434904
3 1204.53 1427517
3 1204.53 1425559
3 1204.53 1424474
3 1204.53 1424113
3 1205.73 1423807
3 1205.73 1402355
3 1205.73 1393286
3 1205.73 1392937
3 1205.73 1388366
3 1205.73 1387867
3 1206.83 1377114
3 1207.85 1375811
3 1207.85 1375594
3 1208.84 1373736
3 1208.84 1373016
3 1208.84 1369550
3 1208.84 1366465
3 1209.86 1362730
3 1210.8 1362652
3 1213.65 1362472
3 1214.61 1361012
3 1215.37 1359945
3 1215.37 1359636
3 1215.37 1357671
3 1215.37 1350801
3 1218.11 1471262
3 1218.11 1466638
3 1218.11 1462191
3 1218.11 1453272
3 1218.11 1449213
3 1218.11 1449037
3 1218.11 1418559
3 1218.11 1407283
3 1218.11 1407004
3 1218.83 1404982
3 1218.83 1399487
3 1219.43 1390881
3 1220.03 1384594
3 1220.03 1383434
3 1220.03 1382691
3 1220.03 1380739
3 1220.03 1379775
3 1222.9 1374665
3 1222.9 1371989
3 1223.56 1370024
3 1224.84 1362049
3 1224.84 1359408
3 1224.84 1357056
3 1224.84 1356035
3 1232.13 1450083
3 1232.13 1448777
3 1232.13 1440924
3 1232.13 1424931
3 1232.13 1407774
3 1232.13 1405089
3 1232.13 1402351
3 1233.2 1396373
3 1233.2 1390569
3 1234.2 1387562
3 1234.2 1384443
3 1234.2 1382965
3 1235.24 1379337
3 1235.24 1376252
3 1236.09 1364776
3 1236.09 1363466
3 1236.09 1359471
3 1236.84 1356427
3 1236.84 1354779
3 1237.42 1354588
3 1239.75 1352520
3 1240.51 1351196
3 1241.38 1351088
3 1246.48 1473315
3 1246.48 1465729
3 1246.48 1450101
3 1246.48 1430663
3 1246.48 1417012
3 1247.6 1415994
3 1247.6 1399868
3 1247.6 1399359
3 1247.6 1389135
3 1247.6 1387837
3 1247.6 1383344
3 1247.6 1383115
3 1248.47 1382820
3 1248.47 1382440
3 1248.47 1376426
3 1249.12 1375046
3 1249.12 1372172
3 1249.71 1370664
3 1249.71 1361654
3 1249.71 1359667
3 1249.71 1359302
3 1250.55 1358992
3 1250.55 1357503
3 1251.23 1354834
3 1251.23 1354221
3 1253.88 1353319
3 1253.88 1351376
3 1253.88 1348366
3 1259.51 1347691
3 1260.2 1511901
3 1260.2 1506075
3 1260.2 1485877
3 1260.2 1464904
3 1260.2 1461066
3 1260.2 1456507
3 1260.2 1452505
3 1261.05 1450721
3 1261.05 1447322
3 1261.05 1447035
3 1261.05 1440530
3 1261.05 1437446
3 1261.05 1434319
3 1261.05 1429454
3 1261.05 1427489
3 1261.05 1419682
3 1262.15 1418042
3 1262.15 1413645
3 1262.15 1404655
3 1263.14 1403527
3 1263.14 1403449
3 1263.14 1403096
3 1264.12 1394928
3 1264.12 1390456
3 1264.12 1387366
3 1264.86 1386511
3 1264.86 1383826
3 1265.49 1382991
3 1265.49 1380976
3 1265.49 1379947
3 1266.13 1377798
3 1267.61 1374738
3 1270.65 1374321
3 1270.65 1372773
3 1272.81 1364722
3 1273.8 1360978
3 1273.8 1359001
3 1273.8 1358829
3 1273.8 1358154
3 1273.8 1358103
3 1274.85 1439168
3 1274.85 1426832
3 1274.85 1423795
3 1274.85 1422881
3 1275.86 1418917
3 1275.86 1416509
3 1276.82 1413655
3 1276.82 1401183
3 1276.82 1397750
3 1277.86 1390888
3 1277.86 1388738
3 1277.86 1387252
3 1278.84 1386166
3 1278.84 1384128
3 1278.84 1383153
3 1279.79 1376280
3 1280.71 1369187
3 1280.71 1362122
3 1280.71 1360904
3 1280.71 1360666
3 1281.68 1360572
3 1281.68 1360271
3 1281.68 1358317
3 1281.68 1356760
3 1282.39 1354611
3 1283.02 1354566
3 1283.89 1352590
3 1283.89 1351889
3 1284.83 1351873
3 1286.68 1350745
3 1288.55 1487417
3 1288.55 1470529
3 1288.55 1459962
3 1288.55 1449323
3 1288.55 1444752
3 1288.55 1439764
3 1288.55 1433750
3 1288.55 1433129
3 1288.55 1428028
3 1289.77 1414520
3 1289.77 1412551
3 1289.77 1406714
3 1290.81 1402946
3 1290.81 1391602
3 1291.41 1390366
3 1292.17 1387837
3 1293.64 1386126
3 1293.64 1385342
3 1293.64 1385134
3 1293.64 1378813
3 1294.35 1378596
3 1294.35 1375143
3 1294.35 1368797
3 1295.01 1368710
3 1295.01 1367936
3 1297.61 1365661
3 1297.61 1365201
3 1298.23 1363568
3 1298.23 1362039
3 1301.1 1361928
3 1302.08 1478881
3 1302.08 1466861
3 1302.08 1434359
3 1302.08 1430151
3 1302.08 1428551
3 1302.08 1427909
3 1302.08 1422552
3 1302.08 1417614
3 1302.08 1413322
3 1302.08 1412648
3 1303.08 1408666
3 1303.08 1390970
3 1303.08 1378115
3 1303.08 1376987
3 1303.7 1376856
3 1303.7 1373171
3 1304.29 1370486
3 1304.99 1364644
3 1304.99 1363560
3 1304.99 1362293
3 1314.05 1359806
3 1314.05 1358310
3 1316.39 1556199
3 1316.39 1529920
3 1316.39 1527591
3 1316.39 1523092
3 1316.39 1508983
3 1316.39 1490425
3 1316.39 1487343
3 1316.39 1475906
3 1316.39 1473941
3 1316.39 1468684
3 1316.39 1466708
3 1317.13 1460558
3 1317.13 1456703
3 1317.13 1446862
3 1317.13 1443929
3 1317.13 1440967
3 1317.13 1431023
3 1317.13 1430847
3 1317.13 1422585
3 1317.13 1420565
3 1317.94 1420048
3 1317.94 1414622
3 1317.94 1412944
3 1317.94 1412657
3 1317.94 1412154
3 1317.94 1406207
3 1318.81 1402836
3 1318.81 1399699
3 1318.81 1395735
3 1319.9 1390729
3 1319.9 1390163
3 1321.17 1384426
3 1321.17 1381455
3 1323.37 1380903
3 1323.37 1380686
3 1323.37 1372527
3 1323.37 1372509
3 1324.37 1367930
3 1324.37 1367267
3 1325.36 1366706
3 1325.36 1366601
3 1326.39 1364422
3 1326.39 1362175
3 1326.39 1358748
3 1327.37 1358423
3 1327.37 1357908
3 1327.37 1357164
3 1327.37 1355068
3 1328.25 1354635
3 1330.25 1524497
3 1330.25 1520398
3 1330.25 1508291
3 1330.25 1506075
3 1330.25 1497408
3 1330.25 1492996
3 1330.25 1486778
3 1330.25 1483338
3 1330.25 1481855
3 1330.25 1480215
3 1330.25 1478066
3 1330.25 1468530
3 1330.25 1449007
3 1330.25 1445786
3 1331.04 1441613
3 1331.04 1433215
3 1331.04 1427202
3 1331.04 1424158
3 1331.04 1422874
3 1331.04 1422478
3 1331.04 1418787
3 1331.76 1407148
3 1331.76 1397188
3 1331.76 1395441
3 1332.44 1391383
3 1334.8 1390293
3 1334.8 1384741
3 1335.8 1384094
3 1336.67 1383804
3 1337.61 1382583
3 1337.61 1381021
3 1339.54 1380882
3 1339.54 1380222
3 1340.19 1372808
3 1340.78 1370123
3 1344.58 1589584
3 1344.58 1551335
3 1344.58 1520681
3 1344.58 1510735
3 1344.58 1501323
3 1344.58 1492599
3 1344.58 1483487
3 1344.58 1466031
3 1344.58 1458811
3 1344.58 1433153
3 1344.58 1432490
3 1344.58 1419845
3 1345.46 1416801
3 1345.46 1404486
3 1345.46 1404269
3 1345.46 1401078
3 1345.46 1399308
3 1346.16 1396786
3 1346.16 1392180
3 1346.16 1391505
3 1346.76 1390786
3 1346.76 1390779
3 1346.76 1385894
3 1347.37 1385001
3 1347.37 1383177
3 1347.37 1379301
3 1347.37 1376710
3 1347.37 1376417
3 1348.02 1376212
3 1348.64 1365925
3 1349.38 1361833
3 1349.38 1357537
3 1350.46 1354796
3 1351.41 1351843
3 1351.41 1351756
3 1354.87 1351104
3 1355.75 1351081
3 1358.18 1505385
3 1358.18 1505210
3 1358.18 1487368
3 1358.18 1480726
3 1358.18 1479598
3 1358.18 1471358
3 1359.3 1468857
3 1359.3 1466935
3 1359.3 1460475
3 1359.3 1458266
3 1359.3 1457308
3 1359.3 1454860
3 1359.3 1451190
3 1359.3 1442108
3 1360.41 1436094
3 1360.41 1433503
3 1360.41 1433092
3 1360.41 1432916
3 1360.41 1432699
3 1360.41 1432538
3 1360.41 1430499
3 1361.62 1426232
3 1361.62 1425680
3 1362.41 1421308
3 1363.15 1420995
3 1363.15 1418066
3 1363.77 1411791
3 1363.77 1409642
3 1363.77 1403382
3 1364.38 1401753
3 1364.38 1400649
3 1365.02 1395932
3 1365.02 1394968
3 1365.02 1387115
3 1366.63 1386748
3 1366.63 1383662
3 1367.62 1383224
3 1372.24 1563936
1 1372.24 1523350
3 1372.24 1523292
3 1372.24 1508608
3 1372.24 1475332
3 1372.24 1470735
3 1372.24 1465626
3 1372.24 1461115
3 1372.99 1453192
3 1372.99 1452517
3 1372.99 1444481
3 1372.99 1426103
3 1373.63 1418891
3 1373.63 1411646
3 1373.63 1406884
3 1373.63 1406265
3 1373.63 1402452
3 1374.3 1399992
3 1374.3 1387024
3 1374.9 1386807
3 1374.9 1384292
3 1374.9 1383384
3 1375.5 1378959
3 1375.5 1378667
3 1375.5 1374471
3 1375.5 1371305
3 1375.5 1370438
3 1375.5 1364468
3 1375.5 1363481
3 1376.22 1362877
3 1377.17 1362669
3 1378.2 1362471
3 1378.2 1359274
3 1379.19 1356188
3 1384.81 1356143
3 1385.74 1353897
3 1385.74 1353659
3 1386.5 1517077
3 1386.5 1512755
1 1386.5 1485100
3 1386.5 1485013
3 1386.5 1482864
3 1386.5 1433258
3 1386.5 1426077
3 1386.5 1405860
3 1387.23 1400075
3 1387.23 1398795
3 1388.03 1396002
3 1388.99 1390942
3 1389.94 1381462
3 1391.84 1374048
3 1391.84 1373559
3 1391.84 1367835
3 1391.84 1367160
3 1392.46 1365494
3 1392.46 1362648
3 1392.46 1360050
3 1393.15 1358307
3 1393.15 1358220
3 1393.15 1357432
3 1394.06 1357126
3 1396.13 1355080
3 1399.04 1352540
3 1399.04 1352098
3 1399.04 1349959
3 1399.7 1347607
3 1400.61 1474737
3 1400.61 1465081
3 1400.61 1443898
3 1400.61 1438342
3 1400.61 1430080
3 1400.61 1429286
3 1400.61 1426838
3 1400.61 1422228
3 1400.61 1420352
3 1400.61 1420223
3 1401.72 1418583
3 1401.72 1418499
3 1402.41 1415761
3 1402.41 1414719
3 1402.41 1411675
3 1403.05 1410116
3 1403.05 1406199
3 1403.05 1404384
3 1403.05 1401436
3 1403.05 1401255
3 1403.68 1396527
3 1403.68 1396431
3 1403.68 1388342
3 1404.28 1385143
3 1404.28 1383133
3 1404.28 1382994
3 1404.89 1378222
3 1404.89 1370832
3 1406.05 1364746
3 1406.63 1361082
3 1407.2 1358732
3 1408.63 1358057
3 1414.38 1482699
3 1414.38 1459665
3 1414.38 1457996
3 1414.38 1450143
3 1414.38 1438666
3 1414.38 1419902
3 1414.38 1417226
3 1414.38 1416972
3 1415.67 1414862
3 1415.67 1414817
3 1415.67 1412086
3 1415.67 1411858
3 1415.67 1410707
3 1415.67 1406094
3 1415.67 1405279
3 1415.67 1402238
3 1415.67 1394947
3 1416.52 1383354
3 1416.52 1378692
3 1417.12 1375560
3 1417.12 1375475
3 1417.72 1373510
3 1418.63 1372656
3 1418.63 1367743
3 1421.18 1366725
3 1423.12 1363867
3 1423.7 1357505
3 1424.38 1357479
3 1425.02 1356867
3 1428.46 1491756
3 1428.46 1489954
3 1428.46 1487441
3 1428.46 1474943
3 1428.46 1429359
3 1429.21 1427330
3 1429.21 1397981
3 1429.21 1395533
3 1429.21 1392504
3 1429.21 1388900
3 1429.21 1388329
3 1429.94 1388183
3 1429.94 1386218
3 1429.94 1386186
3 1429.94 1384115
3 1430.57 1380992
3 1430.57 1373504
3 1431.2 1372861
3 1432.43 1372697
3 1432.43 1372665
3 1433.65 1372076
3 1433.65 1370991
3 1442.6 1472436
3 1442.6 1465778
3 1442.6 1458862
3 1442.6 1443588
3 1442.6 1434399
3 1442.6 1433165
3 1443.67 1429153
3 1443.67 1425519
3 1443.67 1417995
3 1444.66 1414053
3 1444.66 1407487
3 1444.66 1397175
3 1444.66 1390171
3 1444.66 1389857
3 1444.66 1385661
3 1444.66 1383433
3 1445.69 1383252
3 1445.69 1376187
3 1445.69 1375909
3 1445.69 1375745
3 1446.73 1371892
3 1446.73 1369224
3 1446.73 1367584
3 1446.73 1367170
3 1447.79 1363263
3 1448.75 1363176
3 1451.98 1360615
3 1451.98 1357169
3 1452.64 1357127
3 1453.78 1355860
3 1453.78 1355755
3 1453.78 1354075
3 1455.63 1353738
3 1456.59 1463454
3 1456.59 1462968
3 1456.59 1460283
3 1456.59 1440300
3 1456.59 1428053
3 1457.29 1425046
3 1457.29 1424432
3 1457.29 1423581
3 1457.29 1418264
3 1464.26 1416973
3 1464.26 1414290
3 1464.26 1412851
3 1464.93 1411867
3 1465.77 1407168
3 1468.46 1405537
3 1469.03 1404483
3 1469.03 1404266
3 1470.62 1438351
3 1470.62 1422639
3 1470.62 1406135
3 1470.62 1400199
3 1470.62 1396974
3 1471.34 1394637
3 1471.34 1383469
3 1471.34 1382183
3 1472.11 1381508
3 1472.67 1380858
3 1472.67 1379868
3 1472.67 1379173
3 1472.67 1376129
3 1472.67 1373444
3 1473.36 1373227
3 1474.47 1368306
3 1476.56 1365804
3 1477.27 1362954
3 1477.27 1356813
3 1477.98 1353639
3 1477.98 1352958
3 1477.98 1351947
3 1478.61 1351272
3 1478.61 1349100
3 1483.22 1346614
3 1483.22 1343110
3 1483.22 1342429
3 1484.5 1516149
3 1484.5 1498367
3 1484.5 1488831
3 1484.5 1474867
3 1484.5 1457579
3 1484.5 1457454
3 1484.5 1440110
3 1484.5 1435242
3 1484.5 1434506
3 1485.2 1430814
3 1485.2 1430597
3 1485.2 1425140
3 1485.2 1422770
3 1485.2 1419408
3 1485.2 1414223
3 1485.2 1398403
3 1485.2 1389724
3 1485.2 1385901
3 1485.2 1373361
3 1485.2 1372595
3 1486.31 1370630
3 1486.31 1368711
3 1486.31 1366182
3 1486.31 1363951
3 1487.29 1355486
3 1487.29 1353846
3 1487.29 1353759
3 1487.29 1348034
3 1488.56 1345079
3 1488.56 1341738
3 1498.13 1542229
3 1498.13 1528751
3 1498.13 1511845
3 1498.13 1489767
3 1498.13 1478707
3 1498.13 1473140
3 1498.13 1465414
3 1499.22 1453659
3 1499.22 1439798
3 1499.22 1419246
3 1499.22 1414767
3 1499.22 1410456
3 1499.22 1404860
3 1499.22 1401020
3 1499.22 1400378
3 1500.03 1396804
3 1500.03 1390097
3 1500.64 1379694
3 1500.64 1379019
3 1500.64 1376116
3 1500.64 1370670
3 1502.01 1370613
3 1503.41 1365449
3 1504.6 1364757
3 1504.6 1361842
3 1507.66 1361796
3 1507.66 1361157
3 1512.4 1474900
3 1512.4 1467584
3 1512.4 1464195
3 1512.4 1464177
3 1512.4 1463960
3 1513.15 1460916
3 1513.15 1457313
3 1513.15 1456187
3 1513.77 1451065
3 1513.77 1446959
3 1513.77 1443447
3 1513.77 1426942
3 1513.77 1423182
3 1514.46 1412892
3 1514.46 1412721
3 1514.46 1409909
3 1516.39 1406660
3 1516.39 1406642
3 1516.39 1406621
3 1516.39 1404899
3 1517.39 1403259
3 1517.39 1397293
3 1518.76 1394246
3 1519.36 1389399
3 1519.36 1389267
3 1519.36 1387976
3 1520.02 1380557
3 1522.26 1379894
3 1522.26 1375745
3 1523.27 1371644
3 1523.27 1359582
3 1523.27 1359025
3 1523.27 1357498
3 1523.27 1357411
3 1524.06 1357285
3 1524.06 1356536
3 1526.6 1446852
3 1526.6 1437389
3 1526.6 1410704
3 1527.65 1397856
3 1527.65 1394730
3 1527.65 1391695
3 1527.65 1391183
3 1527.65 1386891
3 1528.7 1384641
3 1528.7 1383513
3 1528.7 1382460
3 1529.58 1380015
3 1530.18 1379986
3 1530.18 1378680
3 1530.18 1371938
3 1530.18 1370191
3 1530.18 1370130
3 1530.18 1367421
3 1531.04 1366746
3 1531.04 1364177
3 1531.04 1360101
3 1533.34 1359606
3 1533.34 1357929
3 1534.59 1357254
3 1538.03 1353157
3 1540.43 1461892
3 1540.43 1439177
3 1540.43 1434353
3 1540.43 1433979
3 1541.34 1432740
3 1541.34 1427992
3 1541.34 1420523
3 1541.34 1418883
3 1541.34 1416943
3 1542.42 1397869
3 1542.42 1397336
3 1543.4 1393978
3 1543.4 1393584
3 1544.42 1391040
3 1544.42 1384632
3 1545.44 1381681
3 1545.44 1378637
3 1545.44 1376921
3 1545.44 1373036
3 1546.48 1372209
3 1547.41 1368938
3 1547.41 1368753
3 1548.45 1368359
3 1550.57 1368078
3 1554.81 1486859
3 1554.81 1468356
3 1554.81 1448598
3 1554.81 1445496
3 1554.81 1426766
3 1554.81 1424877
3 1554.81 1415765
3 1554.81 1413731
3 1555.89 1410856
3 1555.89 1408442
3 1555.89 1407812
3 1556.94 1407713
3 1556.94 1405938
3 1556.94 1405428
3 1557.97 1399959
3 1557.97 1399454
3 1557.97 1393324
3 1557.97 1388058
3 1557.97 1387495
3 1559.01 1382708
3 1559.01 1382568
3 1560.54 1381700
3 1560.54 1378563
3 1560.54 1374505
3 1561.32 1372658
3 1562.02 1364396
3 1562.02 1363017
3 1563.06 1362780
3 1563.06 1361511
3 1563.06 1360815
3 1564.13 1360758
3 1564.13 1358466
3 1564.13 1357761
3 1566.06 1357647
3 1566.71 1356519
3 1568.6 1491289
3 1568.6 1486575
3 1568.6 1481399
3 1568.6 1473185
3 1568.6 1469067
3 1568.6 1465334
3 1568.6 1460923
3 1568.6 1457627
3 1568.6 1445884
3 1569.69 1443616
3 1569.69 1440570
3 1569.69 1434504
3 1569.69 1430991
3 1569.69 1420163
3 1570.7 1419032
3 1570.7 1417257
3 1571.67 1408585
3 1571.67 1407599
3 1572.63 1407512
3 1572.63 1401552
3 1572.63 1400424
3 1575.05 1400236
3 1575.05 1393635
3 1576.27 1389893
3 1576.27 1386597
3 1576.91 1386068
3 1576.91 1384431
3 1576.91 1383507
3 1576.91 1381327
3 1576.91 1379948
3 1577.94 1378633
3 1579.12 1377248
3 1579.12 1376571
3 1582.18 1505136
3 1582.18 1501256
3 1582.18 1493029
3 1582.18 1482402
3 1582.18 1470028
3 1582.18 1469762
3 1582.18 1465166
3 1582.18 1461177
3 1582.18 1456666
3 1582.18 1444467
3 1582.18 1439922
3 1582.18 1432069
3 1583.32 1430255
3 1583.32 1429955
3 1583.32 1425502
3 1583.32 1417223
3 1584.33 1406546
3 1584.33 1403752
3 1584.33 1402936
3 1585.34 1398519
3 1585.34 1398343
3 1585.34 1397655
3 1585.34 1395468
3 1585.34 1394793
3 1586.34 1391830
3 1586.34 1390247
3 1586.34 1385907
3 1586.34 1384127
3 1587.32 1381978
3 1588.28 1381517
3 1588.28 1379449
3 1588.28 1379347
3 1588.28 1377969
3 1589.27 1376329
3 1589.27 1374364
3 1590.2 1373236
3 1596.3 1457773
3 1596.3 1452618
3 1596.3 1441948
3 1596.3 1441273
3 1596.3 1434208
3 1596.3 1432051
3 1596.3 1431964
3 1596.3 1429999
3 1596.3 1425479
3 1597.33 1421655
3 1597.33 1420821
3 1597.33 1418672
3 1597.33 1404106
3 1597.98 1402603
3 1597.98 1402017
3 1597.98 1401614
3 1599.17 1398562
3 1599.17 1397778
3 1599.17 1397704
3 1600.17 1397624
3 1600.17 1396897
3 1600.17 1396680
3 1600.17 1396129
3 1600.17 1395370
3 1601.25 1394148
3 1601.25 1393020
3 1602.22 1389453
3 1602.22 1385662
3 1603.05 1385575
3 1603.05 1381872
3 1603.05 1380282
3 1603.65 1374548
3 1603.65 1372583
3 1604.88 1370672
3 1605.48 1370424
3 1605.48 1369296
3 1605.48 1368559
3 1606.14 1363962
3 1610.01 1541677
3 1610.01 1535527
3 1610.01 1515921
3 1610.01 1510126
3 1610.01 1481690
3 1610.01 1463836
3 1610.01 1448592
3 1610.01 1447163
3 1611.13 1445226
3 1611.13 1445009
3 1611.13 1441960
3 1611.13 1436347
3 1611.13 1432519
3 1611.13 1424638
3 1611.13 1422673
3 1611.13 1421850
3 1611.13 1417026
3 1612.24 1415834
3 1612.24 1410323
3 1612.24 1408082
3 1612.24 1406341
3 1612.24 1404187
3 1612.24 1401645
3 1613.3 1397372
3 1613.3 1391953
3 1613.3 1389466
3 1613.3 1388831
3 1613.3 1387911
3 1613.3 1386401
3 1614.15 1383988
3 1614.15 1382348
3 1614.74 1378121
3 1614.74 1376403
3 1614.74 1375170
3 1614.74 1368061
3 1615.37 1367386
3 1616.14 1363644
3 1618.08 1363330
3 1619.05 1361292
3 1621.68 1359972
3 1623.75 1359731
3 1624.38 1570062
3 1624.38 1561849
3 1624.38 1553112
3 1624.38 1528192
3 1624.38 1510466
3 1624.38 1497826
3 1624.38 1497650
3 1624.38 1483131
3 1624.38 1455059
3 1624.38 1442996
3 1624.38 1442654
3 1625.1 1430014
3 1625.96 1427053
3 1625.96 1423484
3 1626.56 1422523
3 1626.56 1420948
3 1626.56 1413350
3 1627.27 1413095
3 1627.27 1410210
3 1627.27 1407389
3 1627.27 1404145
3 1627.27 1397133
3 1627.99 1395168
3 1627.99 1395016
3 1627.99 1393903
3 1627.99 1389894
3 1628.63 1386670
3 1628.63 1385151
3 1628.63 1383488
3 1628.63 1377937
3 1628.63 1375788
3 1629.46 1375565
3 1629.46 1375546
3 1629.46 1374640
3 1632.75 1373397
3 1633.68 1365091
3 1635.58 1364807
3 1636.56 1364161
3 1637.52 1362628
3 1637.52 1361699
3 1638.24 1490896
3 1638.24 1489256
3 1638.24 1479065
3 1638.24 1478930
3 1638.24 1472073
3 1638.24 1471986
3 1638.24 1465578
3 1639.37 1454701
3 1639.37 1443471
3 1639.37 1427424
3 1639.37 1423597
3 1639.37 1421319
3 1639.37 1420644
3 1640.02 1407352
3 1640.02 1406224
3 1640.61 1405813
3 1640.61 1404433
3 1640.61 1403709
3 1640.61 1403654
3 1640.61 1402014
3 1640.61 1396139
3 1641.38 1395817
3 1642.02 1394689
3 1642.02 1393314
3 1642.62 1391501
3 1643.21 1390078
3 1643.8 1389672
3 1643.8 1388245
3 1644.99 1386885
3 1645.79 1385987
3 1645.79 1385241
3 1645.79 1384499
3 1645.79 1382716
3 1645.79 1382330
3 1646.84 1378802
3 1646.84 1375246
3 1652.37 1445517
3 1652.37 1442964
3 1652.37 1422270
3 1652.37 1419145
3 1652.37 1408488
3 1652.37 1391192
3 1652.37 1388017
3 1652.37 1382537
3 1655.8 1378755
3 1657 1370979
3 1657 1370902
3 1657.86 1366253
3 1663.88 1361246
3 1664.86 1358583
3 1666.77 1523482
3 1666.77 1514630
3 1666.77 1484446
3 1666.77 1473609
3 1666.77 1472105
3 1666.77 1461704
3 1666.77 1459746
3 1666.77 1449800
3 1666.77 1422957
3 1667.88 1419820
3 1667.88 1418727
3 1667.88 1417056
3 1667.88 1416821
3 1667.88 1415358
3 1667.88 1414858
3 1667.88 1410182
3 1667.88 1407773
3 1667.88 1402329
3 1667.88 1394530
3 1667.88 1393402
3 1669.3 1390741
3 1669.97 1388099
3 1669.97 1387703
3 1669.97 1386717
3 1670.58 1385044
3 1671.53 1383634
3 1671.53 1383097
3 1671.53 1382305
3 1671.53 1382143
3 1671.53 1376978
3 1671.53 1373105
3 1672.45 1372688
3 1672.45 1366666
3 1672.45 1364153
3 1672.45 1360144
3 1673.17 1359926
3 1673.77 1357195
3 1674.36 1356920
3 1674.94 1355773
3 1674.94 1355555
3 1675.79 1354568
3 1675.79 1354427
3 1676.76 1353683
3 1678.39 1352039
3 1679.6 1351392
3 1680.19 1541322
3 1680.19 1530158
3 1680.19 1527386
3 1680.19 1488975
3 1680.19 1457064
3 1680.88 1451699
3 1680.88 1445685
3 1680.88 1438865
3 1680.88 1436004
3 1681.54 1429913
3 1681.54 1415229
3 1681.54 1412044
3 1682.25 1402923
3 1682.85 1395216
3 1684.09 1391450
3 1684.09 1383884
3 1684.72 1381962
3 1685.32 1380665
3 1686.52 1380431
3 1686.52 1380178
3 1686.52 1371796
3 1687.45 1369807
3 1689.52 1368134
3 1689.52 1363060
3 1689.52 1362816
3 1690.54 1360442
3 1690.54 1359767
3 1692.54 1359680
3 1694.04 1558820
3 1694.04 1553236
3 1694.04 1547603
3 1694.04 1545097
3 1694.04 1544299
3 1694.04 1538399
3 1694.04 1518464
3 1694.04 1511636
3 1694.04 1488411
3 1694.04 1470056
3 1694.04 1467747
3 1694.04 1466107
3 1695.23 1432015
3 1695.23 1428878
3 1695.23 1410375
3 1695.23 1400175
3 1696.28 1397646
3 1696.28 1389044
3 1697.24 1388533
3 1698.26 1388369
3 1698.26 1387105
3 1698.26 1382105
3 1698.98 1376723
3 1698.98 1374525
3 1698.98 1374194
3 1701.57 1367040
3 1702.38 1365913
3 1702.38 1364785
3 1703.81 1364508
3 1703.81 1362441
3 1703.81 1360686
3 1704.45 1356215
3 1704.45 1355512
3 1704.45 1354277
3 1707.56 1349031
3 1707.56 1348644
3 1707.56 1347741
3 1708.32 1524596
3 1708.32 1492144
3 1708.32 1477533
3 1708.32 1469680
3 1708.32 1464498
3 1708.32 1463152
3 1708.32 1459287
3 1708.32 1457633
3 1708.32 1457339
3 1708.32 1443302
3 1708.32 1436349
3 1708.32 1435526
3 1709.05 1433177
3 1709.05 1417546
3 1709.05 1410904
3 1709.72 1406615
3 1709.72 1404798
3 1709.72 1404125
3 1709.72 1403908
3 1709.72 1402267
3 1710.35 1400291
3 1710.35 1400118
3 1711.01 1399616
3 1711.01 1396897
3 1711.01 1396128
3 1711.65 1395091
3 1712.5 1389453
3 1712.5 1389183
3 1713.48 1388015
3 1713.48 1385513
3 1714.64 1382469
3 1714.64 1380504
3 1714.64 1379631
3 1714.64 1378676
3 1714.64 1376563
3 1714.64 1376346
3 1715.71 1374822
3 1716.66 1374298
3 1716.66 1368284
3 1717.62 1367104
3 1718.59 1364196
3 1719.53 1360921
3 1721.47 1358174
3 1722.43 1533631
3 1722.43 1525641
3 1722.43 1504717
3 1722.43 1499780
3 1722.43 1472649
3 1722.43 1472631
3 1722.43 1439520
3 1722.43 1437376
3 1723.57 1432635
3 1723.57 1429523
3 1724.21 1428935
3 1724.21 1418320
3 1724.83 1414937
3 1724.83 1410562
3 1724.83 1395222
3 1724.83 1391183
3 1724.83 1388807
3 1724.83 1387922
3 1725.48 1386795
3 1725.48 1385453
3 1725.48 1381972
3 1726.57 1380332
3 1727.39 1367463
3 1727.39 1364010
3 1727.39 1360704
3 1727.39 1359082
3 1728.01 1356553
3 1728.01 1352261
3 1728.01 1351272
3 1728.75 1351244
3 1728.75 1350103
3 1730.62 1348670
3 1736.56 1531183
3 1736.56 1529368
3 1736.56 1495889
3 1736.56 1492286
3 1736.56 1490650
3 1737.23 1468163
3 1737.23 1459174
3 1737.89 1458625
3 1737.89 1441797
3 1737.89 1441332
3 1738.62 1425375
3 1738.62 1425257
3 1738.62 1423403
3 1738.62 1411132
3 1738.62 1410004
3 1739.25 1402497
3 1739.87 1401256
3 1739.87 1400550
3 1739.87 1398298
3 1739.87 1393554
3 1741.48 1391820
3 1741.48 1384406
3 1742.24 1383611
3 1743.39 1382206
3 1743.39 1380492
3 1743.98 1380129
3 1744.66 1377537
3 1748.21 1376771
3 1748.21 1373720
3 1748.21 1372126
3 1750.31 1476873
3 1750.31 1465654
3 1750.31 1447928
3 1750.31 1446288
3 1750.31 1428934
3 1750.31 1426530
3 1751 1423359
3 1751 1417933
3 1751 1416565
3 1751 1412788
3 1751.65 1407820
3 1751.65 1398284
3 1751.65 1395713
3 1751.65 1394778
3 1751.65 1393667
3 1752.34 1388874
3 1753.62 1388786
3 1753.62 1386989
3 1754.32 1386731
3 1754.32 1383776
3 1755.02 1382227
3 1755.02 1379698
3 1755.99 1376268
3 1755.99 1370550
3 1755.99 1370240
3 1755.99 1361024
3 1755.99 1358758
3 1755.99 1357687
3 1757.05 1356105
3 1758.06 1355722
3 1758.94 1352790
3 1761.76 1350287
3 1764.05 1577338
3 1764.05 1555047
3 1764.05 1537017
3 1764.05 1535030
3 1764.05 1467764
3 1764.05 1463193
3 1764.05 1458861
3 1764.05 1417738
3 1764.05 1408584
3 1764.05 1406720
3 1765.1 1400878
3 1765.1 1387238
3 1765.1 1382215
3 1765.1 1379863
3 1765.1 1366856
3 1765.1 1365747
3 1765.1 1365510
3 1765.84 1364942
3 1766.53 1361674
3 1766.53 1357843
3 1766.53 1357670
3 1767.16 1355288
3 1767.75 1354660
3 1768.41 1354654
3 1769.4 1354080
3 1770.2 1352505
3 1770.2 1351650
3 1770.2 1350010
3 1770.2 1349834
3 1770.89 1348737
3 1770.89 1347149
3 1770.89 1345213
3 1770.89 1342857
3 1771.69 1342770
3 1778.86 1497274
3 1778.86 1488047
3 1778.86 1487818
3 1778.86 1477203
3 1778.86 1476523
3 1778.86 1462784
3 1778.86 1457672
3 1778.86 1456307
3 1778.86 1455251
3 1780 1439150
3 1780 1437276
3 1780 1417747
3 1781.06 1417549
3 1781.06 1412999
3 1781.06 1412208
3 1781.06 1406276
3 1781.06 1403747
3 1781.06 1402556
3 1782.95 1400916
3 1783.93 1399509
3 1783.93 1398560
3 1784.77 1394088
3 1784.77 1385286
3 1785.38 1378660
3 1785.38 1378181
3 1785.38 1375331
3 1785.38 1374656
3 1786.76 1374569
3 1788.62 1372929
3 1789.37 1368791
3 1790.17 1368471
3 1790.17 1365786
3 1792.75 1449935
3 1792.75 1448295
3 1792.75 1427546
3 1792.75 1420033
3 1792.75 1419172
3 1792.75 1416708
3 1793.87 1416203
3 1793.87 1412999
3 1793.87 1409631
3 1793.87 1401491
3 1793.87 1399381
3 1793.87 1395089
3 1794.9 1392657
3 1794.9 1392015
3 1794.9 1390343
3 1794.9 1382389
3 1795.62 1374239
3 1795.62 1373261
3 1795.62 1369638
3 1798.12 1366237
3 1798.12 1365955
3 1798.85 1365349
3 1798.85 1365132
3 1799.59 1363834
3 1800.33 1357450
3 1800.33 1355345
3 1801.79 1350474
3 1802.56 1349280
3 1802.56 1345836
3 1802.56 1343832
3 1803.22 1343795
3 1803.22 1341266
3 1803.82 1340823
3 1803.82 1340591
3 1806.17 1551292
3 1806.17 1546641
3 1806.17 1517265
3 1806.17 1513785
3 1806.17 1509930
3 1806.17 1492611
3 1806.17 1485265
3 1806.17 1462563
3 1806.17 1462545
3 1806.17 1459972
3 1806.17 1457620
3 1806.17 1453765
3 1806.17 1452125
3 1807.13 1429175
3 1807.13 1423328
3 1807.13 1418544
3 1808.67 1414006
3 1808.67 1401937
3 1808.67 1396922
3 1808.67 1393675
3 1808.67 1389104
3 1811.71 1385178
3 1811.71 1384895
3 1812.82 1383528
3 1812.82 1380696
3 1813.81 1378843
3 1813.81 1378167
3 1813.81 1371151
3 1815.71 1364837
3 1815.71 1364520
3 1816.3 1364162
3 1816.3 1363745
3 1816.88 1362529
3 1816.88 1361880
3 1819.14 1361673
3 1819.14 1360033
3 1820.27 1495772
3 1820.27 1490817
3 1820.27 1474367
3 1820.27 1470934
3 1820.27 1466423
3 1820.27 1451739
3 1820.27 1446024
3 1820.27 1445319
3 1820.27 1441464
3 1820.27 1436953
3 1821.04 1436891
3 1821.04 1434455
3 1821.04 1430903
3 1821.66 1428941
3 1821.66 1426579
3 1821.66 1425564
3 1821.66 1424953
3 1821.66 1420442
3 1821.66 1414489
3 1822.33 1401823
3 1822.33 1400756
3 1822.93 1388561
3 1822.93 1377569
3 1822.93 1375382
3 1822.93 1373124
3 1824.76 1372287
3 1824.76 1370647
3 1829.53 1369733
3 1829.53 1368408
3 1829.53 1362078
3 1829.53 1361471
3 1832.83 1348641
3 1832.83 1348504
3 1834.15 1470429
3 1834.15 1469891
3 1834.15 1462198
3 1834.15 1436442
3 1834.15 1432940
3 1834.15 1431252
3 1834.15 1426003
3 1834.15 1421492
3 1834.15 1412223
3 1834.15 1411956
3 1834.96 1410403
3 1834.96 1388551
3 1834.96 1385168
3 1834.96 1384696
3 1836.22 1376843
3 1836.82 1374676
3 1836.82 1374459
3 1838.67 1368616
3 1838.67 1362467
3 1839.37 1360583
3 1839.97 1358400
3 1840.54 1358294
3 1842.23 1357936
3 1844.23 1357719
3 1848.63 1467159
3 1848.63 1461190
3 1848.63 1445701
3 1848.63 1425350
3 1848.63 1415605
3 1848.63 1412991
3 1848.63 1410603
3 1848.63 1407203
3 1849.41 1399805
3 1849.41 1397227
3 1849.41 1394050
3 1849.41 1392920
3 1850.21 1385289
3 1851.12 1378706
3 1851.12 1377066
3 1851.12 1375706
3 1851.77 1374185
3 1851.77 1372007
3 1851.77 1368171
3 1852.4 1360318
3 1862.43 1495942
3 1862.43 1483087
3 1862.43 1457363
3 1862.43 1455398
3 1862.43 1452502
3 1862.43 1441998
3 1862.43 1420089
3 1862.43 1416472
3 1862.43 1414828
3 1862.43 1411784
3 1862.43 1401181
3 1863.52 1399212
3 1863.52 1397564
3 1864.43 1395474
3 1864.43 1394396
3 1864.43 1393705
3 1864.43 1391197
3 1865.23 1378449
3 1865.23 1376664
3 1865.23 1374312
3 1865.23 1372069
3 1866 1371415
3 1866 1371198
3 1866.58 1370008
3 1867.15 1368743
3 1867.95 1367401
3 1873.05 1366595
3 1874.04 1366378
3 1874.04 1366060
3 1874.04 1365727
3 1874.04 1365688
3 1875.05 1361872
3 1875.05 1360606
3 1876.02 1486720
3 1876.02 1483370
3 1876.02 1470830
3 1876.02 1469905
3 1876.02 1457203
3 1876.02 1440146
3 1876.02 1432750
3 1876.02 1432075
3 1876.74 1430947
3 1876.74 1423227
3 1877.98 1420527
3 1878.58 1415887
3 1878.58 1413436
3 1878.58 1410765
3 1879.2 1410053
3 1879.81 1407822
3 1879.81 1405775
3 1882.36 1397922
3 1884.38 1397248
3 1884.38 1396606
3 1884.38 1396276
3 1885.8 1395929
3 1890.59 1472071
3 1890.59 1465911
3 1890.59 1465620
3 1890.59 1455205
3 1890.59 1448121
3 1890.59 1442107
3 1890.59 1425883
3 1891.42 1420177
3 1891.42 1415213
3 1891.42 1414101
3 1891.42 1411309
3 1891.42 1409840
3 1892.65 1400650
3 1892.65 1399975
3 1892.65 1396258
3 1893.34 1395137
3 1893.34 1393896
3 1893.34 1393691
3 1893.98 1388634
3 1893.98 1384383
3 1893.98 1384146
3 1893.98 1383914
3 1893.98 1383898
3 1893.98 1382931
3 1893.98 1377972
3 1893.98 1372596
3 1894.81 1371758
3 1894.81 1371543
3 1895.48 1371151
3 1898.23 1364944
3 1900.88 1362812
3 1900.88 1360011
3 1901.87 1357220
3 1902.62 1357106
3 1903.2 1355360
3 1904.31 1511441
3 1904.31 1506725
3 1904.31 1480397
3 1904.31 1473628
3 1904.31 1458296
3 1904.31 1445656
3 1904.31 1443808
3 1904.31 1411756
3 1905.15 1409226
3 1905.15 1408213
3 1906.16 1407432
3 1906.16 1400458
3 1906.16 1387999
3 1906.16 1386446
3 1906.9 1381875
3 1906.9 1378937
3 1906.9 1376585
3 1906.9 1369781
3 1907.64 1369423
3 1907.64 1360649
3 1909.13 1360402
3 1910.11 1358542
3 1910.11 1354134
3 1911.07 1351052
3 1912.68 1350063
3 1918.45 1438739
3 1918.45 1430405
3 1918.45 1429967
3 1918.45 1429750
3 1919.09 1427065
3 1919.09 1413455
3 1919.09 1407177
3 1919.69 1405948
3 1919.69 1405375
3 1919.69 1401581
3 1919.69 1400387
3 1919.69 1399889
3 1920.75 1389037
3 1921.79 1378260
3 1921.79 1374126
3 1921.79 1365655
1 1921.79 1365646
3 1922.78 1360727
3 1922.78 1357511
3 1923.81 1356770
3 1925 1356553
3 1925 1355677
3 1925 1355196
3 1925 1354393
3 1926.1 1352555
3 1927.29 1349833
3 1927.9 1349032
3 1932.06 1572743
3 1932.06 1568416
3 1932.06 1564042
3 1932.06 1527646
3 1932.06 1514684
3 1932.06 1514197
3 1932.06 1508003
3 1932.06 1506875
3 1932.06 1506388
3 1932.06 1504748
3 1932.06 1492279
3 1932.06 1475524
3 1932.06 1473443
3 1932.06 1463843
3 1932.06 1449528
3 1932.06 1447687
3 1933.27 1446045
1 1933.27 1444490
3 1933.27 1442906
3 1933.27 1438327
3 1933.27 1417161
3 1934.33 1416635
3 1934.33 1414656
3 1934.33 1409891
3 1934.33 1408251
3 1934.33 1391429
3 1936.01 1389077
3 1936.01 1385466
3 1936.83 1381333
3 1936.83 1377613
3 1937.85 1375869
3 1937.85 1373904
3 1938.59 1371581
3 1941.26 1371272
3 1944.2 1365155
3 1944.2 1364691
3 1945.16 1362875
3 1946.14 1573219
3 1946.14 1551097
3 1946.14 1509630
3 1946.14 1505364
3 1946.14 1495632
3 1946.14 1463072
3 1946.14 1459571
3 1946.14 1455227
3 1946.14 1446325
3 1946.14 1444176
3 1946.14 1431491
3 1947.27 1423950
3 1947.27 1413059
3 1947.27 1411433
3 1947.27 1397435
3 1947.27 1396636
3 1948.59 1395420
3 1948.59 1393780
3 1949.19 1390593
3 1949.19 1390514
3 1949.19 1390118
3 1949.81 1387061
3 1949.81 1382836
3 1951.06 1381026
3 1951.06 1373536
3 1951.06 1372853
3 1953.09 1367147
3 1954.04 1366369
3 1954.04 1365423
3 1954.04 1360265
3 1955.04 1359240
3 1957.04 1356527
3 1958.13 1347684
3 1958.13 1345243
3 1958.13 1344659
3 1959.09 1343920
3 1959.09 1343531
3 1959.09 1342998
3 1960.08 1443557
3 1960.08 1443340
3 1960.08 1442920
3 1960.08 1439593
3 1960.08 1435309
3 1961.12 1417326
3 1961.12 1405781
3 1961.12 1404141
3 1961.12 1402932
3 1961.12 1401974
3 1962.14 1397607
3 1962.14 1388645
3 1962.14 1384349
3 1962.14 1381997
3 1962.14 1379391
3 1963.14 1378553
3 1963.14 1377594
3 1963.14 1373711
3 1963.14 1373494
3 1964.13 1373069
3 1965.52 1372446
3 1966.13 1369225
3 1966.13 1365098
3 1969.75 1363776
3 1969.75 1361811
3 1970.71 1361130
3 1971.62 1358734
3 1971.62 1356543
3 1972.76 1355908
3 1973.37 1352688
3 1973.37 1352608
3 1973.99 1350256
3 1974.58 1514648
3 1974.58 1513373
3 1974.58 1494951
3 1974.58 1491498
3 1974.58 1491033
3 1974.58 1486342
3 1974.58 1485484
3 1974.58 1468967
3 1974.58 1460705
3 1975.32 1460156
3 1975.32 1455524
3 1975.32 1453641
3 1975.32 1445144
3 1975.32 1436007
3 1976.11 1430460
3 1977.09 1425827
3 1977.09 1425583
3 1977.09 1424618
3 1977.09 1417475
3 1977.89 1416323
3 1977.89 1413287
3 1977.89 1411693
3 1977.89 1401723
3 1977.89 1394042
3 1977.89 1389742
3 1977.89 1386612
3 1977.89 1378856
3 1978.77 1377067
3 1978.77 1372834
3 1978.77 1372747
3 1980.8 1368469
3 1980.8 1366639
3 1980.8 1365418
3 1981.79 1364743
3 1987.04 1364434
3 1987.04 1364324
3 1988.02 1437625
3 1988.02 1436093
3 1988.02 1414291
3 1988.02 1409238
3 1988.02 1408110
3 1988.02 1391722
3 1988.02 1389116
3 1988.02 1381596
3 1988.02 1381483
3 1988.02 1378554
3 1988.02 1370701
3 1989.18 1370290
3 1989.18 1369228
3 1989.18 1366699
3 1990.18 1364694
3 1991.12 1361044
3 1991.12 1356019
3 1992.56 1353740
3 1992.56 1351727
3 1992.56 1351692
3 1992.56 1351475
3 1993.48 1348032
3 1994.42 1347898
3 1995.25 1345320
3 1995.25 1345177
3 1995.83 1344910
3 1995.83 1343954
3 1996.47 1342904
3 1997.05 1342349
3 2002.55 1507048
3 2002.55 1500302
3 2002.55 1497199
3 2002.55 1462742
3 2002.55 1456750
3 2002.55 1454065
3 2002.55 1450712
3 2002.55 1444720
3 2002.55 1442564
3 2002.55 1440202
3 2003.3 1439402
3 2003.9 1438149
3 2003.9 1437762
3 2003.9 1434464
3 2003.9 1430804
3 2003.9 1430129
3 2004.56 1420660
3 2004.56 1419373
3 2004.56 1418351
3 2004.56 1413690
3 2004.56 1412403
3 2004.56 1404353
3 2005.32 1399880
3 2005.32 1399451
3 2005.32 1393266
3 2005.32 1390219
3 2005.32 1387515
3 2007.94 1383311
3 2007.94 1383297
3 2008.9 1381380
3 2009.88 1380577
3 2009.88 1379302
3 2009.88 1378055
3 2010.89 1377899
3 2010.89 1375547
3 2010.89 1374602
3 2011.59 1373449
3 2012.23 1371001
3 2012.95 1370426
3 2012.95 1370113
3 2013.82 1369271
3 2013.82 1368420
3 2014.76 1367619
3 2014.76 1366742
3 2016.56 1519992
3 2016.56 1518027
3 2016.56 1515860
3 2016.56 1513412
3 2016.56 1488342
3 2016.56 1477123
3 2016.56 1472612
3 2016.56 1464890
3 2016.56 1456357
3 2016.56 1453387
3 2016.56 1444444
3 2016.56 1439012
3 2017.54 1436522
3 2017.54 1423985
3 2017.54 1421874
3 2017.54 1400628
3 2017.54 1387882
3 2018.57 1380831
3 2018.57 1379416
3 2019.55 1369844
3 2020.4 1367921
3 2020.4 1366776
3 2025.85 1365069
3 2025.85 1362500
3 2026.44 1359985
3 2029.48 1359950
3 2029.48 1359668
3 2030.26 1458386
3 2030.26 1438041
3 2030.26 1433865
3 2030.26 1428528
3 2030.26 1409702
3 2030.26 1399382
3 2031.01 1397682
3 2031.01 1396468
3 2031.01 1392144
3 2031.01 1380806
3 2031.01 1367192
3 2031.64 1366683
3 2031.64 1366674
3 2031.64 1366574
3 2031.64 1365932
3 2031.64 1365454
3 2031.64 1365237
3 2031.64 1364860
3 2031.64 1364178
3 2031.64 1361568
3 2032.31 1360285
3 2033.62 1359603
3 2038.67 1358665
3 2038.67 1357386
3 2038.67 1357329
3 2038.67 1354881
3 2039.67 1354712
3 2039.67 1354501
3 2039.67 1352927
3 2040.52 1349735
3 2040.52 1347206
3 2040.52 1340633
3 2041.4 1338589
3 2043.46 1334609
3 2044.04 1560304
3 2044.04 1546626
3 2044.04 1523424
3 2044.04 1512813
3 2044.04 1503686
3 2044.04 1488692
3 2044.04 1487237
3 2044.04 1482123
3 2044.04 1472799
3 2044.04 1469865
3 2044.04 1462918
3 2044.04 1460329
3 2044.04 1451377
3 2044.04 1448204
3 2044.04 1440213
3 2045.17 1439436
3 2045.17 1435055
3 2045.17 1434818
3 2045.17 1434702
3 2045.17 1425375
3 2045.17 1419529
3 2046.21 1418998
3 2046.21 1406291
3 2046.21 1403041
3 2047.28 1400593
3 2047.28 1398231
3 2047.28 1397568
3 2048.37 1395205
3 2048.37 1387764
3 2048.37 1386124
3 2048.37 1382069
3 2048.37 1376562
3 2049.45 1370879
3 2049.45 1370515
3 2051.44 1364181
3 2052.39 1363347
3 2052.39 1361678
3 2053.82 1358829
3 2053.82 1358556
3 2054.56 1353918
3 2055.24 1352278
3 2058.36 1470038
3 2058.36 1468733
3 2058.36 1467605
3 2059.18 1462076
3 2059.84 1458630
3 2059.84 1456888
3 2060.67 1435514
3 2060.67 1426402
3 2060.67 1422547
3 2060.67 1417125
3 2060.67 1412833
3 2061.58 1412158
3 2061.58 1396884
3 2062.36 1387008
3 2062.36 1381983
3 2064.26 1376490
3 2065.07 1375377
3 2065.07 1373683
3 2065.07 1373392
3 2065.96 1371791
3 2065.96 1368866
3 2065.96 1365870
3 2065.96 1365653
3 2065.96 1365401
3 2066.86 1364352
3 2067.6 1363252
3 2067.6 1363165
3 2069.02 1362951
3 2070.95 1362577
3 2071.97 1362490
3 2072.94 1512733
3 2072.94 1510381
3 2072.94 1489457
3 2072.94 1484472
3 2072.94 1469657
3 2072.94 1452267
3 2072.94 1418991
3 2072.94 1406397
3 2073.75 1400890
3 2073.75 1398145
3 2073.75 1397470
3 2073.75 1395831
3 2073.75 1392015
3 2075.28 1390212
3 2075.28 1389997
3 2075.28 1387940
3 2075.28 1380946
3 2075.28 1379318
3 2075.28 1377353
3 2075.28 1374510
3 2075.28 1373835
3 2075.28 1373090
3 2075.28 1367726
3 2076.41 1366441
3 2076.41 1364809
3 2076.41 1362399
3 2076.41 1360676
3 2081.39 1360590
3 2082.11 1359515
3 2082.11 1354944
3 2082.74 1353659
3 2083.34 1353287
3 2084.79 1348095
3 2086.67 1483833
3 2086.67 1476389
3 2086.67 1440435
3 2086.67 1431817
3 2086.67 1428388
3 2086.67 1422614
3 2086.67 1410383
3 2086.67 1407339
3 2086.67 1404312
3 2087.82 1400166
3 2087.82 1398526
3 2087.82 1394139
3 2088.84 1391454
3 2093.15 1390718
3 2093.15 1387492
3 2093.15 1385412
3 2093.15 1380901
3 2093.15 1380238
3 2094.28 1378122
3 2094.28 1372566
3 2094.28 1372012
3 2094.28 1371026
3 2095.27 1369251
3 2095.27 1369101
3 2096.26 1367057
3 2098.26 1366445
3 2100.21 1515496
3 2100.21 1510985
3 2100.21 1497599
3 2100.21 1496825
3 2100.21 1491259
3 2100.21 1474938
3 2100.21 1464909
3 2100.21 1440730
3 2100.21 1438045
3 2100.21 1412458
3 2101.1 1412241
3 2101.1 1411894
3 2101.1 1407297
3 2101.1 1405579
3 2101.75 1403964
3 2101.75 1402471
3 2101.75 1401097
3 2101.75 1397183
3 2101.75 1397072
3 2103.01 1396911
3 2103.01 1396236
3 2103.6 1395575
3 2103.6 1395358
3 2104.26 1393871
3 2104.84 1387657
3 2104.84 1385100
3 2104.84 1372732
3 2104.84 1367801
3 2105.87 1367352
3 2105.87 1366050
3 2106.71 1366049
3 2106.71 1362754
3 2106.71 1361626
3 2106.71 1359980
3 2106.71 1355562
3 2108.05 1353941
3 2108.05 1353837
3 2108.05 1349258
3 2108.05 1349240
3 2108.71 1348204
3 2108.71 1347529
3 2108.71 1347396
3 2108.71 1347191
3 2114.49 1452302
3 2114.49 1440577
3 2114.49 1430783
3 2114.49 1430776
3 2114.49 1430190
3 2114.49 1411592
3 2114.49 1407611
3 2114.49 1394957
3 2114.49 1394282
3 2115.47 1389940
3 2115.47 1388136
3 2116.35 1384636
3 2117.41 1384036
3 2117.41 1382118
3 2117.41 1381539
3 2117.41 1381073
3 2118.58 1378924
3 2118.58 1376395
3 2119.57 1373525
3 2120.63 1371168
3 2120.63 1357177
3 2120.63 1356960
3 2121.73 1355496
3 2121.73 1353286
3 2122.73 1352574
3 2122.73 1352398
3 2123.71 1352180
3 2126.64 1351052
3 2126.64 1350872
3 2128.37 1496478
3 2128.37 1481794
3 2128.37 1438568
3 2128.37 1434011
3 2128.37 1430874
3 2128.37 1420121
3 2129.43 1417205
3 2129.43 1395641
3 2129.43 1384094
3 2131.24 1379802
3 2132.18 1379160
3 2135.67 1378057
3 2135.67 1376923
3 2136.45 1372088
3 2139.31 1370236
3 2139.31 1369165
3 2140.3 1365592
3 2140.3 1365515
3 2141.8 1364873
3 2142.73 1479514
3 2142.73 1476279
3 2142.73 1473838
3 2142.73 1467360
3 2142.73 1461517
3 2142.73 1451136
3 2142.73 1447082
3 2142.73 1444950
3 2143.45 1428681
3 2143.45 1427845
3 2144.05 1422139
3 2144.05 1421335
3 2144.05 1417826
3 2144.05 1401665
3 2144.05 1400498
3 2145.12 1396247
3 2146.13 1392062
3 2146.13 1389377
3 2147.16 1385276
3 2148.17 1376838
3 2148.17 1374925
3 2148.17 1372462
3 2149.17 1371846
3 2149.17 1371254
3 2150.17 1369933
3 2151.15 1359820
3 2152.99 1359076
3 2153.97 1356090
3 2153.97 1354267
3 2153.97 1350386
3 2156.79 1522509
3 2156.79 1516578
3 2156.79 1502844
3 2156.79 1497265
3 2156.79 1471870
3 2156.79 1458460
3 2157.89 1440123
3 2157.89 1438500
3 2157.89 1432013
3 2157.89 1423950
3 2157.89 1422454
3 2157.89 1419280
3 2157.89 1413605
3 2158.96 1403858
3 2158.96 1402891
3 2158.96 1400435
3 2158.96 1398542
3 2159.99 1398291
3 2159.99 1395294
3 2161.82 1391706
3 2161.82 1387102
3 2161.82 1379729
3 2162.75 1377910
3 2162.75 1375226
3 2162.75 1374874
3 2164.65 1368762
3 2164.65 1367886
3 2165.6 1367244
3 2165.6 1361719
3 2165.6 1359423
3 2165.6 1359032
3 2167.03 1356800
3 2167.7 1355160
3 2167.7 1350962
3 2168.27 1350287
3 2170.2 1436855
3 2170.2 1434053
3 2170.2 1421963
3 2170.2 1418942
3 2170.2 1406560
3 2170.2 1406153
3 2170.2 1404478
3 2171.26 1403200
3 2171.26 1400275
3 2171.26 1399439
3 2171.26 1391323
3 2171.26 1389984
3 2172.34 1388302
3 2172.34 1386997
3 2173.11 1386383
3 2175.37 1385475
3 2175.37 1382042
3 2175.37 1380005
3 2176.11 1368631
3 2176.11 1367705
3 2176.11 1365589
3 2176.11 1364170
3 2176.76 1361466
3 2177.33 1360496
3 2177.33 1358269
3 2178.56 1357946
3 2179.17 1357288
3 2179.17 1356270
3 2179.76 1355967
3 2180.38 1355873
3 2181.1 1355844
3 2184.79 1451105
3 2184.79 1448710
3 2184.79 1434477
3 2184.79 1431925
3 2185.5 1424563
3 2185.5 1422105
3 2185.5 1412088
3 2185.5 1410123
3 2185.5 1406497
3 2185.5 1403205
3 2185.5 1399855
3 2186.2 1395339
3 2186.88 1392983
3 2186.88 1390217
3 2187.68 1382713
3 2187.68 1372427
3 2187.68 1372216
3 2188.42 1367620
3 2189.09 1362039
3 2189.09 1356040
3 2189.69 1352989
3 2189.69 1352592
3 2189.69 1352583
3 2189.69 1348803
3 2190.6 1347269
3 2190.6 1345236
3 2190.6 1344809
3 2190.6 1342772
3 2191.37 1342660
3 2193.55 1342239
3 2195.25 1341532
3 2198.91 1510125
3 2198.91 1507976
3 2198.91 1472533
3 2198.91 1471341
3 2198.91 1439257
3 2198.91 1435497
3 2198.91 1433287
3 2198.91 1432609
3 2200.05 1429924
3 2200.05 1429036
3 2201.07 1428959
3 2201.07 1415848
3 2201.07 1414500
3 2201.07 1409021
3 2201.07 1408138
3 2202.19 1406581
3 2202.19 1404683
3 2202.19 1390115
3 2202.19 1388150
3 2202.19 1375915
3 2202.19 1368939
3 2202.19 1368722
3 2203.32 1366954
3 2203.32 1366193
3 2211.31 1363387
3 2211.31 1361461
3 2212.49 1524399
3 2212.49 1515406
3 2212.49 1509418
3 2212.49 1498272
3 2212.49 1496097
3 2212.49 1483381
3 2212.49 1467395
3 2212.49 1464256
3 2212.49 1456560
3 2213.21 1447881
3 2213.21 1444581
3 2213.21 1435469
3 2213.21 1419721
3 2213.21 1410473
3 2213.21 1405876
3 2213.88 1404301
3 2213.88 1402396
3 2213.88 1402325
3 2213.88 1400254
3 2213.88 1399883
3 2214.56 1398060
3 2214.56 1396095
3 2214.56 1394391
3 2214.56 1392508
3 2214.56 1391456
3 2215.18 1389150
3 2215.18 1386289
3 2215.18 1384862
3 2215.78 1384461
3 2216.57 1383786
3 2216.57 1381726
3 2216.57 1379646
3 2216.57 1379559
3 2216.57 1376353
3 2221.02 1376349
3 2222.33 1367397
3 2222.95 1365925
3 2222.95 1362415
3 2224.74 1360954
3 2226.22 1495375
3 2226.22 1458452
3 2226.22 1452681
3 2226.22 1450532
3 2226.22 1443612
3 2226.22 1436850
3 2226.96 1435289
3 2226.96 1430653
3 2226.96 1425227
3 2226.96 1420704
3 2226.96 1406778
3 2226.96 1406602
3 2226.96 1406515
3 2227.67 1405873
3 2227.67 1397542
3 2227.67 1391141
3 2227.67 1389165
3 2227.67 1387784
3 2228.31 1386622
3 2228.9 1383727
3 2228.9 1377222
3 2228.9 1376365
3 2228.9 1371296
3 2228.9 1368875
3 2229.58 1363335
3 2229.58 1361936
3 2229.58 1361261
3 2229.58 1360814
3 2231.92 1359679
3 2233.07 1359203
3 2233.78 1358753
3 2233.78 1358065
3 2233.78 1356481
3 2238.01 1355596
3 2238.76 1355256
3 2238.76 1354336
3 2239.72 1347849
3 2239.72 1347531
3 2240.78 1486861
3 2240.78 1479804
3 2240.78 1460046
3 2240.78 1457104
3 2240.78 1430783
3 2240.78 1419063
3 2240.78 1416711
3 2240.78 1415071
3 2240.78 1409767
3 2240.78 1407238
3 2241.69 1402220
3 2241.69 1396200
3 2241.69 1395512
3 2241.69 1393646
3 2242.4 1393156
3 2242.4 1391581
3 2242.4 1391459
3 2242.4 1389376
3 2242.4 1378448
3 2242.4 1378099
3 2242.4 1377882
3 2244.45 1376242
3 2244.45 1373126
3 2244.45 1372731
3 2244.45 1370009
3 2244.45 1369996
3 2244.45 1367480
3 2245.35 1366819
3 2245.35 1365128
3 2245.35 1364955
3 2246.67 1363484
3 2247.34 1362356
3 2247.34 1357785
3 2247.34 1354617
3 2247.34 1354059
3 2248.27 1353842
3 2248.86 1352876
3 2248.86 1351729
3 2249.44 1351532
3 2250.22 1351315
3 2250.9 1351070
3 2252.54 1350927
3 2252.54 1349055
3 2254.5 1576582
3 2254.5 1528969
3 2254.5 1507167
3 2254.5 1476689
3 2254.5 1471031
3 2254.5 1469808
3 2254.5 1457645
3 2254.5 1444790
3 2254.5 1430343
3 2254.5 1429399
3 2255.46 1428919
3 2255.46 1424224
3 2255.46 1421674
3 2255.46 1420546
3 2256.48 1419871
3 2256.48 1419441
3 2256.48 1418933
3 2257.53 1411205
3 2257.53 1409585
3 2257.53 1409056
3 2258.54 1407096
3 2260.48 1400572
3 2261.34 1400533
3 2261.34 1400316
3 2261.34 1391480
3 2261.34 1390053
3 2261.99 1385505
3 2261.99 1382976
3 2263.18 1381877
3 2268.61 1439864
3 2268.61 1401221
3 2268.61 1391290
3 2268.61 1390504
3 2270.33 1371444
3 2271.35 1367302
3 2272.1 1360478
3 2272.76 1358143
3 2272.76 1356183
3 2273.35 1351586
3 2273.35 1349057
3 2273.97 1347852
3 2273.97 1346234
3 2275.12 1344886
3 2275.12 1343190
3 2282.75 1552244
3 2282.75 1534823
3 2282.75 1520000
3 2282.75 1503812
3 2282.75 1500751
3 2282.75 1485965
3 2282.75 1482437
3 2282.75 1477846
3 2282.75 1441692
3 2283.89 1441196
3 2283.89 1438713
3 2283.89 1434141
3 2283.89 1432172
3 2283.89 1421886
3 2283.89 1419921
3 2283.89 1418959
3 2283.89 1417392
3 2283.89 1417075
3 2284.99 1411328
3 2284.99 1411026
3 2284.99 1409352
3 2286.02 1407354
3 2286.02 1403837
3 2287.99 1401691
3 2287.99 1400083
3 2288.64 1397039
3 2288.64 1392442
3 2290.57 1392157
3 2290.57 1391567
3 2291.24 1391406
3 2291.24 1388957
3 2291.95 1384522
3 2291.95 1380437
3 2291.95 1379622
3 2293.23 1376667
3 2294.42 1373623
3 2295.06 1372938
3 2295.06 1371298
3 2295.67 1370727
3 2296.34 1479438
3 2296.34 1478744
3 2296.34 1474184
3 2296.34 1458227
3 2296.34 1450789
3 2296.34 1443680
3 2296.34 1439388
3 2297.02 1435116
3 2297.02 1430983
3 2297.02 1426669
3 2297.73 1424521
3 2297.73 1410899
3 2297.73 1398044
3 2297.73 1395246
3 2297.73 1390297
3 2297.73 1387537
3 2298.46 1387049
3 2298.46 1384852
3 2298.46 1383936
3 2298.46 1382296
3 2299.46 1380071
3 2299.46 1379205
3 2299.46 1374104
3 2299.46 1373908
3 2300.47 1366512
3 2301.32 1363726
3 2303.2 1363285
3 2303.2 1363051
3 2303.97 1362285
3 2307.6 1362104
3 2307.6 1356998
3 2308.45 1356710
3 2309.36 1352899
3 2309.36 1352702
3 2310.38 1489667
3 2310.38 1465436
3 2310.38 1459422
3 2310.38 1436437
3 2310.38 1434288
3 2310.38 1432705
3 2310.38 1432648
3 2310.38 1431494
3 2310.38 1428353
3 2311.49 1416491
3 2311.49 1413568
3 2311.49 1401597
3 2311.49 1393432
3 2312.18 1389157
3 2312.18 1380210
3 2312.18 1378743
3 2312.78 1377334
3 2312.78 1368835
3 2314.09 1366916
3 2314.87 1366625
3 2316.28 1366384
1 2316.28 1362217
3 2317.02 1361542
3 2317.02 1361455
3 2317.75 1360458
3 2317.75 1360445
3 2318.54 1358411
3 2319.14 1357259
3 2320.58 1355188
3 2320.58 1355024
3 2321.6 1350726
3 2324.41 1486313
3 2324.41 1475105
3 2324.41 1444921
3 2324.41 1442480
3 2324.41 1441159
3 2324.41 1435150
3 2324.41 1435145
3 2325.5 1427096
3 2325.5 1416303
3 2325.5 1407406
3 2325.5 1402037
3 2325.5 1397201
3 2327.44 1396649
3 2327.44 1393277
3 2327.44 1393196
3 2328.12 1391881
3 2328.12 1391206
3 2328.78 1390943
3 2328.78 1389246
3 2329.57 1389159
3 2329.57 1387882
3 2329.57 1386213
3 2330.6 1384573
3 2330.6 1372977
3 2332.56 1372916
3 2336.74 1372181
3 2338.28 1491093
3 2338.28 1482831
3 2338.28 1482156
3 2338.28 1479178
3 2338.28 1468809
3 2338.28 1456736
3 2339.32 1455937
3 2339.32 1454297
3 2339.32 1450392
3 2339.32 1449717
3 2339.32 1446911
3 2339.32 1440936
3 2339.32 1433844
3 2339.32 1430622
3 2339.32 1428296
3 2340.19 1427301
3 2340.85 1425434
3 2340.85 1424450
3 2341.58 1423958
3 2341.58 1421606
3 2342.63 1420933
3 2342.63 1417866
3 2342.63 1411429
3 2344.05 1401576
3 2344.05 1393386
3 2345.1 1384966
3 2345.1 1382518
3 2345.1 1371710
3 2345.91 1370070
3 2345.91 1369937
3 2345.91 1368511
3 2345.91 1368114
3 2346.55 1366149
3 2346.55 1365017
3 2348.97 1363822
3 2348.97 1361374
3 2349.59 1361097
3 2349.59 1360732
3 2350.25 1357161
3 2350.93 1354004
3 2351.5 1352364
3 2352.09 1462479
3 2352.09 1455513
3 2352.09 1439917
3 2352.09 1437203
3 2352.09 1433451
3 2352.09 1425742
3 2352.09 1423218
3 2352.09 1422559
3 2352.78 1417291
3 2352.78 1406596
3 2352.78 1400744
3 2354.04 1400338
3 2354.04 1399016
3 2354.04 1396452
3 2354.04 1396235
3 2355.26 1395336
3 2355.26 1389870
3 2355.92 1386270
3 2355.92 1380240
3 2355.92 1374244
3 2355.92 1372095
3 2356.81 1371450
3 2356.81 1368658
3 2356.81 1368102
3 2357.82 1364882
3 2358.79 1363554
3 2358.79 1363467
3 2359.73 1361318
3 2359.73 1361275
3 2359.73 1360547
3 2360.94 1357862
3 2361.88 1356441
3 2361.88 1354701
3 2366.1 1482812
3 2366.1 1465838
3 2366.1 1456604
3 2366.1 1451984
3 2366.1 1437710
3 2366.1 1423746
3 2366.1 1421322
3 2366.1 1416922
3 2366.1 1414773
3 2366.1 1414082
3 2366.1 1413865
3 2366.98 1413775
3 2367.63 1411423
3 2367.63 1407131
3 2368.26 1398701
3 2368.26 1383770
3 2374.09 1382869
3 2374.09 1382699
3 2375.27 1380904
3 2379.13 1376293
3 2380.14 1460394
3 2380.14 1443752
3 2380.14 1425144
3 2380.14 1421273
3 2380.14 1421097
3 2380.14 1418136
3 2380.14 1416995
3 2381.27 1407556
3 2381.27 1406735
3 2381.27 1385068
3 2381.27 1379896
3 2381.9 1369760
3 2381.9 1368632
3 2387.53 1366607
3 2389.51 1366390
3 2391.76 1363312
3 2394.02 1541071
3 2394.02 1532119
3 2394.02 1516077
3 2394.02 1498344
3 2394.02 1493125
3 2394.02 1488090
3 2394.02 1485501
3 2394.02 1481646
3 2394.02 1478839
3 2394.02 1464973
3 2394.02 1449699
3 2394.02 1446285
3 2395.24 1439859
3 2395.24 1433217
3 2395.24 1421658
3 2395.24 1420828
3 2396.28 1419188
3 2396.28 1416747
3 2396.28 1411384
3 2396.28 1410770
3 2396.28 1409130
1 2396.28 1406011
3 2397.35 1403407
3 2397.35 1403385
3 2397.35 1401483
3 2398.28 1400878
3 2399.01 1395231
3 2399.01 1393368
3 2399.68 1389513
3 2399.68 1389241
3 2399.68 1384462
3 2399.68 1383227
3 2400.36 1382922
3 2400.36 1379098
3 2401.18 1373055
3 2401.18 1370011
3 2401.18 1368424
3 2401.18 1366265
3 2403.16 1360559
3 2408.75 1517352
3 2408.75 1498281
3 2408.75 1450017
3 2408.75 1449780
3 2408.75 1446931
3 2408.75 1426765
3 2408.75 1416911
3 2408.75 1405301
3 2409.69 1404583
3 2409.69 1403336
3 2409.69 1400860
3 2409.69 1400162
3 2409.69 1399246
3 2410.38 1394896
3 2410.38 1392682
3 2410.38 1387350
3 2410.38 1386675
3 2410.38 1382860
3 2410.38 1382283
3 2410.38 1378822
3 2410.38 1378338
3 2411.17 1372966
3 2411.17 1371452
3 2411.17 1370064
3 2411.83 1369216
3 2411.83 1366988
3 2411.83 1366313
3 2412.49 1366245
3 2413.08 1365570
3 2413.08 1364583
3 2413.66 1364255
3 2413.66 1363645
3 2414.28 1362943
3 2414.28 1362500
3 2414.97 1361496
3 2414.97 1361131
3 2416.68 1359910
3 2416.68 1357945
3 2417.77 1354120
3 2417.77 1352522
3 2422.72 1501080
3 2422.72 1498131
3 2422.72 1488175
3 2422.72 1482857
3 2422.72 1476843
3 2422.72 1467989
3 2422.72 1462556
3 2422.72 1461400
3 2422.72 1461183
3 2423.68 1425486
3 2423.68 1424584
3 2423.68 1422310
3 2424.4 1421823
3 2424.4 1415148
3 2424.4 1411539
3 2425.38 1407730
3 2425.38 1407554
3 2425.38 1405121
3 2425.38 1404865
3 2425.38 1403682
3 2425.38 1393260
3 2425.38 1393039
3 2425.38 1387845
3 2426.43 1383951
3 2426.43 1379380
3 2426.43 1379297
3 2427.4 1377028
3 2431.15 1376154
3 2431.15 1375020
3 2433.76 1374530
3 2433.76 1372897
3 2435.38 1370298
3 2435.38 1364382
3 2437.28 1517316
3 2437.28 1498138
3 2437.28 1494193
3 2437.28 1485738
3 2437.28 1484365
3 2437.28 1483829
3 2437.28 1475857
3 2437.28 1475003
3 2437.28 1453980
3 2438.4 1449640
3 2438.4 1449488
3 2438.4 1447848
3 2438.4 1439866
3 2438.4 1439829
3 2438.4 1437802
3 2438.4 1437585
3 2438.4 1436251
3 2441.46 1429382
3 2441.46 1415603
3 2442.39 1407572
3 2443.79 1402076
3 2443.79 1399446
3 2444.78 1395154
3 2445.76 1392625
3 2450.67 1562882
3 2450.67 1559927
3 2450.67 1542241
3 2450.67 1541542
3 2450.67 1539094
3 2450.67 1530048
3 2450.67 1525708
3 2450.67 1524068
3 2450.67 1493884
3 2450.67 1491979
3 2452.02 1487468
3 2452.02 1477932
3 2452.02 1476649
3 2452.02 1475600
3 2452.02 1464415
3 2452.02 1455947
3 2452.02 1453418
3 2452.02 1448041
3 2452.02 1447404
3 2453.13 1430954
3 2453.13 1406598
3 2453.13 1405198
3 2453.99 1404633
3 2453.99 1404592
3 2453.99 1404458
3 2455.43 1402745
3 2455.43 1402054
3 2455.43 1398931
3 2455.43 1398806
3 2456.14 1396402
3 2456.14 1388988
3 2456.14 1386543
3 2456.74 1384658
3 2456.74 1384311
3 2457.45 1381778
3 2457.45 1375632
3 2458.37 1374947
3 2458.37 1374565
3 2458.97 1373500
3 2458.97 1373482
3 2459.69 1373395
3 2460.37 1372930
3 2464.1 1457161
3 2464.1 1452206
3 2464.1 1447930
3 2464.1 1444075
3 2464.1 1436721
3 2464.1 1429539
3 2464.1 1427010
3 2464.1 1420864
3 2464.79 1408754
3 2464.79 1401336
3 2465.47 1386600
3 2466.44 1384152
3 2466.44 1383870
3 2467.42 1381732
3 2467.42 1379047
3 2467.42 1373621
3 2467.42 1373105
3 2467.42 1370002
3 2467.42 1368724
3 2470.7 1367186
3 2470.7 1367099
3 2471.46 1366622
3 2472.62 1365037
3 2473.18 1364174
3 2473.18 1361583
3 2473.18 1361198
3 2478.52 1523067
3 2478.52 1503811
3 2478.52 1477483
3 2478.52 1476595
3 2478.52 1459437
3 2478.52 1454001
3 2478.52 1444465
3 2478.52 1440884
3 2478.52 1440306
3 2478.52 1414119
3 2478.52 1412568
3 2478.52 1405938
3 2478.52 1402429
3 2478.52 1397257
3 2478.52 1388899
3 2478.52 1386540
3 2479.73 1378818
3 2479.73 1376887
3 2480.7 1376059
3 2480.7 1376055
3 2480.7 1373213
3 2480.7 1372199
3 2481.54 1371397
3 2481.54 1363544
3 2482.84 1363132
3 2483.77 1361015
3 2485.68 1360340
3 2492.89 1470231
3 2492.89 1434636
3 2492.89 1427022
3 2492.89 1416633
3 2492.89 1411107
3 2492.89 1407242
3 2493.97 1407128
3 2493.97 1401228
3 2493.97 1388588
3 2493.97 1373200
3 2493.97 1367224
3 2494.78 1366529
3 2495.5 1362372
3 2496.72 1362155
3 2499.11 1361603
3 2500.24 1360268
3 2501.1 1360111
3 2501.1 1359687
3 2502.21 1355395
3 2505.92 1351324
3 2506.52 1524561
3 2506.52 1517147
3 2506.52 1513395
3 2506.52 1482958
3 2506.52 1476786
3 2507.17 1460518
3 2507.17 1449682
3 2507.17 1449664
3 2507.17 1448061
3 2507.17 1443106
3 2507.17 1438809
3 2507.91 1438134
3 2507.91 1436997
3 2507.91 1436390
3 2507.91 1432998
3 2507.91 1427530
3 2508.66 1425684
3 2508.66 1411308
3 2508.66 1408169
3 2508.66 1403546
3 2509.66 1399419
3 2509.66 1399246
3 2510.63 1391863
3 2511.6 1390848
3 2511.6 1389585
3 2513.47 1385936
3 2513.47 1383950
3 2513.47 1382010
3 2514.46 1379474
3 2514.46 1376945
3 2516.69 1375469
3 2518.45 1374341
3 2518.45 1373165
3 2519.06 1372372
3 2519.06 1370740
3 2519.65 1370065
3 2520.31 1489899
3 2520.31 1469011
3 2520.31 1462528
3 2520.31 1453416
3 2520.31 1447892
3 2520.31 1431935
3 2520.31 1425781
3 2520.31 1425729
3 2520.31 1419600
3 2520.31 1404331
3 2521.13 1404244
3 2521.13 1402604
3 2521.13 1400627
3 2521.85 1395461
3 2521.85 1395190
3 2521.85 1393041
3 2522.48 1392099
3 2524.37 1391263
3 2525.02 1387120
3 2525.02 1383667
3 2525.02 1377697
3 2525.7 1377350
3 2525.7 1372156
3 2525.7 1368134
3 2525.7 1367006
3 2526.36 1361347
3 2526.94 1360720
3 2526.94 1359499
3 2527.54 1359080
3 2530.05 1358988
3 2532.39 1358559
3 2532.39 1357431
3 2534.28 1545901
3 2534.28 1519472
3 2534.28 1486361
3 2534.28 1478068
3 2534.28 1465819
3 2534.28 1454512
3 2534.28 1434638
3 2534.97 1431740
3 2534.97 1426365
3 2534.97 1416799
3 2534.97 1410785
3 2535.73 1408028
3 2535.73 1404036
3 2535.73 1403949
3 2536.38 1401800
3 2538.32 1395986
3 2538.32 1391541
3 2538.32 1385187
3 2539.22 1385172
3 2546.84 1384943
3 2548.01 1463593
3 2548.01 1458894
3 2548.01 1427108
3 2548.01 1426338
3 2548.01 1426320
3 2548.7 1414780
3 2548.7 1407952
3 2548.7 1407762
3 2548.7 1407087
3 2548.7 1400185
3 2548.7 1397861
3 2548.7 1397390
3 2549.37 1396221
3 2550.01 1393418
3 2550.01 1389912
3 2550.01 1388672
3 2550.7 1387947
3 2550.7 1373831
3 2550.7 1364290
3 2550.7 1363964
3 2551.71 1363747
3 2551.71 1361893
3 2551.71 1359163
3 2552.35 1358665
3 2553.55 1357617
3 2554.61 1356164
3 2554.61 1355489
3 2554.61 1353705
3 2554.61 1353063
3 2555.82 1353053
3 2555.82 1352378
3 2555.82 1349853
3 2556.59 1348213
3 2557.33 1345684
3 2558.51 1341515
3 2559.1 1340743
3 2559.69 1339227
3 2562.36 1561257
3 2562.36 1559292
3 2562.36 1553866
3 2562.36 1552226
3 2562.36 1530424
3 2562.36 1519808
3 2562.36 1490709
3 2562.36 1476168
3 2562.36 1446887
3 2562.36 1432926
3 2562.36 1429221
3 2563.19 1425581
3 2563.19 1413612
3 2563.19 1408943
3 2563.19 1408143
3 2563.19 1404330
3 2563.83 1387504
3 2564.54 1384603
3 2564.54 1384303
3 2565.5 1382925
3 2565.5 1377200
3 2566.55 1376429
3 2566.55 1375162
3 2566.55 1373129
3 2567.53 1370184
3 2567.53 1368330
3 2567.53 1363030
3 2568.55 1362949
3 2568.55 1360501
3 2571.41 1358352
3 2572.34 1358014
3 2572.34 1356374
3 2573.64 1355510
3 2573.64 1353340
3 2574.92 1351983
3 2576.53 1427966
3 2576.53 1423888
3 2576.53 1412745
3 2576.53 1405931
3 2576.53 1402606
3 2576.53 1397971
3 2576.53 1396079
3 2576.53 1391445
3 2577.88 1388013
3 2577.88 1385864
3 2577.88 1385448
3 2577.88 1379507
3 2578.79 1378795
3 2578.79 1366959
3 2578.79 1366604
3 2578.79 1364025
3 2578.79 1362753
3 2579.41 1361673
3 2590.38 1469150
3 2590.38 1468364
3 2590.38 1465320
3 2590.38 1453926
3 2590.38 1451459
3 2590.38 1443292
3 2590.38 1441652
3 2590.38 1440989
3 2591.16 1440310
3 2591.16 1438840
3 2591.16 1429852
3 2591.16 1428686
3 2591.79 1419216
3 2591.79 1415539
3 2591.79 1407034
3 2591.79 1406203
3 2591.79 1403180
3 2591.79 1402120
3 2591.79 1400663
3 2592.43 1396977
3 2593.45 1394448
3 2593.45 1393320
3 2594.13 1392347
3 2596.84 1382969
3 2596.84 1382746
3 2596.84 1382611
3 2598.65 1381911
3 2598.65 1379529
3 2598.65 1378024
3 2598.65 1377807
3 2598.65 1372875
3 2599.9 1369269
3 2600.83 1368594
3 2600.83 1366861
3 2600.83 1364696
3 2601.63 1363814
3 2602.91 1361334
3 2604.8 1479764
3 2604.8 1475783
3 2604.8 1470013
3 2604.8 1443963
3 2604.8 1438437
3 2604.8 1436033
3 2604.8 1432137
3 2604.8 1429608
3 2605.5 1412400
3 2605.5 1394214
3 2606.12 1388200
3 2606.12 1386720
3 2608.75 1382410
3 2608.75 1382012
3 2609.49 1379863
3 2610.33 1373411
3 2611.22 1373369
3 2612.08 1372987
3 2612.08 1372900
3 2613.1 1369371
3 2613.1 1368656
3 2614.12 1366127
3 2614.12 1365955
3 2617.79 1365609
3 2617.79 1360164
3 2618.78 1490957
3 2618.78 1490220
3 2618.78 1462852
3 2618.78 1441891
3 2618.78 1437897
3 2618.78 1436213
3 2618.78 1433364
3 2618.78 1429499
3 2618.78 1427124
3 2618.78 1424595
3 2618.78 1417112
3 2618.78 1412478
3 2618.78 1410126
3 2618.78 1407498
3 2618.78 1404969
3 2619.97 1403408
3 2619.97 1401661
3 2619.97 1388275
3 2619.97 1383371
3 2620.73 1382584
3 2621.41 1378719
3 2621.41 1377655
3 2622.24 1376591
3 2622.24 1372793
3 2623.63 1371207
3 2623.63 1369838
3 2624.83 1367660
3 2624.83 1366636
3 2627.55 1366299
3 2628.49 1362763
3 2628.49 1362444
3 2632.49 1507623
3 2632.49 1502805
3 2632.49 1484468
3 2632.49 1484095
3 2632.49 1479843
3 2632.49 1472489
3 2632.49 1456039
3 2632.49 1436520
3 2632.49 1436433
3 2632.49 1435758
3 2633.81 1435264
3 2633.81 1427355
3 2633.81 1416075
3 2633.81 1406916
3 2633.81 1405355
3 2633.81 1403542
3 2634.7 1390962
3 2634.7 1390421
3 2636.06 1370759
3 2636.82 1362678
3 2636.82 1361038
3 2637.58 1358427
3 2638.39 1357690
3 2638.97 1356562
3 2641.98 1356550
3 2643.85 1354401
3 2643.85 1353963
3 2643.85 1351507
3 2646.23 1482702
3 2646.23 1472091
3 2646.23 1431725
3 2646.23 1430085
3 2646.23 1417756
3 2646.87 1417114
3 2647.88 1414277
3 2647.88 1405052
3 2647.88 1402445
3 2647.88 1400805
3 2648.58 1400458
3 2649.16 1392048
3 2649.16 1391791
3 2649.16 1388808
3 2649.16 1381519
3 2651.77 1377034
3 2652.34 1373635
3 2653.13 1373002
3 2653.13 1358760
3 2653.13 1358190
3 2654.13 1357017
3 2660.32 1444596
3 2660.32 1443094
3 2660.32 1442631
3 2660.32 1420082
3 2660.32 1418576
3 2660.32 1404706
3 2660.32 1400213
3 2661.22 1399085
3 2663.03 1397702
3 2663.03 1397228
3 2663.03 1395173
3 2663.03 1393419
3 2663.96 1390546
3 2663.96 1380886
3 2664.55 1363555
3 2665.12 1361338
3 2666.38 1354467
3 2667.62 1353485
3 2671.4 1353093
3 2671.4 1353062
3 2673.93 1350622
3 2674.53 1430180
3 2674.53 1429075
3 2674.53 1421093
3 2675.24 1418021
3 2675.24 1417379
3 2675.24 1414223
3 2675.24 1413457
3 2675.24 1413240
3 2675.98 1408758
3 2675.98 1405238
3 2677.01 1403564
3 2677.01 1398075
3 2677.01 1393549
3 2678.92 1393071
3 2678.92 1391020
3 2682.37 1381632
3 2682.37 1381369
3 2682.37 1379729
3 2683.37 1376703
3 2683.37 1375879
3 2684.34 1375394
3 2687.14 1374051
3 2687.14 1370724
3 2688.13 1547542
3 2688.13 1545393
3 2688.13 1523926
3 2688.13 1504828
3 2688.13 1504611
3 2688.13 1502971
3 2688.13 1492209
3 2688.13 1460812
3 2689.26 1452217
3 2689.26 1450553
3 2689.26 1448105
3 2689.26 1439222
3 2689.26 1421515
3 2689.26 1415492
3 2690.35 1412519
3 2691.22 1410059
3 2691.22 1409374
3 2691.22 1406899
3 2691.22 1405966
3 2691.22 1405670
3 2691.85 1402940
3 2691.85 1401812
3 2691.85 1398163
3 2691.85 1396947
3 2692.47 1395798
3 2692.47 1393817
3 2693.78 1387300
3 2693.78 1384748
3 2694.71 1380733
3 2695.71 1380604
3 2695.71 1379886
3 2695.71 1378848
3 2696.31 1375185
3 2696.31 1371653
3 2698.06 1368807
3 2699.08 1368243
3 2700.08 1367332
3 2702.43 1532800
3 2702.43 1529663
3 2702.43 1480057
3 2702.43 1472222
3 2702.43 1471221
3 2702.43 1447154
3 2702.43 1440512
3 2703.44 1439043
3 2703.44 1434319
3 2703.44 1433644
3 2704.45 1414584
3 2704.45 1412374
3 2705.27 1410677
3 2705.27 1404262
3 2705.27 1392359
3 2707.84 1390919
3 2707.84 1390616
3 2707.84 1389268
3 2708.47 1389035
3 2708.47 1387929
3 2708.47 1386147
3 2708.47 1385844
3 2708.47 1383499
3 2709.11 1382661
3 2709.11 1380132
3 2709.75 1378226
3 2709.75 1373490
3 2713.3 1368234
3 2714.57 1365516
3 2714.57 1365143
3 2715.58 1363551
3 2716.56 1459651
3 2716.56 1448447
3 2716.56 1447507
3 2716.56 1445673
3 2716.56 1439484
3 2716.56 1437335
3 2716.56 1436660
3 2716.56 1429110
3 2717.75 1424331
3 2717.75 1423320
3 2717.75 1418725
3 2717.75 1406412
3 2717.75 1406394
3 2717.75 1405636
3 2718.89 1397522
3 2718.89 1395371
3 2718.89 1390739
3 2718.89 1390513
3 2719.96 1388269
3 2719.96 1376433
3 2719.96 1375249
3 2720.66 1368421
3 2720.66 1364477
3 2720.66 1359914
3 2722.19 1357430
3 2722.88 1357158
3 2723.53 1355769
3 2724.19 1354627
3 2726.65 1353087
3 2730.26 1434357
3 2730.26 1423141
3 2730.26 1421368
3 2730.26 1421281
3 2730.26 1409070
3 2730.26 1408853
3 2730.26 1405918
3 2731.22 1400480
3 2731.22 1398331
3 2732 1396764
3 2732 1396674
3 2732 1392847
3 2732 1389307
3 2733.07 1384189
3 2734 1382786
3 2734 1381643
3 2734 1381625
3 2737.66 1376299
3 2739 1376262
3 2739 1372377
3 2739 1367927
3 2739.73 1366684
3 2739.73 1363068
3 2741.4 1360956
3 2741.4 1357912
3 2741.4 1357874
3 2744.2 1515194
3 2744.2 1489299
3 2744.2 1480941
3 2744.2 1467083
3 2744.2 1464554
3 2744.2 1457595
3 2744.2 1456294
3 2744.2 1450904
3 2744.2 1444262
3 2744.2 1442297
3 2744.2 1436789
3 2744.2 1434500
3 2745.36 1429512
3 2745.36 1427872
3 2745.36 1423275
3 2745.36 1421424
3 2745.36 1414368
3 2745.36 1405572
3 2745.36 1405174
3 2745.36 1403944
3 2745.36 1403834
3 2745.36 1392615
3 2745.36 1386759
3 2746.18 1380745
3 2746.18 1379718
3 2746.18 1368762
3 2746.18 1361248
3 2746.18 1360155
3 2746.18 1359578
3 2747.2 1359489
3 2747.2 1357078
3 2748.2 1355197
3 2751.05 1354495
3 2751.05 1349766
3 2751.95 1348841
3 2751.95 1347702
3 2752.72 1347586
3 2753.36 1345942
3 2753.96 1345185
3 2754.95 1343697
3 2758.64 1481804
3 2758.64 1454527
3 2758.64 1450782
3 2758.64 1449377
3 2758.64 1445369
3 2758.64 1441935
3 2758.64 1436876
3 2759.69 1433645
3 2759.69 1417254
1 2759.69 1407623
3 2759.69 1391265
3 2760.59 1389627
3 2760.59 1385445
3 2761.3 1382493
3 2762.29 1381806
3 2762.29 1381673
3 2763.21 1381241
3 2763.21 1379321
3 2763.21 1377713
3 2763.21 1376683
3 2763.21 1372310
3 2763.87 1372278
3 2763.87 1370205
3 2764.48 1369234
3 2766.23 1367820
3 2766.23 1367161
3 2766.23 1366944
3 2772.13 1493160
3 2772.13 1465842
3 2772.13 1459680
3 2772.13 1459005
3 2772.13 1445442
3 2772.13 1444724
3 2772.13 1436462
3 2772.13 1436408
3 2772.13 1431837
3 2773.23 1429048
3 2773.23 1428725
3 2773.23 1428161
3 2773.23 1427764
3 2774.26 1427714
3 2774.26 1417779
3 2774.26 1417729
3 2775.12 1417413
3 2775.12 1415773
3 2775.12 1413893
3 2775.82 1410248
3 2775.82 1407631
3 2775.82 1404797
3 2775.82 1403669
3 2775.82 1402188
3 2775.82 1401011
3 2775.82 1396713
3 2775.82 1395636
3 2775.82 1394581
3 2776.9 1390289
3 2776.9 1387604
3 2776.9 1385941
3 2776.9 1385241
3 2776.9 1383266
3 2777.94 1378060
3 2777.94 1377871
3 2777.94 1376231
3 2777.94 1368000
3 2778.56 1367982
3 2778.56 1363218
3 2778.56 1363153
3 2778.56 1362025
3 2779.2 1360385
3 2779.2 1357197
3 2780.17 1356911
3 2786.25 1490976
3 2786.25 1486504
3 2786.25 1470276
3 2786.25 1469601
3 2786.25 1468339
3 2786.25 1462785
3 2786.25 1460125
3 2786.25 1456270
3 2786.25 1443899
3 2786.25 1439302
3 2786.25 1426727
3 2787.27 1415988
3 2787.27 1407549
3 2787.27 1389271
3 2787.27 1384203
3 2787.27 1382629
3 2787.27 1381827
3 2788.11 1380185
3 2788.11 1375667
3 2788.11 1370152
3 2788.11 1367499
3 2788.11 1365469
3 2789.01 1362118
3 2789.01 1360390
3 2790.67 1357273
3 2790.67 1355950
3 2790.67 1345995
3 2790.67 1344456
3 2791.6 1344276
3 2793.4 1341218
3 2794.08 1340484
query_times: 133
Score = 1345801
