    Blocking waiting for file lock on package cache
    Blocking waiting for file lock on package cache
    Blocking waiting for file lock on package cache
    Blocking waiting for file lock on build directory
    Finished release [optimized] target(s) in 0.04s
     Running `target/release/tester ../a.out 0050`
3 11.284 1433685
3 11.284 1424100
3 11.284 1421961
3 11.284 1419037
3 11.284 1414690
3 11.284 1412083
3 11.284 1404902
3 11.284 1395739
3 11.284 1380368
3 11.284 1378742
3 11.284 1378485
3 11.284 1371418
3 11.284 1366171
3 12.275 1365063
3 12.275 1363921
3 12.275 1362924
3 12.275 1359800
3 12.275 1359651
3 12.852 1359488
3 12.852 1358833
3 12.852 1351744
3 12.852 1343788
3 13.703 1341953
3 13.703 1339782
3 14.531 1482734
3 14.531 1476656
3 14.531 1459387
3 14.531 1451033
3 14.531 1438821
3 14.531 1406775
3 14.531 1406104
3 14.531 1403701
3 14.531 1402685
3 15.512 1386652
3 15.512 1385775
3 15.512 1385026
3 16.345 1373983
3 16.345 1369261
3 16.345 1368469
3 17.164 1366173
3 17.164 1360277
3 17.164 1357002
3 17.164 1355766
3 17.164 1354369
3 18.067 1354119
3 18.838 1354006
3 18.838 1349034
3 19.551 1346396
3 19.551 1346367
3 19.551 1343938
3 20.367 1343060
3 20.367 1340594
3 21.193 1338579
3 21.971 1336808
3 21.971 1333984
3 21.971 1329062
3 22.737 1328274
3 22.737 1327036
3 24.205 1325800
3 24.889 1324153
3 24.889 1319778
3 28.583 1528392
3 28.583 1509846
3 28.583 1501239
3 28.583 1468952
3 28.583 1464831
3 28.583 1459340
3 28.583 1452785
3 29.489 1450762
3 29.489 1437131
3 29.489 1422131
3 29.489 1415263
3 30.394 1414999
3 30.394 1413011
3 30.394 1408394
3 31.446 1408326
3 31.446 1406542
3 31.446 1401706
3 31.446 1398768
3 32.329 1397976
3 32.329 1396504
3 32.329 1394593
3 33.174 1393357
3 33.174 1390542
3 33.866 1388769
3 33.866 1388045
3 34.756 1387429
3 34.756 1384566
3 37.43 1383304
3 37.43 1382056
3 37.43 1380630
3 42.291 1417730
3 42.291 1412102
3 42.291 1409963
3 42.291 1404577
3 42.291 1403339
3 42.291 1398670
3 43.165 1398491
3 43.165 1396396
3 43.165 1390095
3 44.031 1387584
3 44.031 1386329
3 44.031 1384539
3 44.031 1384267
3 44.031 1380772
3 44.829 1380146
3 44.829 1378263
3 44.829 1376326
3 44.829 1375902
3 46.445 1373035
3 46.936 1370631
3 46.936 1369649
3 47.499 1360764
3 47.499 1357730
3 47.499 1357365
3 47.499 1357137
3 47.499 1354525
3 47.499 1353331
3 47.499 1349797
3 49.417 1346699
3 56.432 1456787
3 56.432 1432450
3 56.432 1425794
3 56.432 1415660
3 56.432 1391406
3 56.99 1385316
3 56.99 1376358
3 56.99 1373488
3 56.99 1368044
3 56.99 1361057
3 56.99 1358077
3 56.99 1348661
3 57.745 1347510
3 57.745 1347400
3 57.745 1346608
3 57.745 1346067
3 58.234 1343928
3 58.234 1343177
3 58.234 1342692
3 58.234 1340858
3 70.044 1405976
3 70.044 1398844
3 70.044 1398551
3 70.044 1390708
3 70.931 1382495
3 70.931 1380466
3 70.931 1379331
3 71.746 1376319
3 71.746 1374707
3 71.746 1373990
3 71.746 1369183
3 72.716 1367861
3 72.716 1366921
3 73.434 1366723
3 73.434 1364375
3 73.434 1363553
3 73.915 1362317
3 73.915 1362072
3 73.915 1362008
3 73.915 1361864
3 74.455 1359191
3 74.947 1357593
3 74.947 1357315
3 75.965 1355579
3 75.965 1353010
3 76.451 1352889
3 76.451 1351297
3 76.93 1347512
3 76.93 1347104
3 76.93 1346276
3 77.462 1345888
3 77.462 1345191
3 77.462 1343642
3 79.103 1342387
3 84.402 1464953
3 84.402 1427898
3 84.402 1412777
3 84.402 1402879
3 84.402 1395011
3 84.402 1392649
3 84.402 1386117
3 84.402 1380957
3 85.449 1376644
3 85.449 1374846
3 86.32 1369717
3 86.32 1369576
3 87.833 1368546
3 87.833 1364780
3 87.833 1363614
3 88.455 1363582
3 88.455 1362801
3 88.455 1361240
3 89.061 1358418
3 89.608 1356495
3 89.608 1355961
3 90.087 1350110
3 90.087 1345431
3 90.087 1343426
3 90.619 1342625
3 90.619 1342484
3 90.619 1341046
3 91.134 1340791
3 91.585 1340345
3 91.585 1339663
3 91.585 1339221
3 98.358 1460353
3 98.358 1453221
3 98.358 1451985
3 98.358 1431581
3 98.358 1426639
3 98.358 1422485
3 98.358 1420621
3 98.358 1420087
3 98.94 1419616
3 98.94 1416265
3 98.94 1403141
3 98.94 1402069
3 98.94 1401845
3 98.94 1400769
3 98.94 1389550
3 98.94 1389397
3 100.209 1388097
3 100.209 1382431
3 100.209 1377839
3 100.209 1376469
3 100.209 1374126
3 100.873 1372533
3 101.447 1364884
3 101.447 1358316
3 101.447 1357854
3 101.946 1357290
3 101.946 1356305
3 101.946 1349337
3 101.946 1345936
3 112.562 1448962
3 112.562 1422665
3 112.562 1418544
3 112.562 1417054
3 112.562 1410085
3 112.562 1409293
3 112.562 1407189
3 112.562 1406794
3 112.562 1404050
3 112.562 1392721
3 113.442 1387433
3 114.35 1383134
3 114.35 1380830
3 114.35 1380434
3 114.842 1380345
3 114.842 1379133
3 114.842 1373325
3 114.842 1373149
3 115.524 1368551
3 115.524 1368085
3 115.524 1360118
3 115.524 1359650
3 115.524 1358258
3 115.524 1356818
3 115.524 1350903
3 115.524 1350377
3 117.398 1349651
3 117.398 1346411
3 117.956 1346345
3 118.436 1343948
3 118.436 1342712
3 119.415 1342163
3 119.908 1341371
3 120.374 1341011
3 126.187 1443328
3 126.187 1440326
3 126.187 1424978
3 126.187 1399957
3 126.187 1390098
3 126.187 1377553
3 126.187 1374766
3 126.187 1371896
3 127.094 1370660
3 127.094 1356741
3 127.094 1355184
3 127.787 1354592
3 127.787 1353977
3 128.253 1347680
3 128.253 1345541
3 131.714 1345231
3 132.495 1335184
3 132.495 1334099
3 132.495 1333383
3 133.299 1332962
3 133.299 1329262
3 133.299 1319959
3 135.849 1316073
3 135.849 1315510
3 135.849 1315375
3 136.569 1315014
3 138.976 1314081
3 138.976 1312845
3 140.441 1408980
3 140.441 1406388
3 140.441 1400310
3 140.441 1396395
3 140.441 1388498
3 141.183 1382536
3 141.183 1381000
3 141.979 1375097
3 142.566 1374832
3 142.566 1372541
3 143.172 1371928
3 143.172 1369789
3 143.172 1364904
3 143.172 1360417
3 143.172 1359625
3 143.887 1357915
3 143.887 1355726
3 143.887 1353768
3 144.743 1350752
3 144.743 1350166
3 144.743 1348364
3 144.743 1348027
3 145.317 1347255
3 145.317 1343993
3 149.091 1343900
3 149.566 1335051
3 149.566 1332476
3 149.566 1330337
3 150.103 1329948
3 150.103 1328308
3 151.167 1327632
3 151.167 1326837
3 154.273 1455910
3 154.273 1450051
3 154.273 1434930
3 154.273 1428852
3 154.273 1425590
3 154.273 1424354
3 154.273 1417542
3 155.167 1410616
3 155.167 1409055
3 155.167 1407218
3 155.167 1403115
3 155.167 1395136
3 155.167 1392665
3 155.167 1388354
3 155.167 1384146
3 155.88 1380474
3 155.88 1377267
3 155.88 1375162
3 156.655 1374910
3 156.655 1374165
3 156.655 1369738
3 156.655 1369124
3 157.545 1366627
3 158.339 1366601
3 158.339 1364360
3 159.159 1363984
3 159.159 1362178
3 159.159 1360617
1 161.136 1359658
3 161.136 1358422
3 161.136 1357383
3 161.136 1356683
3 161.964 1352784
3 162.739 1352546
3 162.739 1351404
3 163.625 1350222
3 167.51 1349269
3 167.51 1341250
3 168.006 1410409
3 168.006 1408617
3 168.006 1405293
3 168.006 1399460
3 168.006 1397431
3 168.006 1396972
3 168.006 1396815
3 168.006 1393936
3 168.006 1385644
3 168.775 1385324
3 168.775 1383688
3 168.775 1382550
3 169.595 1378936
3 169.595 1371804
3 169.595 1371012
3 169.595 1370953
3 169.595 1369738
3 169.595 1369717
3 170.489 1369665
3 170.489 1368509
3 171.311 1367694
3 171.311 1362989
3 171.311 1361753
3 172.101 1360964
3 172.101 1359257
3 172.731 1357706
3 172.731 1357271
3 172.731 1352923
3 172.731 1352643
3 172.731 1352294
3 173.306 1350426
3 173.306 1350323
3 173.306 1349531
3 176.996 1347198
3 177.812 1345410
3 182.08 1411005
3 182.08 1407908
3 182.08 1390408
3 182.08 1386944
3 182.08 1383045
3 182.08 1381808
3 182.08 1379530
3 182.08 1377687
3 183.421 1377145
3 183.421 1376252
3 183.421 1375120
3 183.421 1373264
3 183.421 1372872
3 183.421 1369839
3 183.421 1367934
3 184.282 1367237
3 184.282 1366168
3 184.282 1364044
3 184.773 1362808
3 184.773 1358563
3 185.303 1356424
3 186.705 1355246
3 186.705 1353519
3 186.705 1351962
3 186.705 1346725
3 187.299 1344358
3 187.299 1340631
3 188.376 1336732
3 196.44 1434972
3 196.44 1421131
3 196.44 1415754
3 196.44 1410356
3 196.44 1406457
3 196.44 1402206
3 196.44 1394267
3 196.44 1391278
3 196.44 1385787
3 196.44 1385679
3 196.44 1383869
3 196.44 1379936
3 197.373 1373471
3 197.373 1371835
3 197.373 1367714
3 198.218 1365575
3 198.218 1364679
3 198.218 1363053
3 198.218 1362713
3 199.816 1359854
3 199.816 1352722
3 200.965 1349966
3 200.965 1348978
3 201.75 1335109
3 201.75 1329780
3 204.019 1325743
3 205.52 1324690
3 210.367 1445277
3 210.367 1417589
3 210.367 1394568
3 210.367 1388036
3 210.367 1374444
3 210.954 1373933
3 210.954 1373830
3 211.693 1371178
3 211.693 1366149
3 211.693 1364569
3 211.693 1364277
3 211.693 1361300
3 213.327 1359756
3 213.812 1358853
3 213.812 1351023
3 214.287 1348951
3 214.287 1348382
3 214.287 1347146
3 214.287 1341184
3 215.384 1336146
3 215.384 1335755
3 215.868 1335333
3 218.904 1334978
3 218.904 1333938
3 218.904 1332557
3 219.741 1326108
3 220.516 1325912
3 222.08 1324338
3 223.626 1323102
3 224.459 1474975
3 224.459 1473339
3 224.459 1471319
3 224.459 1428250
3 224.459 1411372
3 224.459 1401553
3 224.459 1401216
3 224.459 1396204
3 225.136 1390126
3 225.136 1389986
3 225.136 1383429
3 225.634 1380327
3 225.634 1379719
3 225.634 1377298
3 226.117 1376983
3 226.117 1360987
3 226.117 1360617
3 226.117 1355840
3 226.117 1354283
3 226.629 1353823
3 226.629 1353134
3 229.05 1352547
3 229.05 1348250
3 229.05 1346221
3 238.279 1450070
3 238.279 1427692
3 238.279 1423542
3 238.279 1417464
3 238.279 1415838
3 238.279 1410334
3 238.279 1409652
3 238.279 1403575
3 239.205 1400031
3 239.205 1395756
3 239.205 1393347
3 239.205 1389622
3 239.8 1385262
3 239.8 1375154
3 239.8 1373518
3 240.305 1367556
3 240.305 1361478
3 243.668 1360331
3 244.169 1359852
3 249.142 1356516
3 249.705 1352543
3 249.705 1350252
3 249.705 1347538
3 251.713 1346988
3 252.528 1469813
3 252.528 1442945
3 252.528 1440834
3 252.528 1434715
3 252.528 1413510
3 252.528 1411371
3 252.528 1411262
3 252.528 1408942
3 252.528 1395007
3 253.481 1393771
3 253.481 1388280
3 253.481 1386701
3 253.481 1380623
3 253.481 1372688
3 254.116 1370686
3 254.116 1370542
3 254.116 1368566
3 254.116 1367889
3 254.116 1364276
3 254.727 1363554
3 254.727 1359901
3 255.724 1358990
3 255.724 1354146
3 256.215 1352007
3 256.709 1349819
3 256.709 1346516
3 256.709 1345620
3 257.206 1341390
3 257.206 1341050
3 257.206 1340368
3 257.795 1335504
3 257.795 1334406
3 263.695 1333425
3 265.236 1330043
3 266.366 1513829
3 266.366 1512272
3 266.366 1489207
3 266.366 1455247
3 266.366 1453218
3 266.366 1442156
3 266.366 1433835
3 266.366 1431573
3 266.366 1430337
3 267.31 1423732
3 267.31 1419032
3 267.31 1409893
3 267.31 1407532
3 267.31 1406315
3 267.31 1395090
3 267.31 1394391
3 267.31 1389746
3 268.22 1379777
3 268.22 1377476
3 268.22 1364832
3 268.22 1361793
3 269.099 1356601
3 269.875 1353924
3 270.422 1352363
3 270.422 1349238
3 270.422 1349101
3 270.94 1345202
3 271.425 1344421
3 280.28 1446355
3 280.28 1433957
3 280.28 1427995
3 280.28 1427407
3 280.28 1421544
3 280.28 1421329
3 280.28 1409998
3 280.902 1409497
3 280.902 1406521
3 280.902 1397607
3 281.408 1396291
3 281.408 1379900
3 281.408 1376369
3 281.408 1373622
3 281.954 1373421
3 281.954 1369635
3 281.954 1368723
3 283.739 1365275
3 285.147 1363578
3 285.147 1360301
3 286.157 1349709
3 290.843 1349692
3 290.843 1348456
3 290.843 1347758
3 294.231 1453085
3 294.231 1430171
3 294.231 1422022
3 294.231 1421757
3 294.231 1399879
3 294.231 1383172
3 294.866 1378116
3 294.866 1376480
3 295.725 1371904
3 295.725 1366762
3 295.725 1366027
3 296.461 1365119
3 296.461 1360288
3 296.967 1359529
3 296.967 1356027
3 296.967 1355991
3 300.136 1354365
3 302.468 1354297
3 302.468 1353061
3 302.468 1350545
3 302.973 1347219
3 302.973 1341239
3 303.507 1340778
3 305.787 1339974
3 307.136 1336360
3 308.576 1451519
3 308.576 1441261
3 308.576 1435299
3 308.576 1430419
3 308.576 1398226
3 308.576 1392237
3 308.576 1387263
3 308.576 1386471
3 309.225 1380025
3 309.225 1371974
3 309.225 1369945
3 309.225 1367903
3 309.225 1367806
3 309.767 1363471
3 309.767 1361290
3 309.767 1360513
3 309.767 1356604
3 310.268 1353969
3 310.756 1352933
3 311.272 1350829
3 311.272 1350147
3 311.272 1347399
3 311.272 1344875
3 311.272 1344137
3 311.946 1340434
3 312.41 1339884
3 313.858 1336278
3 315.91 1334543
3 315.91 1333732
3 316.395 1330534
3 316.887 1326686
3 317.346 1326516
3 317.346 1326413
3 322.5 1403894
3 322.5 1402150
3 322.5 1397966
3 322.5 1397743
3 323.231 1395604
3 323.231 1381464
3 323.868 1379212
3 323.868 1372711
3 324.432 1363466
3 324.432 1362454
3 324.432 1357692
3 325.777 1357455
3 325.777 1356051
3 325.777 1353515
3 326.278 1352843
3 326.736 1350963
3 326.736 1350961
3 326.736 1350137
3 327.896 1348398
3 327.896 1347463
3 327.896 1346037
3 327.896 1345324
3 328.717 1345213
3 329.5 1344997
3 331.286 1344595
3 331.286 1342790
3 331.84 1341554
3 336.107 1495574
3 336.107 1452337
3 336.107 1451638
3 336.107 1449185
3 336.107 1438378
3 336.107 1436752
3 336.675 1416508
3 336.675 1412397
3 336.675 1410377
3 336.675 1407768
3 336.675 1403552
3 336.675 1391246
3 336.675 1387908
3 337.292 1385365
3 337.292 1376637
3 337.292 1365598
3 337.97 1364901
3 337.97 1364792
3 337.97 1364238
3 338.606 1364147
3 339.195 1356968
3 339.195 1355540
3 339.676 1352338
3 341.686 1349802
3 341.686 1349667
3 342.458 1347716
3 342.458 1347698
3 343.284 1347558
3 343.284 1346648
3 343.284 1346121
3 343.284 1345741
3 346.786 1345412
3 347.506 1345211
3 347.506 1343182
3 348.143 1343076
3 348.143 1342554
3 348.143 1341528
3 348.662 1340521
3 349.126 1338960
3 350.027 1417191
3 350.027 1403669
3 350.027 1402402
3 350.027 1402093
3 350.027 1398921
3 350.027 1398642
3 350.027 1391510
3 350.579 1389183
3 350.579 1387508
3 350.579 1378353
3 350.579 1377403
3 350.579 1376497
3 350.579 1376365
3 350.579 1376216
3 350.579 1367378
3 350.579 1365641
3 351.223 1362498
3 351.223 1357635
3 351.768 1356707
3 351.768 1354798
3 351.768 1350170
3 351.768 1347394
3 351.768 1347286
3 352.323 1344901
3 352.78 1344747
3 353.244 1343918
3 353.244 1342082
3 353.244 1341380
3 353.728 1339192
3 354.2 1337755
3 354.2 1337163
3 354.932 1336180
3 354.932 1334988
3 354.932 1334532
3 364.489 1438000
3 364.489 1434101
3 364.489 1424932
3 364.489 1410882
3 364.489 1405277
3 364.489 1401146
3 364.489 1395209
3 364.489 1392614
3 364.489 1388925
3 364.489 1385265
3 365.235 1379203
3 365.235 1373125
3 365.235 1364528
3 365.235 1358632
3 365.235 1357840
3 365.235 1356837
3 365.751 1356011
3 365.751 1355548
3 366.708 1353802
3 368.287 1351037
3 374.947 1347749
3 378.208 1493550
3 378.208 1467195
3 378.208 1466513
3 378.208 1460551
3 378.208 1418068
3 378.208 1409665
3 378.208 1408029
3 378.208 1400630
3 378.208 1400416
3 378.88 1399109
3 378.88 1391326
3 378.88 1390322
3 379.65 1389752
3 379.65 1387794
3 379.65 1383895
3 379.65 1382362
3 380.494 1381806
3 380.494 1380223
3 380.494 1378802
3 381.324 1376607
3 381.324 1368462
3 381.957 1367395
3 381.957 1366071
3 381.957 1364666
3 383.177 1362002
3 383.177 1358849
3 383.177 1358588
3 383.716 1355898
3 384.209 1352147
3 392.03 1438691
3 392.03 1431646
3 392.03 1396782
3 392.03 1385156
3 392.03 1381257
3 392.979 1378640
3 392.979 1376906
3 392.979 1376803
3 393.794 1374866
3 394.576 1373547
3 394.576 1372768
3 394.576 1365457
3 395.423 1365324
3 396.203 1362094
3 396.203 1361294
3 396.203 1358863
3 396.203 1358575
3 396.203 1357532
3 396.861 1355753
3 396.861 1352395
3 396.861 1351570
3 403.211 1351467
3 406.425 1447656
3 406.425 1442293
3 406.425 1440570
3 406.425 1437692
3 406.425 1419336
3 406.425 1417160
3 406.425 1410516
3 406.425 1408999
3 406.425 1408370
3 406.425 1403396
3 407.07 1400134
3 407.07 1397552
3 407.553 1396694
3 407.553 1394238
3 407.553 1374704
3 408.555 1374098
3 408.555 1373549
3 408.555 1372313
3 409.522 1366537
3 409.522 1358125
3 410.057 1357938
3 412.512 1348758
3 412.512 1348030
3 413.309 1347717
3 413.884 1345767
3 413.884 1344975
3 413.884 1344304
3 414.882 1343991
3 414.882 1342823
3 414.882 1342092
3 415.706 1340475
3 415.706 1339689
3 415.706 1339572
3 416.512 1334712
3 417.423 1334498
3 417.423 1333706
3 417.423 1333469
3 418.396 1333224
3 418.855 1331330
3 420.283 1397520
3 420.283 1394387
3 420.283 1391210
3 420.283 1383380
3 421.079 1382316
3 421.886 1379877
3 421.886 1375756
3 421.886 1375606
3 422.73 1373467
3 422.73 1369568
3 425.384 1367951
3 425.384 1367894
3 425.384 1362518
3 425.384 1362492
3 425.909 1361274
3 426.388 1355222
3 426.388 1352191
3 426.388 1351384
3 426.902 1350955
3 427.91 1346084
3 427.91 1343503
3 429.455 1342731
3 433.587 1335248
3 434.124 1450396
3 434.124 1432744
3 434.124 1424538
3 434.124 1413975
3 434.124 1407897
3 434.124 1400765
3 434.124 1399092
3 434.124 1394117
3 434.124 1383336
3 435.043 1380761
3 435.043 1380136
3 435.043 1379837
3 435.862 1378387
3 435.862 1373268
3 435.862 1371958
3 436.697 1369843
3 437.495 1365944
3 437.495 1362008
3 439.009 1357887
3 440.05 1352881
3 440.05 1351645
3 440.05 1344537
3 441.04 1343870
3 448.084 1447612
3 448.084 1436278
3 448.084 1410669
3 448.084 1409107
3 448.084 1407158
3 448.084 1405601
3 448.084 1401350
3 448.084 1399724
3 448.084 1388062
3 448.084 1379050
3 448.084 1370171
3 448.755 1367206
3 448.755 1366411
3 449.728 1359062
3 449.728 1353576
3 449.728 1353166
3 450.233 1347164
3 450.818 1346325
3 450.818 1344064
3 462.335 1443057
3 462.335 1431560
3 462.335 1412530
3 462.335 1408837
3 462.335 1405043
3 462.335 1400139
3 462.335 1387586
3 462.893 1386252
3 462.893 1381279
3 462.893 1380853
3 462.893 1378133
3 462.893 1374234
3 462.893 1373464
3 462.893 1371150
3 462.893 1369788
3 463.52 1368507
3 464.007 1365191
3 464.007 1353811
3 464.007 1352575
3 464.007 1350920
3 464.585 1346505
3 464.585 1344366
3 465.074 1341592
3 465.074 1341282
3 465.074 1339355
3 465.597 1336307
3 468.486 1335157
3 472.381 1334618
3 472.381 1333030
3 473.3 1332667
3 476.366 1479735
3 476.366 1479018
3 476.366 1465928
3 476.366 1463908
3 476.366 1449394
3 476.366 1437588
3 476.366 1422540
3 476.366 1415879
3 476.366 1415087
3 477.339 1414257
3 477.339 1395612
3 477.339 1384904
3 477.339 1381642
3 477.339 1376883
3 478.169 1376687
3 479.033 1369808
3 479.671 1368688
3 480.146 1368138
3 480.146 1366109
3 480.828 1363880
3 482.379 1358252
3 483.731 1356113
3 485.949 1352033
3 487.84 1351616
3 487.84 1345654
3 488.756 1344418
3 490.266 1493143
3 490.266 1481806
3 490.266 1480170
3 490.266 1443115
3 490.266 1424825
3 490.266 1414656
3 490.266 1408084
3 490.266 1404366
3 491.211 1403525
3 491.211 1394439
3 491.211 1394377
3 491.211 1388777
3 491.211 1386547
3 492.107 1378783
3 492.107 1378481
3 492.107 1378016
3 492.737 1374117
3 492.737 1368483
3 493.214 1363705
3 493.688 1358286
3 493.688 1356992
3 495.04 1356725
3 495.04 1355702
3 495.04 1352186
3 495.58 1351935
3 496.117 1351906
3 496.946 1349808
3 496.946 1347817
3 496.946 1347398
3 496.946 1344136
3 497.761 1342462
3 500.081 1341495
3 504.053 1506074
3 504.053 1480568
3 504.053 1476949
3 504.053 1471754
3 504.053 1468919
3 504.053 1452305
3 504.053 1432790
3 504.633 1429528
3 504.633 1427967
3 504.633 1424068
3 504.633 1416520
3 504.633 1409388
3 504.633 1408239
3 504.633 1403477
3 504.633 1401842
3 504.633 1396548
3 505.273 1394112
3 505.273 1389184
3 505.273 1384981
3 505.273 1372645
3 505.776 1368825
3 505.776 1367247
3 506.495 1366011
3 506.495 1364181
3 508.887 1362472
3 508.887 1361975
3 508.887 1360245
3 514.046 1359226
3 517.781 1358748
3 518.262 1450524
3 518.262 1436707
3 518.262 1433360
1 518.262 1420268
3 518.262 1413680
3 518.262 1407239
3 518.262 1399878
3 518.262 1393867
3 518.896 1389361
3 519.778 1380508
3 519.778 1377901
3 520.766 1373246
3 520.766 1371818
3 522.067 1371425
3 522.067 1370452
3 522.597 1366589
3 523.199 1363969
3 523.199 1359848
3 524.007 1354874
3 524.007 1351205
3 524.813 1349969
3 525.302 1348990
3 525.302 1345949
3 531.903 1344561
3 532.694 1491589
3 532.694 1477626
3 532.694 1477523
3 532.694 1457084
3 533.547 1451006
3 533.547 1448977
3 533.547 1447741
3 533.547 1446841
3 533.547 1441308
3 533.547 1438947
3 533.547 1432666
3 533.547 1430582
3 534.442 1421884
3 534.442 1417805
3 534.442 1415872
3 534.442 1415080
3 534.442 1410161
3 535.232 1409554
3 535.232 1409079
3 535.232 1407525
3 535.232 1405386
3 535.734 1403716
3 535.734 1401173
3 535.734 1390237
3 535.734 1389873
3 535.734 1385974
3 535.734 1385182
3 535.734 1385167
3 536.285 1384885
3 536.285 1383672
3 536.771 1382258
3 536.771 1381381
3 536.771 1376179
3 537.353 1372832
3 537.353 1369315
3 538.16 1367462
3 538.16 1362085
3 539.767 1359154
3 539.767 1358362
3 539.767 1355563
3 539.767 1352400
3 539.767 1352098
3 546.224 1478814
3 546.224 1472368
3 546.224 1463824
3 546.224 1449764
3 546.224 1407807
3 546.224 1406553
3 546.224 1403212
3 546.997 1401729
3 546.997 1398356
3 546.997 1397674
3 546.997 1386419
3 546.997 1382958
3 546.997 1381862
3 546.997 1380341
3 547.541 1378928
3 547.541 1368698
3 548.071 1366559
3 548.071 1357124
3 548.548 1353024
3 548.548 1350995
3 560.414 1479827
3 560.414 1459771
3 560.414 1447142
3 560.414 1446425
3 560.414 1416548
3 560.414 1415312
3 561.022 1409928
3 561.022 1385083
3 561.52 1381653
3 561.52 1371075
3 561.52 1369162
3 561.52 1364479
3 562.032 1362724
3 562.032 1362246
3 562.52 1360333
3 562.52 1359680
3 563.023 1358232
3 563.023 1353718
3 563.614 1348227
3 564.757 1347784
3 565.54 1347168
3 573.196 1346161
3 573.196 1344316
3 574.029 1513491
3 574.029 1494251
3 574.029 1481002
3 574.029 1437779
3 574.029 1426244
3 574.029 1424970
3 574.029 1423242
3 574.961 1417751
3 574.961 1415323
3 574.961 1414488
3 575.843 1411983
3 575.843 1406488
3 575.843 1403333
3 575.843 1393168
3 575.843 1388827
3 575.843 1388738
3 575.843 1385498
3 576.715 1384093
3 576.715 1376460
3 576.715 1374321
3 576.715 1372146
3 577.316 1371834
3 577.316 1371651
3 577.316 1371583
3 577.83 1370867
3 577.83 1366817
3 578.334 1350999
3 578.334 1350534
3 578.889 1349748
3 578.889 1348677
3 578.889 1344741
3 578.889 1343505
3 579.444 1342677
3 579.929 1341244
3 580.4 1340672
3 580.4 1340008
3 580.4 1338727
3 585.045 1337138
3 585.518 1336277
3 588.328 1456381
3 588.328 1454745
3 588.328 1445149
3 588.328 1438470
3 588.328 1422813
3 588.328 1406520
3 588.328 1400322
3 588.885 1399921
3 588.885 1397782
3 588.885 1396286
3 588.885 1394937
3 588.885 1383485
3 588.885 1379456
3 588.885 1377000
3 588.885 1374814
3 589.446 1373507
3 589.446 1373399
3 589.446 1370324
3 589.446 1369828
3 589.446 1368020
3 589.969 1365686
3 590.438 1364581
3 590.438 1363326
3 591.03 1358325
3 591.508 1353943
3 591.508 1353321
3 591.508 1350592
3 592.026 1348563
3 592.482 1348493
3 594.837 1348374
3 596.099 1347344
3 596.869 1347182
3 598.44 1346235
3 598.44 1344536
3 599.26 1343018
3 599.26 1342815
3 599.26 1337916
3 599.26 1337608
3 601.398 1333832
3 601.863 1333723
3 602.373 1450244
3 602.373 1445952
3 602.373 1444120
3 602.373 1442884
3 602.373 1436443
3 602.373 1435761
3 602.373 1433622
3 602.373 1433434
3 602.373 1432598
3 602.373 1430172
3 602.373 1413386
3 602.373 1411371
3 602.373 1383977
3 603.109 1376989
3 603.109 1372838
3 603.109 1355015
3 603.613 1351527
3 603.613 1348026
3 604.085 1347122
3 604.085 1345565
3 605.965 1345173
3 612.301 1343374
3 612.896 1343041
3 612.896 1342189
3 613.825 1341245
3 614.495 1340782
3 615.864 1340521
3 616.395 1455601
3 616.395 1455498
3 616.395 1429992
3 616.395 1425871
3 616.395 1418924
3 616.395 1412962
3 616.395 1412245
3 617.009 1403623
3 617.009 1393549
3 617.847 1391616
3 618.685 1391390
3 618.685 1389144
3 618.685 1386410
3 619.505 1384818
3 619.505 1382570
3 619.505 1380315
3 619.505 1371791
3 620.323 1365607
3 621.456 1363359
3 621.922 1361671
3 621.922 1359423
3 622.404 1357901
3 622.404 1357674
3 622.87 1356117
3 630.499 1439358
3 630.499 1416502
3 630.499 1416189
3 630.499 1401098
3 630.499 1390868
3 630.499 1384427
3 630.499 1381134
3 630.499 1378485
3 631.457 1372865
3 631.457 1371615
3 638.9 1367499
3 642.338 1360190
3 642.338 1358921
3 642.823 1357229
3 644.281 1394116
3 644.281 1389308
3 644.281 1387927
3 644.281 1387033
3 644.281 1386661
3 644.98 1383544
3 644.98 1379189
3 644.98 1360425
3 644.98 1359948
3 645.971 1357275
3 646.502 1353234
3 647.018 1350166
3 647.5 1348335
3 647.5 1347156
3 647.5 1346041
3 647.5 1343220
3 647.5 1342805
3 647.5 1336506
3 648.532 1336312
3 648.532 1335706
3 648.532 1333914
3 648.532 1332547
3 649.274 1330834
3 649.274 1329126
3 649.274 1329073
3 649.989 1328736
3 650.46 1328682
3 651.023 1328255
3 651.023 1328223
3 651.023 1328001
3 651.511 1327385
3 653.555 1325484
3 654.03 1325361
3 658.22 1414912
3 658.22 1413710
3 658.22 1410044
3 658.22 1409001
3 658.22 1408514
3 658.22 1403672
3 659.136 1394374
3 659.136 1389508
3 659.136 1387062
3 659.968 1383954
3 659.968 1381934
3 659.968 1380387
3 660.827 1378720
3 660.827 1378035
3 660.827 1378025
3 660.827 1373914
3 660.827 1372684
3 661.678 1372007
3 661.678 1370404
3 662.461 1369279
3 663.249 1357221
3 663.249 1355076
3 663.249 1352013
3 663.249 1349042
3 663.249 1345751
3 663.249 1343612
3 664.113 1341989
3 664.113 1340350
3 664.113 1339114
3 664.877 1338211
3 665.345 1337820
3 665.824 1337758
3 665.824 1336184
3 672.661 1420747
3 672.661 1412408
3 672.661 1408948
3 672.661 1405686
3 672.661 1395313
3 673.329 1392757
3 673.329 1390518
3 673.329 1388379
3 673.822 1386438
3 673.822 1384200
3 673.822 1379532
3 673.822 1379507
3 673.822 1378715
3 673.822 1375453
3 674.41 1373683
3 674.41 1372303
3 674.41 1369713
3 674.41 1360470
3 674.41 1356349
3 674.959 1352245
3 674.959 1350453
3 675.765 1346874
3 675.765 1341066
3 678.003 1337509
3 678.566 1337167
3 678.566 1335954
3 680.15 1335606
3 683.588 1334424
3 684.141 1333397
3 684.141 1332484
3 684.987 1331707
3 685.808 1330668
3 686.461 1430907
3 686.461 1418251
3 686.461 1413308
3 686.461 1399966
3 686.461 1393496
3 686.461 1387802
3 686.461 1381388
3 687.049 1379884
3 687.049 1373518
3 687.049 1372134
3 687.049 1363774
3 687.049 1363581
3 687.586 1360237
3 687.586 1360178
3 687.586 1358676
3 687.586 1358392
3 687.586 1356168
3 687.586 1354691
3 688.175 1354324
3 688.175 1353794
3 688.642 1350286
3 688.642 1349643
3 688.642 1349012
3 689.134 1348429
3 689.134 1347193
3 700.699 1485153
3 700.699 1448098
3 700.699 1446008
3 700.699 1432068
3 700.699 1408538
3 700.699 1407821
3 700.699 1403766
3 700.699 1395636
3 701.436 1381932
3 701.436 1381730
3 701.436 1374598
3 702.067 1362124
3 702.067 1360095
3 702.067 1359721
3 702.067 1357312
3 702.699 1356503
3 702.699 1351821
3 702.699 1350541
3 702.699 1348402
3 703.377 1347166
3 703.377 1343272
3 703.981 1342413
3 703.981 1340510
3 703.981 1340225
3 704.61 1339412
3 704.61 1338511
3 704.61 1335061
3 704.61 1331760
3 705.229 1331183
3 705.229 1329008
3 705.229 1325843
3 705.755 1321862
3 714.623 1479837
3 714.623 1460597
3 714.623 1430947
3 714.623 1415575
3 714.623 1413546
3 714.623 1409446
3 714.623 1408889
3 714.623 1404995
3 714.623 1398345
3 714.623 1396322
3 715.448 1395303
3 715.448 1393456
3 715.448 1384831
3 715.94 1358844
3 715.94 1358039
3 715.94 1357335
3 715.94 1357283
3 716.439 1355352
3 716.439 1353487
3 716.439 1350114
3 717.107 1347245
3 717.107 1346017
3 717.858 1345860
3 717.858 1345292
3 717.858 1342078
3 718.377 1340615
3 718.377 1340523
3 718.839 1338246
3 718.839 1337570
3 718.839 1336793
3 718.839 1335854
3 719.864 1335407
3 719.864 1334320
3 720.817 1333605
3 720.817 1332766
3 720.817 1332759
3 720.817 1329710
3 721.375 1329477
3 721.375 1327535
3 728.537 1443799
3 728.537 1435536
3 728.537 1433595
3 728.537 1428565
3 728.537 1418347
3 728.537 1416711
3 729.234 1409248
3 729.234 1404743
3 729.234 1404183
3 729.234 1401892
3 729.234 1400266
3 729.234 1399964
3 729.769 1397825
3 729.769 1391747
3 729.769 1388616
3 729.769 1375795
3 729.769 1369644
3 729.769 1366360
3 730.555 1363391
3 731.066 1352060
3 731.583 1351417
3 732.079 1348915
3 732.079 1348650
3 734.025 1347068
3 734.025 1342947
3 742.307 1419732
3 742.307 1419424
3 742.307 1418834
3 742.307 1412309
3 742.307 1405901
3 742.862 1398417
3 742.862 1390472
3 742.862 1389973
3 742.862 1388416
3 742.862 1382928
3 743.755 1381860
3 743.755 1375351
3 743.755 1373322
3 746.238 1372089
3 746.807 1368638
3 747.566 1364584
3 747.566 1363482
3 747.566 1363440
3 748.336 1362852
3 748.807 1361353
3 748.807 1359553
3 748.807 1356111
3 752.201 1354449
3 752.201 1354082
3 756.601 1424640
3 756.601 1419196
3 756.601 1414942
3 756.601 1413537
3 756.601 1410231
3 756.601 1407424
3 757.563 1406769
3 757.563 1405128
3 757.563 1403957
3 757.563 1396866
3 757.563 1385030
3 758.281 1378619
3 758.281 1366351
3 758.762 1366000
3 758.762 1363733
3 759.284 1362107
3 760.221 1361654
3 760.221 1359785
3 760.754 1358149
3 760.754 1357255
3 761.236 1353115
3 761.746 1348837
3 762.29 1348632
3 765.444 1348358
3 765.444 1342514
3 769.35 1341838
3 769.35 1341388
3 769.35 1338926
3 770.066 1405048
3 770.066 1399653
3 770.066 1384559
3 770.066 1369609
3 770.066 1369002
3 770.066 1367115
3 770.595 1362983
3 770.595 1362449
3 770.595 1361084
3 770.595 1359448
3 770.595 1357964
3 770.595 1357783
3 771.157 1356512
3 771.157 1356287
3 771.637 1343770
3 771.637 1341061
3 772.142 1341002
3 772.682 1340218
3 772.682 1339500
3 773.17 1337291
3 773.17 1330877
3 774.635 1330331
3 775.309 1329606
3 776.07 1329477
3 776.838 1328960
3 784.628 1488622
3 784.628 1475843
3 784.628 1443915
3 784.628 1434805
3 784.628 1425700
3 784.628 1422781
3 784.628 1406606
3 784.628 1399838
3 784.628 1397534
3 785.456 1396671
3 785.456 1385400
3 785.456 1378649
3 785.972 1377424
3 785.972 1376107
3 785.972 1368870
3 785.972 1366606
3 785.972 1364409
3 786.865 1363941
3 786.865 1362543
3 786.865 1360060
3 786.865 1359117
3 788.454 1357921
3 788.454 1357611
3 788.454 1357479
3 789.313 1356603
3 789.313 1356488
3 789.313 1353031
3 790.127 1346557
3 790.914 1341593
3 791.732 1340357
3 792.541 1339337
3 798.407 1492047
3 798.407 1486085
3 798.407 1480007
3 798.407 1460335
3 798.407 1457073
3 798.407 1444629
3 798.407 1429258
3 798.407 1406219
3 798.407 1405620
3 798.407 1394395
3 798.407 1392453
3 798.407 1390763
3 798.407 1390074
3 799.138 1382091
3 799.138 1379349
3 799.138 1373941
3 799.138 1371450
3 799.138 1369889
3 799.138 1368890
3 799.675 1367333
3 799.675 1365515
3 799.675 1365199
3 800.234 1360503
3 800.234 1358346
3 800.234 1357664
3 800.839 1351702
3 800.839 1350933
3 801.668 1348017
3 801.668 1347084
3 802.473 1346319
3 812.4 1468095
3 812.4 1419879
3 812.4 1409474
3 812.4 1403933
3 812.4 1400801
3 812.4 1398141
3 812.4 1391700
3 812.4 1385939
3 812.4 1384568
3 812.4 1379634
3 812.4 1377202
3 813.007 1374842
3 813.007 1370666
3 813.007 1365732
3 813.007 1364199
3 813.007 1362752
3 813.007 1361560
3 813.549 1360324
3 814.659 1354820
3 814.659 1354028
3 815.464 1347587
3 815.464 1346669
3 817.573 1344362
3 826.085 1436724
3 826.085 1430646
3 826.085 1412690
3 826.085 1403255
3 826.085 1399090
3 826.085 1398373
3 826.085 1391609
3 826.085 1387557
3 826.683 1387488
3 826.683 1386276
3 826.683 1385349
3 826.683 1382080
3 826.683 1378818
3 827.215 1374407
3 827.215 1366418
3 827.215 1358588
3 827.755 1356839
3 827.755 1352788
3 827.755 1350863
3 828.734 1348950
3 828.734 1344785
3 833.479 1342189
3 834.171 1340808
3 834.171 1340733
3 834.171 1339570
3 834.645 1333372
3 835.133 1332896
3 839.409 1332072
3 840.217 1464651
3 840.217 1455253
3 840.217 1444910
3 840.217 1439312
3 840.217 1436652
3 840.217 1426394
3 840.217 1425158
3 840.217 1423209
3 840.217 1418158
3 841.159 1402015
3 841.159 1396683
3 841.159 1390242
3 842.189 1387240
3 842.189 1386459
3 842.996 1385887
3 843.828 1385317
3 843.828 1379446
3 844.663 1375563
3 845.44 1374315
3 847.674 1372030
3 848.152 1371855
3 848.152 1369950
3 848.708 1368383
3 849.665 1364573
3 850.624 1362892
3 854.472 1485683
3 854.472 1478045
3 854.472 1477942
3 854.472 1473828
3 854.472 1442469
3 854.472 1432603
3 854.472 1431367
3 855.153 1420092
3 855.153 1419410
3 855.153 1410369
3 855.153 1407130
3 855.153 1401168
3 855.153 1395887
3 855.153 1395779
3 855.713 1390135
3 855.713 1385000
3 855.713 1383039
3 855.713 1381727
3 855.713 1380491
3 855.713 1373932
3 855.713 1372397
3 856.367 1370368
3 857.18 1368739
3 857.18 1367503
3 857.18 1364616
3 858.043 1364342
3 858.043 1363982
3 858.043 1361880
3 858.811 1361108
3 858.811 1356982
3 858.811 1355735
3 859.325 1353273
3 859.325 1351836
3 861.535 1349468
3 861.535 1347439
3 862.359 1346203
3 868.705 1488992
3 868.705 1469752
3 868.705 1440199
3 868.705 1437552
3 868.705 1433686
3 868.705 1415730
3 868.705 1415048
3 868.705 1414542
3 869.6 1407410
3 869.6 1406629
3 869.6 1403518
3 869.6 1398746
3 869.6 1392837
3 869.6 1389005
3 869.6 1384891
3 870.368 1382928
3 870.368 1381551
3 870.368 1380315
3 870.368 1380085
3 870.368 1375379
3 870.368 1374237
3 871.412 1369438
3 871.412 1365432
3 871.895 1363402
3 872.382 1361776
3 872.382 1361647
3 873.627 1357711
3 873.627 1353338
3 874.239 1352220
3 874.704 1348099
3 877.411 1347354
3 877.411 1342846
3 878.586 1340581
3 879.129 1340264
3 879.129 1338814
3 880.676 1338714
3 881.603 1337397
3 882.451 1450030
3 882.451 1441889
3 882.451 1440653
3 882.451 1431453
3 883.206 1422991
3 883.206 1422199
3 883.706 1411941
3 884.199 1410947
3 884.747 1396911
3 884.747 1396119
3 884.747 1395613
3 884.747 1395305
3 884.747 1395199
3 885.81 1391672
3 885.81 1390036
3 885.81 1384536
3 886.294 1382559
3 886.294 1380184
3 886.294 1375169
3 887.089 1375157
3 887.692 1373903
3 887.692 1371134
3 887.692 1369525
3 895.922 1367070
3 896.423 1436608
3 896.423 1430408
3 896.423 1414224
3 896.423 1413919
3 896.423 1412452
3 896.423 1404440
3 896.993 1401656
3 896.993 1395405
3 896.993 1395336
3 896.993 1390613
3 896.993 1389119
3 896.993 1386551
3 897.52 1386410
3 897.995 1382693
3 897.995 1378309
3 897.995 1377505
3 897.995 1375542
3 897.995 1372989
3 898.503 1371555
3 898.503 1368038
3 898.503 1365659
3 898.503 1358633
3 898.503 1357841
3 901.395 1357836
3 901.395 1357727
3 902.83 1355588
3 903.737 1352530
3 905.852 1352137
3 906.427 1351042
3 906.427 1349520
3 910.173 1467678
3 910.173 1465539
3 910.173 1462815
3 910.173 1450925
3 910.173 1446840
3 910.173 1425558
3 910.173 1420181
3 910.173 1419400
3 910.797 1415501
3 910.797 1409628
3 910.797 1407010
3 910.797 1392250
3 912.469 1389349
3 912.469 1388726
3 913.446 1388622
3 913.446 1386853
3 913.446 1385636
3 913.446 1383285
3 914.441 1383077
3 915.093 1382285
3 915.604 1380607
3 915.604 1371130
3 915.604 1368587
3 915.604 1367331
3 916.115 1366093
3 916.115 1365677
3 916.115 1364545
3 916.607 1361972
3 916.607 1361954
3 916.607 1359029
3 916.607 1357793
3 917.105 1355008
3 918.057 1354839
3 919.605 1353603
3 919.605 1351714
3 924.296 1428614
3 924.296 1426320
3 924.296 1424431
3 924.296 1420867
3 924.296 1413793
3 924.296 1407178
3 924.296 1404563
3 924.989 1401599
3 924.989 1396513
3 924.989 1395997
3 924.989 1393968
3 924.989 1393162
3 924.989 1385801
3 924.989 1381213
3 925.662 1370183
3 926.312 1366092
3 926.312 1363496
3 926.312 1360014
3 926.844 1358658
3 927.435 1352696
3 927.435 1351913
3 929.306 1350287
3 938.025 1416935
3 938.025 1389746
3 938.025 1379852
3 938.025 1377970
3 938.025 1374103
3 938.025 1373767
3 938.899 1372820
3 938.899 1371259
3 938.899 1364999
3 938.899 1357963
3 939.555 1353835
3 939.555 1350706
3 940.189 1349894
3 940.189 1348824
3 940.189 1348025
3 940.189 1348013
3 940.809 1347628
3 941.382 1346859
3 942.037 1345851
3 951.704 1344894
3 952.194 1414469
3 952.194 1412330
3 952.194 1408903
3 952.194 1407575
3 952.194 1404475
3 952.194 1401389
3 952.194 1398105
3 952.742 1396121
3 952.742 1392608
3 952.742 1390732
3 952.742 1388536
3 953.344 1387758
3 953.344 1385597
3 953.344 1384592
3 953.344 1380354
3 954.187 1379750
3 954.187 1379174
3 954.187 1371977
3 954.187 1366619
3 955.703 1365929
3 955.703 1359710
3 955.703 1358986
3 956.207 1358505
3 956.207 1357480
3 956.705 1357403
3 957.188 1356837
3 957.188 1354740
3 957.188 1350575
3 957.691 1349893
3 958.171 1344344
3 958.635 1343552
3 958.635 1342072
3 958.635 1338459
3 959.167 1338136
3 959.635 1336113
3 960.105 1334642
3 960.105 1331987
3 960.105 1331220
3 960.105 1331117
3 966.157 1465850
3 966.157 1447287
1 966.157 1446177
3 966.157 1445956
3 966.157 1427165
3 966.157 1421843
3 966.157 1420607
3 967.174 1419255
3 967.174 1414781
3 968.02 1403917
3 969.041 1401778
3 969.041 1388194
3 969.041 1381062
3 969.041 1376663
3 969.041 1360491
3 969.041 1360297
3 970.67 1358892
3 971.86 1357747
3 972.36 1357644
3 972.36 1356852
3 972.859 1355079
3 980.162 1451144
3 980.162 1448420
3 980.162 1444221
3 980.162 1442288
3 980.162 1439247
3 980.162 1430991
3 980.162 1430199
3 980.162 1425186
3 980.162 1420167
3 980.162 1410001
3 980.79 1406532
3 980.79 1405823
3 980.79 1402151
3 980.79 1400835
3 980.79 1396430
3 981.325 1396013
3 981.325 1390468
3 981.325 1388724
3 981.325 1385346
3 982.101 1384603
3 982.101 1384565
3 982.101 1384369
3 982.101 1376870
3 982.681 1376103
3 982.681 1372204
3 983.42 1370363
3 983.42 1366308
3 983.42 1358947
3 985 1356452
3 985.578 1353909
3 985.578 1350041
3 985.578 1349049
3 986.213 1348946
3 986.68 1347997
3 986.68 1346761
3 987.184 1346142
3 991.104 1344195
3 991.104 1341459
3 991.887 1338169
3 991.887 1337676
3 991.887 1337291
3 991.887 1337250
3 992.692 1336458
3 994.28 1510910
3 994.28 1492364
3 994.28 1490728
3 994.28 1462269
3 994.28 1442634
3 994.28 1420750
3 994.28 1414821
3 994.28 1413585
3 994.28 1411949
3 995.24 1396564
3 995.24 1395804
3 995.24 1394820
3 995.24 1390602
3 995.24 1389897
3 996.082 1385628
3 996.082 1375685
3 996.082 1373727
3 996.894 1370552
3 996.894 1366645
3 997.689 1360529
3 997.689 1360187
3 997.689 1358951
3 997.689 1358864
3 998.835 1358446
3 998.835 1358064
3 998.835 1355689
3 999.717 1354519
3 999.717 1353261
3 1000.52 1353259
3 1000.52 1349080
3 1000.52 1340270
3 1003.65 1339405
3 1004.13 1336371
3 1008.5 1450537
3 1008.5 1414553
3 1008.5 1401745
3 1008.5 1398455
3 1008.5 1397663
3 1008.5 1383174
3 1008.5 1378519
3 1009.52 1377362
3 1010.4 1376605
3 1010.4 1374898
3 1011 1373359
3 1011 1373197
3 1011.49 1371058
3 1012.31 1369784
3 1012.31 1369665
3 1012.31 1364771
3 1013.13 1363732
3 1013.13 1361933
3 1013.13 1358403
3 1013.94 1354572
3 1013.94 1354083
3 1013.94 1351862
3 1015.53 1351643
3 1016.01 1349504
3 1022.02 1463586
3 1022.02 1445382
3 1022.02 1441702
3 1022.02 1414409
3 1022.02 1396531
3 1022.02 1393571
3 1022.02 1392075
3 1022.02 1387687
3 1022.02 1385758
3 1022.02 1384996
3 1023.12 1381570
3 1023.12 1376305
3 1023.12 1370945
3 1023.12 1360462
3 1023.12 1359226
3 1023.65 1356785
3 1023.65 1356682
3 1024.23 1352603
3 1024.23 1350619
3 1025.87 1348569
3 1026.67 1343708
3 1026.67 1339549
3 1027.48 1338734
3 1028.23 1338313
3 1029.18 1337641
3 1029.74 1337371
3 1029.74 1335474
3 1029.74 1333913
3 1030.63 1333844
3 1030.63 1333448
3 1036.05 1472100
3 1036.05 1444401
3 1036.05 1443443
3 1036.05 1437365
3 1036.05 1434106
3 1036.05 1432227
3 1036.05 1426807
3 1036.05 1418950
3 1036.05 1411231
3 1036.05 1400904
3 1036.05 1399944
3 1036.05 1382772
3 1036.05 1380624
3 1036.05 1374089
3 1036.05 1369293
3 1036.05 1366103
3 1037.91 1364135
3 1037.91 1363124
3 1038.74 1362245
3 1039.48 1359301
3 1039.48 1353070
3 1039.48 1351509
3 1039.48 1349093
3 1039.48 1342441
3 1039.48 1342014
3 1040.04 1340575
3 1040.51 1339875
3 1040.51 1339836
3 1040.51 1338352
3 1040.51 1338135
3 1040.51 1334410
3 1041.29 1332006
3 1041.95 1331897
3 1042.47 1328090
3 1042.47 1327663
3 1042.98 1327258
3 1043.64 1326061
3 1050.34 1427712
3 1050.34 1426076
3 1051.18 1425803
3 1051.18 1417356
3 1051.18 1414864
3 1051.18 1411278
3 1051.18 1401489
3 1051.18 1391732
3 1051.18 1390493
3 1052.08 1387965
3 1052.08 1387410
3 1052.08 1385784
3 1052.9 1384857
3 1052.9 1382848
3 1053.7 1382273
3 1053.7 1382089
3 1054.48 1373651
3 1055.26 1373480
3 1055.26 1370710
3 1056.07 1370246
3 1056.84 1366921
3 1057.62 1366818
3 1057.62 1363877
3 1058.41 1361848
3 1059.97 1351220
3 1060.56 1349933
3 1060.56 1345997
3 1064.03 1465507
3 1064.03 1459429
3 1064.03 1444757
3 1064.03 1433727
3 1064.03 1420135
3 1064.03 1419938
3 1064.03 1418354
3 1064.6 1415130
3 1064.6 1412047
3 1064.6 1409140
3 1064.6 1408324
3 1064.6 1408085
3 1064.6 1406497
3 1064.6 1401278
3 1064.6 1395416
3 1065.16 1375772
3 1065.16 1372510
3 1065.16 1370172
3 1065.16 1366420
3 1065.66 1364245
3 1065.66 1363359
3 1065.66 1362123
3 1066.19 1360159
3 1066.19 1359367
3 1066.19 1357228
3 1066.84 1353906
3 1066.84 1352730
3 1066.84 1352477
3 1067.44 1352442
3 1067.44 1351206
3 1067.99 1347944
3 1069.72 1345702
3 1078.03 1506630
3 1078.03 1474269
3 1078.03 1453493
3 1078.03 1447531
3 1078.03 1443357
3 1078.03 1436607
3 1078.03 1411101
3 1078.03 1410014
3 1078.93 1408904
3 1078.93 1395986
3 1078.93 1395404
3 1078.93 1387219
3 1078.93 1381257
3 1079.83 1379631
3 1079.83 1376539
3 1080.41 1375592
3 1080.41 1374903
3 1081.72 1374493
3 1081.72 1372935
3 1081.72 1371911
3 1082.56 1366932
3 1082.56 1364779
3 1082.56 1359571
3 1084.18 1358339
3 1085.02 1355077
3 1085.84 1354835
3 1086.64 1353411
3 1089.81 1352297
3 1089.81 1352240
3 1089.81 1346453
3 1090.71 1346412
3 1091.53 1346219
3 1092.33 1443995
3 1092.33 1415536
3 1092.33 1414744
3 1092.33 1412605
3 1092.33 1411529
3 1092.33 1410293
3 1092.33 1408608
3 1092.33 1407298
3 1092.33 1403786
3 1092.33 1398680
3 1093.08 1396437
3 1093.08 1381316
3 1093.08 1374943
3 1093.08 1374151
3 1093.08 1373476
3 1093.08 1371086
3 1093.08 1367559
3 1093.81 1367056
3 1093.81 1365683
3 1093.81 1363873
3 1094.71 1359101
3 1094.71 1358966
3 1094.71 1358678
3 1095.44 1357730
3 1095.44 1356094
3 1095.44 1352383
3 1095.44 1350215
3 1096.17 1348582
3 1096.17 1347471
3 1096.17 1342263
3 1096.17 1342141
3 1096.71 1341349
3 1096.71 1339263
3 1097.67 1338559
3 1097.67 1337263
3 1098.14 1337064
3 1098.14 1335420
3 1098.83 1334383
3 1102.7 1330733
3 1102.7 1330602
3 1104.25 1330403
3 1106.14 1439364
3 1106.14 1412351
3 1106.14 1400255
3 1106.14 1387130
3 1106.14 1386402
3 1106.14 1383880
3 1106.14 1383088
3 1106.14 1371964
3 1107.04 1368483
3 1107.04 1364768
3 1107.53 1360753
3 1107.53 1359010
3 1108.74 1357526
3 1108.74 1356365
3 1108.74 1354578
3 1108.74 1347785
3 1108.74 1345684
3 1109.82 1344350
3 1109.82 1344123
3 1119.36 1343030
3 1120.08 1409482
3 1120.08 1407783
3 1120.08 1407270
3 1120.08 1397040
3 1120.08 1396859
3 1120.08 1390389
3 1120.08 1388360
3 1120.84 1385839
3 1120.84 1380462
3 1120.84 1373846
3 1120.84 1373777
3 1120.84 1372553
3 1121.44 1372284
3 1121.93 1371466
3 1121.93 1365739
3 1122.63 1363755
3 1123.48 1360784
3 1123.48 1360635
3 1123.48 1359467
3 1124.15 1356398
3 1124.15 1353571
3 1124.15 1353191
3 1124.83 1347943
3 1125.61 1347779
3 1125.61 1345777
3 1125.61 1344539
3 1127.16 1344393
3 1128.68 1341379
3 1128.68 1341253
3 1128.68 1338695
3 1128.68 1338144
3 1129.52 1337899
3 1130.29 1337258
3 1131.09 1330418
3 1131.09 1328542
3 1131.09 1326903
3 1132.65 1324257
3 1132.65 1323711
3 1133.36 1322063
3 1134.27 1455310
3 1134.27 1449348
3 1134.27 1444540
3 1134.27 1441758
3 1134.27 1430689
3 1134.82 1417365
3 1134.82 1396801
3 1134.82 1373362
3 1134.82 1367927
3 1134.82 1363556
3 1134.82 1362764
3 1135.51 1360228
3 1135.51 1346359
3 1135.51 1346313
3 1136 1344996
3 1137.12 1343695
3 1138.65 1343400
3 1138.65 1342903
3 1138.65 1341938
3 1139.16 1341163
3 1139.16 1338949
3 1140.09 1337722
3 1141.04 1335687
3 1141.04 1332987
3 1141.04 1326929
3 1141.04 1326606
3 1141.04 1325814
3 1145.29 1324779
3 1148.64 1476954
3 1148.64 1460199
3 1148.64 1444828
3 1148.64 1439111
3 1148.64 1438025
3 1148.64 1435886
3 1148.64 1430572
3 1148.64 1420199
3 1149.3 1417568
3 1149.3 1408706
3 1149.3 1404982
3 1149.3 1398538
3 1149.3 1396518
3 1149.3 1394766
3 1149.3 1386525
3 1149.3 1378392
3 1149.85 1373108
3 1149.85 1372401
3 1149.85 1371795
3 1149.85 1368873
3 1150.4 1367323
3 1150.4 1366087
3 1150.4 1364136
3 1150.93 1361409
3 1151.47 1361201
3 1151.47 1359061
3 1151.47 1358520
3 1151.47 1355331
3 1152.02 1351525
3 1152.95 1350338
3 1153.42 1345707
3 1153.88 1343651
3 1153.88 1343222
3 1154.36 1341731
3 1154.36 1339551
3 1154.98 1339421
3 1155.52 1339271
3 1156.3 1335695
3 1157.08 1335522
3 1158.72 1332209
3 1162.56 1427003
3 1162.56 1411802
3 1162.56 1400917
3 1162.56 1397333
3 1162.56 1386403
3 1162.56 1386144
3 1162.56 1382959
3 1163.3 1367838
3 1163.3 1362787
3 1163.3 1359806
3 1163.3 1355961
3 1163.83 1354524
3 1163.83 1354415
3 1164.4 1353452
3 1165.32 1353071
3 1165.32 1352750
3 1165.82 1350605
3 1166.31 1349813
3 1166.91 1347396
3 1166.91 1345877
3 1168.49 1343605
3 1168.49 1343454
3 1168.49 1343035
3 1169.06 1341961
3 1169.58 1340896
3 1170.15 1339407
3 1170.15 1337956
3 1171.33 1329356
3 1171.33 1329098
3 1171.8 1328521
3 1171.8 1328076
3 1172.27 1325861
3 1172.74 1325284
3 1176.36 1451536
3 1176.36 1451427
3 1176.36 1434008
3 1176.36 1424602
3 1176.36 1422275
3 1176.36 1420136
3 1176.36 1388586
3 1176.36 1384868
3 1176.36 1384145
3 1176.36 1382116
3 1176.98 1380721
3 1176.98 1380576
3 1176.98 1372094
3 1176.98 1366044
3 1177.56 1365617
3 1177.56 1364459
3 1178.35 1362483
3 1178.35 1361776
3 1178.35 1361218
3 1178.35 1359637
3 1179.08 1355208
3 1179.08 1354031
3 1179.55 1353201
3 1180.01 1351856
3 1180.01 1351055
3 1182.65 1350336
3 1182.65 1349507
3 1183.29 1349036
3 1183.29 1347328
3 1183.29 1343429
3 1190.39 1409091
3 1190.39 1407071
3 1190.39 1403016
3 1190.39 1400877
3 1190.39 1399641
3 1190.39 1385086
3 1190.39 1382241
3 1191.2 1380885
3 1191.2 1379963
3 1191.2 1367521
3 1191.2 1366256
3 1191.9 1362516
3 1191.9 1360487
3 1191.9 1353843
3 1193.32 1344588
3 1193.32 1343027
3 1193.32 1342958
3 1193.32 1342103
3 1196.7 1340221
3 1196.7 1339964
3 1197.85 1339220
3 1198.38 1338469
3 1204.38 1450219
3 1204.38 1435098
3 1204.38 1405411
3 1204.38 1401251
3 1204.38 1395488
3 1204.38 1395247
3 1204.38 1389169
3 1204.38 1388286
3 1204.38 1384792
3 1204.38 1369030
3 1205.31 1368604
3 1205.31 1368357
3 1205.31 1366477
3 1205.31 1365374
3 1206.91 1360177
3 1206.91 1359805
3 1207.73 1357116
3 1208.53 1350880
3 1208.53 1349120
3 1209.33 1347843
3 1212.69 1346687
3 1212.69 1344458
3 1213.59 1343350
3 1214.27 1342458
3 1214.27 1342102
3 1214.75 1340588
3 1214.75 1339176
3 1214.75 1337483
3 1218.69 1410867
3 1218.69 1374158
3 1218.69 1364603
3 1218.69 1362929
3 1218.69 1361341
3 1219.57 1361313
3 1219.57 1359202
3 1220.36 1357730
3 1221.89 1356610
3 1222.63 1350344
3 1222.63 1350241
3 1223.14 1349966
3 1223.61 1347187
3 1224.96 1344688
3 1224.96 1344059
3 1224.96 1342729
3 1224.96 1342221
3 1225.79 1342172
3 1225.79 1341248
3 1225.79 1339277
3 1227.37 1337726
3 1228.14 1336302
3 1230.49 1335157
3 1231.34 1333018
3 1232.19 1411878
3 1232.19 1408240
3 1232.19 1407619
3 1232.19 1404357
3 1232.19 1397882
3 1232.19 1396546
3 1232.91 1395754
3 1232.91 1382961
3 1233.52 1379575
3 1233.52 1379048
3 1233.52 1370716
3 1233.52 1368507
3 1234.15 1365813
3 1234.15 1365679
3 1234.15 1362340
3 1234.15 1358302
3 1234.15 1355803
3 1234.15 1350426
3 1234.83 1346346
3 1234.83 1340450
3 1234.83 1339728
3 1234.83 1337279
3 1235.46 1337209
3 1236 1331938
3 1236 1331125
3 1246.21 1433637
3 1246.21 1433578
3 1246.21 1417285
3 1246.21 1408068
3 1246.21 1406957
3 1246.21 1396727
3 1246.21 1390261
3 1246.21 1386211
3 1246.21 1377761
3 1246.85 1372150
3 1246.85 1366188
3 1247.49 1360487
3 1247.49 1359540
3 1247.49 1359437
3 1247.49 1352465
3 1247.49 1350622
3 1251.55 1341481
3 1251.55 1338195
3 1251.55 1337607
3 1260.76 1452981
3 1260.76 1450842
3 1260.76 1449626
3 1260.76 1446937
3 1260.76 1434144
3 1260.76 1430245
3 1261.65 1428606
3 1261.65 1425879
3 1261.65 1422387
3 1262.48 1418266
3 1262.48 1408008
3 1262.48 1405839
3 1263.32 1403945
3 1263.32 1398110
3 1265.16 1395385
3 1265.16 1393844
3 1265.16 1392619
3 1265.67 1387798
3 1265.67 1387645
3 1270.6 1380097
3 1271.24 1368828
3 1271.24 1366685
3 1271.24 1364976
3 1274.58 1473410
3 1274.58 1469511
3 1274.58 1451355
3 1274.58 1432325
3 1274.58 1430689
3 1275.43 1405031
3 1275.43 1402230
3 1275.43 1401160
3 1275.43 1397899
3 1275.99 1397080
3 1275.99 1393141
3 1275.99 1390355
3 1275.99 1381117
3 1275.99 1380543
3 1275.99 1379307
3 1275.99 1378933
3 1275.99 1377307
3 1276.53 1376686
3 1276.53 1368697
3 1276.53 1355980
3 1276.53 1353796
3 1276.53 1352767
3 1276.53 1352160
3 1277.05 1347514
3 1277.05 1347186
3 1277.05 1343459
3 1278.12 1342804
3 1278.12 1338217
3 1279.21 1336842
3 1288.23 1406088
3 1288.23 1406071
3 1288.23 1403164
3 1288.23 1399427
3 1288.23 1385287
3 1288.23 1383726
3 1288.23 1383009
3 1288.23 1373061
3 1288.8 1368493
3 1288.8 1368236
3 1288.8 1366022
3 1288.8 1363626
3 1289.78 1354350
3 1289.78 1347915
3 1289.78 1345191
3 1289.78 1344104
3 1290.54 1342916
3 1291.19 1341069
3 1291.65 1340060
3 1293.03 1339430
3 1293.51 1333242
3 1293.51 1332863
3 1293.51 1330460
3 1294.79 1329709
3 1294.79 1326373
3 1294.79 1324935
3 1294.79 1320674
3 1296.37 1320249
3 1297.93 1315377
3 1297.93 1313524
3 1302.5 1446837
3 1302.5 1438103
3 1302.5 1432950
3 1302.5 1413637
3 1302.5 1408882
3 1302.5 1407325
3 1302.5 1393185
3 1302.5 1380918
3 1302.5 1378455
3 1302.5 1368825
3 1303.52 1366833
3 1303.52 1365597
3 1304.33 1361324
3 1304.33 1361144
3 1304.33 1358237
3 1304.33 1358075
3 1304.33 1357536
3 1305.03 1357499
3 1305.58 1354810
3 1305.58 1350710
3 1306.15 1349374
3 1306.15 1348138
3 1306.7 1346502
3 1309.54 1345734
3 1310 1344976
3 1310.71 1344345
3 1310.71 1343992
3 1311.46 1342773
3 1312.23 1342431
3 1312.99 1340486
3 1312.99 1340443
3 1313.81 1339059
3 1313.81 1338885
3 1315.93 1336320
3 1316.71 1456521
3 1316.71 1445040
3 1316.71 1443804
3 1316.71 1433447
3 1316.71 1426935
3 1316.71 1426175
3 1316.71 1418345
3 1317.6 1407591
3 1317.6 1405452
3 1317.6 1401323
3 1317.6 1400835
3 1317.6 1399420
3 1318.45 1397696
3 1318.45 1396139
3 1318.45 1395135
3 1318.45 1393819
3 1318.45 1393351
3 1318.45 1382403
3 1318.45 1379188
3 1319.33 1375286
3 1319.33 1372129
3 1319.33 1371218
3 1319.33 1369079
3 1320.93 1368824
3 1321.72 1368300
3 1321.72 1365467
3 1322.52 1362359
3 1322.52 1361568
3 1322.52 1356192
3 1323.34 1356179
3 1323.34 1354080
3 1324.21 1348657
3 1324.21 1344861
3 1325.06 1344848
3 1330.61 1468500
3 1330.61 1461987
3 1330.61 1455873
3 1330.61 1452461
3 1330.61 1450688
3 1330.61 1437463
3 1330.61 1435567
3 1331.27 1433538
3 1331.27 1432595
3 1331.27 1430906
3 1331.27 1425708
3 1331.27 1422165
3 1331.27 1404162
3 1332.33 1389998
3 1332.33 1386996
3 1332.33 1386529
3 1332.33 1385333
3 1332.9 1383253
3 1332.9 1379255
3 1332.9 1379062
3 1333.65 1376445
3 1333.65 1373061
3 1333.65 1371185
3 1334.28 1367064
3 1334.77 1366704
3 1334.77 1362765
3 1334.77 1360256
3 1335.58 1359310
3 1335.58 1359020
3 1336.37 1357706
3 1336.37 1356834
3 1339.93 1350051
3 1344.28 1506114
3 1344.28 1469059
3 1344.28 1460252
3 1344.28 1448063
3 1344.28 1441806
3 1344.28 1441491
3 1344.28 1426954
3 1344.28 1420513
3 1344.28 1419277
3 1344.28 1415378
3 1344.28 1406757
3 1345.25 1400828
3 1345.25 1394453
3 1345.25 1394138
3 1345.25 1387321
3 1345.25 1386438
3 1345.25 1375722
3 1345.25 1374930
3 1345.94 1371196
3 1345.94 1370525
3 1345.94 1366062
3 1345.94 1364573
3 1346.45 1360906
3 1346.45 1358551
3 1346.45 1356023
3 1346.45 1353577
3 1357.87 1351218
3 1357.87 1349510
3 1358.51 1457103
3 1358.51 1456039
3 1358.51 1447486
3 1358.51 1430058
3 1358.51 1419459
3 1358.51 1413563
3 1358.51 1407050
3 1358.51 1404181
3 1359.25 1402767
3 1359.25 1391910
3 1359.25 1380756
3 1359.25 1377494
3 1359.25 1371027
3 1359.79 1368312
3 1359.79 1367152
3 1359.79 1367044
3 1359.79 1361639
3 1360.29 1360769
3 1363.19 1358846
3 1363.69 1354430
3 1363.69 1353194
3 1363.69 1340350
3 1364.18 1339691
3 1364.18 1334956
3 1365.09 1334528
3 1365.09 1333736
3 1365.09 1331292
3 1365.63 1330413
3 1365.63 1328645
3 1371.02 1327963
3 1372.24 1415369
3 1372.24 1410356
3 1372.24 1389798
3 1372.24 1384880
3 1372.24 1383948
3 1372.24 1371588
3 1372.24 1371245
3 1373.47 1369609
3 1373.47 1367470
3 1374.32 1366954
3 1374.92 1366709
3 1375.55 1364234
3 1375.55 1362588
3 1376.19 1354182
3 1376.79 1353091
3 1376.79 1351731
3 1377.39 1351594
3 1377.93 1347492
3 1380.42 1344306
3 1380.42 1343259
3 1380.95 1340679
3 1386.58 1452391
3 1386.58 1421409
3 1386.58 1419253
3 1386.58 1398711
3 1386.58 1393363
3 1386.58 1392299
3 1386.58 1390160
3 1387.2 1387117
3 1387.2 1377945
3 1387.2 1371009
3 1387.2 1370768
3 1387.2 1368870
3 1387.88 1365146
3 1388.67 1361210
3 1389.45 1349920
3 1389.45 1348856
3 1391.41 1344076
3 1391.41 1343681
3 1394.62 1343254
3 1400.25 1491426
3 1400.25 1479214
3 1400.25 1466999
3 1400.25 1460921
3 1400.25 1432462
3 1400.25 1424632
3 1400.25 1404960
3 1400.25 1403504
3 1400.25 1398863
3 1400.86 1389079
3 1400.86 1384199
3 1401.35 1380595
3 1401.35 1379803
3 1401.35 1377555
3 1401.35 1372966
3 1401.86 1365633
3 1401.86 1352504
3 1401.86 1350512
3 1402.48 1349151
3 1402.48 1347590
3 1403.2 1343513
3 1403.2 1343492
3 1403.7 1340722
3 1405.09 1340005
3 1405.09 1339771
3 1405.57 1338403
3 1406.1 1338164
3 1406.1 1335220
3 1406.1 1334443
3 1406.1 1333266
3 1406.1 1332584
3 1406.1 1331431
3 1406.62 1328535
3 1407.11 1327424
3 1407.11 1325637
3 1407.11 1323498
3 1408.57 1318061
3 1414.46 1474814
3 1414.46 1469881
3 1414.46 1465760
3 1414.46 1437027
3 1414.46 1426769
3 1414.46 1422870
3 1414.46 1418005
3 1415.09 1411067
3 1415.96 1406461
3 1415.96 1401676
3 1416.7 1397662
3 1416.7 1397050
3 1417.95 1395026
3 1417.95 1394767
3 1417.95 1393048
3 1418.8 1386188
3 1418.8 1379646
3 1418.8 1379036
3 1418.8 1373952
3 1418.8 1369831
3 1419.57 1366824
3 1428.33 1430578
3 1428.33 1429342
3 1428.33 1427322
3 1428.33 1415829
3 1428.33 1413067
3 1428.33 1412350
3 1428.33 1393952
3 1428.33 1390818
3 1429.16 1390158
3 1429.16 1387726
3 1429.16 1386716
3 1429.67 1386659
3 1429.67 1385977
3 1429.67 1384741
3 1429.67 1383105
3 1429.67 1380275
3 1430.23 1362899
3 1430.23 1360061
3 1430.23 1353791
3 1430.77 1351800
3 1430.77 1350387
3 1431.28 1344491
3 1432.74 1344309
3 1432.74 1344160
3 1434.77 1343043
3 1435.85 1341694
3 1436.38 1341589
3 1437.14 1338977
3 1442.52 1459361
3 1442.52 1455156
3 1442.52 1443308
3 1442.52 1433045
3 1442.52 1428513
3 1442.52 1427937
3 1442.52 1410285
3 1442.52 1407904
3 1442.52 1388785
3 1442.52 1387149
3 1442.52 1386798
3 1442.52 1382135
3 1442.52 1381453
3 1442.52 1376882
3 1443.23 1375012
3 1443.23 1373628
3 1443.23 1370038
3 1443.23 1368802
3 1443.74 1363370
3 1443.74 1357650
3 1444.25 1357271
3 1444.25 1357101
3 1444.25 1356235
3 1444.82 1349379
3 1444.82 1347970
3 1444.82 1344859
3 1444.82 1344415
3 1445.8 1344000
3 1446.37 1343731
3 1446.37 1342542
3 1447.82 1342541
3 1448.37 1341872
3 1448.84 1338073
3 1448.84 1335393
3 1450.37 1331931
3 1452.1 1330084
3 1452.1 1328044
3 1452.6 1326554
3 1456.71 1427025
3 1456.71 1402330
3 1456.71 1401094
3 1456.71 1395972
3 1456.71 1395721
3 1456.71 1389894
3 1457.3 1388747
3 1457.3 1379184
3 1457.3 1375987
3 1457.3 1374164
3 1457.83 1368191
3 1458.3 1367529
3 1458.3 1359325
3 1458.3 1356725
3 1458.81 1355769
3 1458.81 1354095
3 1458.81 1348973
3 1458.81 1348181
3 1459.33 1343207
3 1459.33 1339943
3 1459.8 1339432
3 1459.8 1337245
3 1459.8 1334375
3 1462.11 1333951
3 1463.06 1329054
3 1463.52 1327873
3 1470.24 1461759
3 1470.24 1458156
3 1470.24 1456017
1 1470.24 1445546
3 1470.24 1444424
3 1470.24 1426876
3 1470.24 1426084
3 1470.24 1417890
3 1471.14 1408613
1 1471.14 1387834
3 1471.14 1381232
3 1471.95 1376535
3 1471.95 1374719
3 1471.95 1366168
3 1471.95 1364789
3 1471.95 1363386
3 1472.46 1362265
3 1472.46 1360194
3 1472.46 1359244
3 1472.46 1355743
3 1472.46 1355403
3 1472.46 1352824
3 1473.16 1351504
3 1473.16 1350576
3 1480.17 1350427
3 1480.17 1349556
3 1480.17 1348943
3 1482.11 1348603
3 1484.34 1481574
3 1484.34 1467060
3 1484.34 1460416
3 1484.34 1460373
3 1484.34 1458387
3 1484.34 1447502
3 1484.34 1429756
3 1484.34 1422244
3 1484.34 1411927
3 1484.34 1401697
3 1484.34 1395256
3 1484.34 1393117
3 1485.04 1381649
3 1485.04 1380481
3 1485.04 1374403
3 1485.04 1371827
3 1485.04 1370201
3 1486.17 1364629
3 1486.7 1363887
3 1486.7 1362301
3 1486.7 1361220
3 1487.35 1360674
3 1487.35 1357580
3 1487.35 1356788
3 1487.92 1356229
3 1488.44 1355552
3 1489.22 1354950
3 1489.22 1354341
3 1489.22 1352780
3 1489.82 1347547
3 1489.82 1347371
3 1493.01 1345466
3 1493.49 1344922
3 1497.62 1343989
3 1498.41 1386332
3 1498.41 1374582
3 1498.41 1373647
3 1499.17 1373224
3 1499.17 1372923
3 1499.65 1371988
3 1499.65 1364051
3 1500.13 1363940
3 1500.6 1363167
3 1500.6 1360294
3 1500.6 1359462
3 1500.6 1358430
3 1501.12 1354736
3 1501.12 1353513
3 1501.6 1352365
3 1502.5 1349208
3 1503.09 1345137
3 1503.09 1345087
3 1503.57 1343851
1 1512.49 1468374
3 1512.49 1454853
3 1512.49 1453617
3 1512.49 1444505
3 1512.49 1441367
3 1512.49 1440114
3 1513.04 1437752
3 1513.04 1436178
3 1513.04 1416302
3 1513.04 1407664
3 1513.04 1397272
3 1513.04 1388255
3 1514.27 1383469
3 1514.27 1368348
3 1514.76 1367069
3 1514.76 1367040
3 1514.76 1353605
3 1514.76 1353079
3 1515.28 1347106
3 1515.28 1340407
3 1515.77 1338647
3 1515.77 1337855
3 1515.77 1335995
3 1516.41 1334371
3 1516.41 1333966
3 1517.2 1333488
3 1518.13 1333267
3 1520.13 1332840
3 1520.68 1332414
3 1521.7 1332252
3 1521.7 1331180
3 1522.19 1329479
3 1526.63 1467458
3 1526.63 1454540
3 1526.63 1451774
3 1526.63 1422260
3 1526.63 1401092
3 1526.63 1399850
3 1526.63 1398614
3 1527.25 1397081
3 1527.72 1393819
3 1527.72 1389877
3 1527.72 1387857
3 1528.2 1380718
3 1528.2 1379916
3 1528.68 1379619
3 1528.68 1377344
3 1528.68 1376534
3 1528.68 1375205
3 1530.4 1375172
3 1531.67 1374934
3 1531.67 1374655
3 1532.16 1368577
3 1532.16 1363453
3 1532.16 1356092
3 1532.66 1355300
3 1540.13 1451186
3 1540.13 1446228
3 1540.13 1443226
3 1540.13 1433798
3 1540.13 1414810
3 1540.13 1410616
3 1540.13 1409652
3 1540.13 1405242
3 1540.95 1404027
3 1540.95 1402657
3 1541.76 1396293
3 1541.76 1391319
3 1542.56 1387544
3 1542.56 1384282
3 1543.45 1370696
3 1544.19 1369081
3 1544.19 1366835
3 1544.66 1365352
3 1545.33 1362814
3 1546.06 1362022
3 1547.4 1358252
3 1547.87 1357612
3 1547.87 1356787
3 1548.42 1355929
3 1550.24 1350468
3 1552.47 1349297
3 1553.06 1348890
3 1553.55 1348784
3 1554.03 1467694
3 1554.03 1460425
3 1554.03 1458286
3 1554.03 1456214
3 1554.03 1443942
3 1554.71 1437337
3 1554.71 1433548
3 1554.71 1426658
3 1554.71 1422943
3 1554.71 1408329
3 1555.62 1405067
3 1555.62 1399690
3 1556.27 1397348
3 1556.27 1393800
3 1556.27 1389593
3 1556.27 1388091
3 1557.25 1387946
3 1557.82 1387685
3 1557.82 1383825
3 1558.33 1382262
3 1558.33 1381984
3 1559.13 1377863
3 1559.13 1373899
3 1560.77 1372889
3 1565.22 1372291
3 1566.06 1370779
3 1566.06 1370013
3 1566.06 1365039
3 1567.66 1364272
3 1568.43 1421983
3 1568.43 1417862
3 1568.43 1416189
3 1568.43 1413645
3 1569.3 1407204
3 1569.3 1403268
3 1569.3 1401026
3 1570.08 1396872
3 1570.08 1396136
3 1570.08 1393908
3 1570.08 1393551
3 1570.08 1387837
3 1570.59 1382779
3 1570.59 1382144
3 1571.21 1380616
3 1571.21 1380032
3 1571.21 1377893
3 1572.85 1377392
3 1572.85 1369804
3 1572.85 1368956
3 1573.7 1368933
3 1574.51 1368179
3 1575.25 1364671
3 1575.82 1363958
3 1576.45 1359918
3 1576.45 1358640
3 1576.45 1357520
3 1576.45 1357508
3 1578.77 1357482
3 1579.48 1357391
3 1580.27 1352219
3 1580.27 1351429
3 1580.27 1351425
3 1580.27 1349177
3 1581.09 1347002
3 1581.09 1346848
3 1581.89 1345321
3 1581.89 1344632
3 1582.69 1452806
3 1582.69 1421114
3 1582.69 1419282
3 1582.69 1419094
3 1582.69 1410765
3 1582.69 1409372
3 1582.69 1407736
3 1582.69 1403956
3 1582.69 1402359
3 1582.69 1398037
3 1582.69 1388749
3 1582.69 1388069
3 1582.69 1374512
3 1583.49 1361707
3 1583.49 1361430
3 1584.16 1360706
3 1584.16 1356914
3 1584.16 1354203
3 1585.17 1353482
3 1585.17 1350475
3 1587.9 1346756
3 1587.9 1346521
3 1588.7 1346482
3 1589.52 1342361
3 1590.47 1338088
3 1591.28 1337053
3 1591.28 1337001
3 1591.28 1335765
3 1596.28 1495415
1 1596.28 1486341
3 1596.28 1479806
3 1596.28 1465623
3 1596.28 1439268
3 1596.28 1431907
3 1596.28 1431175
3 1596.28 1430321
3 1596.28 1416229
3 1596.98 1406415
3 1596.98 1406269
3 1596.98 1399828
3 1597.8 1397641
3 1597.8 1395584
3 1597.8 1391500
3 1597.8 1390885
3 1597.8 1390093
3 1599.41 1389256
3 1599.41 1387185
3 1599.41 1384612
3 1599.41 1384088
3 1599.41 1374201
3 1600.26 1374051
3 1600.26 1373296
3 1600.26 1372060
3 1600.26 1371800
3 1600.99 1369661
3 1601.45 1364395
3 1601.45 1364263
3 1601.45 1362256
3 1601.99 1348914
3 1601.99 1347043
3 1601.99 1346064
3 1601.99 1345113
3 1602.51 1343877
3 1602.99 1343684
3 1610.39 1400188
3 1610.39 1395117
3 1610.39 1391282
3 1610.39 1390237
3 1610.39 1371691
3 1610.39 1370601
3 1610.39 1369561
3 1611.14 1367016
3 1611.14 1366939
3 1611.81 1359578
3 1611.81 1359069
3 1611.81 1357930
3 1612.46 1355580
3 1612.46 1355029
3 1612.46 1355009
3 1612.46 1350221
3 1612.97 1349979
3 1612.97 1348931
3 1612.97 1348613
3 1613.44 1346856
3 1613.91 1342336
3 1613.91 1341536
3 1613.91 1338249
3 1614.47 1337998
3 1617.46 1337386
3 1617.46 1337111
3 1619.08 1337078
3 1621.69 1337022
3 1623.21 1336920
3 1624.04 1470667
3 1624.04 1449869
3 1624.04 1449766
3 1624.04 1447582
3 1624.04 1443458
3 1624.04 1417952
3 1624.04 1415583
3 1624.04 1405944
3 1624.89 1394083
3 1624.89 1386068
3 1624.89 1383583
3 1625.4 1381380
3 1625.4 1375484
3 1625.4 1373048
3 1625.4 1372256
3 1625.91 1363758
3 1625.91 1362872
3 1626.41 1358128
3 1626.41 1357162
3 1626.41 1356517
3 1626.41 1355289
3 1627.39 1354044
3 1627.39 1353289
3 1627.39 1352810
3 1628.79 1352165
3 1628.79 1347947
3 1630.75 1346778
3 1631.26 1346516
3 1631.26 1346032
3 1633.51 1345240
3 1638.03 1415411
3 1638.03 1413020
3 1638.03 1409063
3 1638.03 1408954
3 1638.03 1403609
3 1638.03 1402598
3 1638.03 1399245
3 1638.03 1398563
3 1638.03 1387264
3 1638.03 1382492
3 1638.89 1365851
3 1638.89 1365247
3 1638.89 1357382
3 1639.45 1354285
3 1639.45 1351336
3 1639.45 1349901
3 1639.96 1342511
3 1639.96 1342427
3 1640.42 1340845
3 1640.42 1340372
3 1640.42 1340149
3 1640.93 1339739
3 1641.42 1338949
3 1641.42 1338817
3 1641.42 1338570
3 1643.81 1338529
3 1652.42 1440505
3 1652.42 1427429
3 1652.42 1409417
3 1652.42 1391837
3 1652.42 1390830
3 1652.42 1383768
3 1652.42 1380506
3 1653.22 1379079
3 1653.22 1376366
3 1653.74 1375254
3 1653.74 1372908
3 1654.35 1370121
3 1654.85 1370102
3 1654.85 1369651
3 1654.85 1367785
3 1654.85 1366674
3 1655.38 1365334
3 1656.29 1365258
3 1656.29 1361505
3 1656.29 1361470
3 1656.76 1360881
3 1656.76 1357497
3 1656.76 1353327
3 1656.76 1352088
3 1657.51 1349409
3 1657.51 1348620
3 1658.77 1347399
3 1659.76 1345652
3 1660.22 1345546
3 1661.27 1345137
3 1661.74 1344649
3 1662.47 1344315
3 1666.65 1408728
3 1666.65 1404780
3 1666.65 1403890
3 1666.65 1396529
3 1666.65 1394654
3 1666.65 1391905
3 1666.65 1381337
3 1666.65 1380073
3 1666.65 1377526
3 1667.57 1370113
3 1667.57 1368724
3 1667.57 1367695
3 1667.57 1366512
3 1668.22 1365542
3 1668.22 1361135
3 1668.22 1358854
3 1668.22 1355024
3 1668.75 1351276
3 1668.75 1349355
3 1669.23 1348562
3 1669.23 1348037
3 1669.93 1347293
3 1669.93 1346799
3 1669.93 1345039
3 1671.3 1343069
3 1671.77 1340739
3 1671.77 1339705
3 1671.77 1337922
3 1671.77 1337497
3 1674.66 1335134
3 1674.66 1335036
3 1675.19 1333083
3 1675.19 1332980
3 1675.19 1331813
3 1680.79 1458412
3 1680.79 1429953
3 1680.79 1429843
3 1680.79 1423991
3 1680.79 1418500
3 1680.79 1417264
3 1680.79 1413561
3 1680.79 1392852
3 1680.79 1392757
3 1680.79 1391965
3 1681.75 1391552
3 1681.75 1391502
3 1681.75 1387248
3 1681.75 1384792
3 1681.75 1384751
3 1681.75 1378830
3 1681.75 1364416
3 1682.73 1352855
3 1682.73 1352475
3 1683.56 1350772
3 1683.56 1344873
3 1684.29 1344727
3 1688.48 1343640
3 1694.73 1496257
3 1694.73 1476529
3 1694.73 1470989
3 1694.73 1465612
3 1694.73 1465190
3 1694.73 1464685
3 1694.73 1464125
3 1695.62 1458677
3 1695.62 1455189
3 1695.62 1450775
3 1695.62 1430899
3 1695.62 1426050
3 1695.62 1417823
3 1695.62 1413634
3 1696.53 1411603
3 1696.53 1405279
3 1697.36 1393252
3 1697.36 1389190
3 1699.06 1385787
3 1699.06 1378461
3 1699.06 1371168
3 1699.06 1370610
3 1701.1 1366753
3 1701.1 1362835
3 1707.61 1361763
3 1708.23 1419491
3 1708.23 1414087
3 1708.23 1410188
3 1708.23 1408812
3 1708.23 1407975
3 1708.23 1404511
3 1708.23 1404120
3 1708.23 1403209
3 1708.23 1400413
3 1708.23 1400232
3 1708.9 1400176
3 1708.9 1396768
3 1708.9 1394214
3 1708.9 1391515
3 1709.46 1386586
3 1709.46 1386131
3 1709.46 1382705
3 1709.46 1380378
3 1709.46 1373546
3 1709.99 1370284
3 1710.5 1369325
3 1710.5 1368802
3 1710.5 1368778
3 1711.35 1368100
3 1711.35 1366888
3 1711.35 1366741
3 1712.05 1361285
3 1712.05 1360845
3 1712.05 1359498
3 1712.05 1358818
3 1712.57 1357442
3 1713.58 1356206
3 1713.58 1354685
3 1714.07 1342683
3 1715.05 1340616
3 1715.05 1340091
3 1715.05 1340053
3 1715.05 1340015
3 1715.56 1339082
3 1715.56 1331602
3 1722.19 1462481
3 1722.19 1443240
3 1722.19 1438774
3 1722.19 1438112
3 1722.19 1431642
3 1723.06 1426265
3 1723.06 1422290
3 1723.56 1420909
3 1723.56 1420385
3 1723.56 1420098
3 1723.56 1414190
3 1723.56 1408919
3 1724.09 1399551
3 1724.09 1398147
3 1724.09 1393643
3 1724.09 1387202
3 1724.64 1385865
3 1724.64 1383726
3 1724.64 1380750
3 1725.15 1376355
3 1725.15 1372289
3 1726.57 1372186
3 1728.17 1370311
3 1728.17 1367853
3 1728.17 1366669
3 1728.17 1366401
3 1729 1364881
3 1729.79 1363102
3 1730.58 1362071
3 1730.58 1360678
3 1730.58 1356078
3 1730.58 1355033
3 1734.51 1354577
3 1734.51 1354482
3 1735.33 1354379
3 1736.12 1478408
3 1736.12 1469801
3 1736.12 1461971
3 1736.12 1449166
3 1736.12 1446345
3 1736.12 1443625
3 1736.9 1442324
3 1736.9 1431592
3 1736.9 1427471
3 1736.9 1426224
3 1736.9 1421464
3 1737.55 1415427
3 1737.55 1415355
3 1737.55 1409448
3 1737.55 1405549
3 1737.55 1405378
3 1738.22 1398619
3 1738.22 1395344
3 1738.22 1393887
3 1738.8 1390166
3 1738.8 1389932
3 1738.8 1386043
3 1738.8 1385783
3 1738.8 1379821
3 1739.52 1379560
3 1739.52 1376173
3 1740.01 1369290
3 1740.01 1365391
3 1740.5 1365149
3 1740.98 1361736
3 1740.98 1360327
3 1740.98 1359187
3 1746.1 1354733
3 1747.43 1354112
3 1747.43 1352689
3 1748.38 1350176
3 1750.29 1462731
3 1750.29 1453146
3 1750.29 1442675
3 1750.29 1442381
3 1750.29 1438666
3 1750.29 1438554
3 1750.29 1437372
3 1750.29 1427599
3 1750.29 1419720
3 1751.08 1408835
3 1751.08 1406034
3 1751.08 1402394
3 1751.08 1398908
3 1751.93 1398016
3 1751.93 1394568
3 1751.93 1390632
3 1751.93 1387411
3 1752.78 1385255
3 1752.78 1383415
3 1752.78 1381276
3 1752.78 1377469
3 1755.96 1375997
3 1755.96 1370337
3 1756.79 1370307
3 1756.79 1369294
3 1756.79 1369034
3 1756.79 1364974
3 1756.79 1360212
3 1757.66 1358896
3 1757.66 1357660
3 1757.66 1356912
3 1757.66 1356361
3 1757.66 1355663
3 1757.66 1354160
3 1757.66 1352924
3 1758.46 1349025
3 1758.46 1348201
3 1762.35 1345663
3 1763.5 1342401
3 1764.28 1426213
3 1764.28 1424004
3 1764.28 1418665
3 1764.28 1411915
3 1764.28 1406697
3 1764.28 1401679
3 1764.28 1400443
3 1765.2 1394060
3 1765.2 1391961
3 1765.2 1391881
3 1765.2 1385202
3 1765.2 1377603
3 1765.2 1374344
3 1765.2 1371776
3 1765.2 1363024
3 1766.9 1362692
3 1767.38 1362531
3 1767.38 1361678
3 1768.31 1361067
3 1768.31 1360350
3 1768.79 1359088
3 1770.49 1358214
3 1774.23 1356215
3 1774.71 1351120
3 1774.71 1349141
3 1774.71 1345680
3 1775.25 1345318
3 1775.25 1344802
3 1775.25 1344558
3 1778.34 1471951
3 1778.34 1450067
3 1778.34 1424823
3 1778.34 1421048
3 1778.34 1416335
3 1778.34 1400964
3 1778.34 1394886
3 1779.35 1392940
3 1779.35 1392866
3 1780.18 1391630
3 1780.18 1389150
3 1781.05 1382596
3 1781.05 1370535
3 1781.05 1369743
3 1781.05 1365844
3 1781.05 1364613
3 1781.05 1356306
3 1781.05 1355934
3 1781.93 1353002
3 1781.93 1350915
3 1781.93 1350822
3 1781.93 1348195
3 1783.54 1347974
3 1784.28 1344074
3 1784.28 1342131
3 1785.22 1340470
3 1785.99 1337697
3 1786.75 1337235
3 1787.5 1333422
3 1788.27 1332942
3 1788.27 1332208
3 1789.05 1330007
3 1790.69 1328771
3 1792.94 1473191
3 1792.94 1447366
3 1792.94 1443055
3 1792.94 1441650
3 1792.94 1434741
3 1792.94 1428193
3 1792.94 1426963
3 1792.94 1421372
3 1792.94 1415302
3 1793.99 1412724
3 1793.99 1412207
3 1793.99 1408339
3 1793.99 1389322
3 1793.99 1386730
3 1793.99 1376472
3 1793.99 1360442
3 1794.78 1357491
3 1795.42 1353838
3 1795.42 1351699
3 1795.42 1351684
3 1795.42 1349216
3 1797.03 1346587
3 1797.03 1344448
3 1797.83 1340720
3 1798.59 1338195
3 1798.59 1335017
3 1801.19 1333372
3 1801.91 1330999
3 1801.91 1330496
3 1803.49 1329473
3 1806.49 1446990
3 1806.49 1421484
3 1806.49 1416218
3 1806.49 1393232
3 1806.49 1384930
3 1807.37 1374836
3 1807.37 1374229
3 1807.37 1370853
3 1807.37 1370319
3 1808.21 1368180
3 1808.21 1366775
3 1808.21 1366526
3 1809.04 1350392
3 1809.04 1348425
3 1809.9 1347438
3 1809.9 1346678
3 1809.9 1346095
3 1809.9 1344859
3 1811.6 1343223
3 1818.96 1342529
3 1820.37 1491326
3 1820.37 1461773
3 1820.37 1433314
3 1820.37 1414353
3 1820.37 1402676
3 1820.37 1398777
3 1820.37 1394652
3 1820.37 1391813
3 1820.37 1381125
3 1821.03 1379850
3 1821.03 1378718
3 1821.03 1377053
3 1821.03 1371091
3 1821.03 1365186
3 1821.88 1365120
3 1823.11 1361908
3 1823.11 1361184
3 1823.9 1356039
3 1823.9 1349532
3 1824.69 1348023
3 1824.69 1347299
3 1824.69 1347083
3 1825.23 1346019
3 1825.23 1341565
3 1825.23 1340956
3 1825.94 1335282
3 1826.71 1335180
3 1834.04 1465892
3 1834.04 1456954
3 1834.04 1433237
3 1834.04 1430599
3 1834.04 1408069
3 1834.97 1402936
3 1834.97 1397007
3 1834.97 1395371
3 1834.97 1391880
3 1834.97 1385253
3 1834.97 1382952
3 1834.97 1380813
3 1837.45 1357180
3 1837.45 1351215
3 1838.26 1350524
3 1838.26 1350226
3 1838.26 1347813
3 1838.93 1344849
3 1838.93 1341917
3 1840.01 1341579
3 1840.01 1339446
3 1840.01 1338216
3 1840.5 1336287
3 1840.5 1335173
3 1841 1332161
3 1842.42 1329737
3 1842.42 1327041
3 1848.09 1528156
3 1848.09 1491867
3 1848.09 1476167
3 1848.09 1439112
3 1848.09 1425355
3 1848.09 1410180
3 1848.09 1402666
3 1848.09 1393578
3 1848.89 1390749
3 1848.89 1384001
3 1848.89 1380961
3 1849.62 1375784
3 1849.62 1372274
3 1849.62 1371720
3 1849.62 1368663
3 1849.62 1368237
3 1849.62 1357979
3 1849.62 1356357
3 1850.48 1355068
3 1850.48 1353039
3 1850.48 1352303
3 1851.31 1350900
3 1851.31 1348367
3 1855.91 1347094
3 1855.91 1344174
3 1855.91 1340973
3 1856.74 1338212
3 1862.12 1465801
3 1862.12 1445437
3 1862.12 1437624
3 1862.12 1430373
3 1862.12 1409831
3 1862.12 1391679
3 1862.12 1379900
3 1863.05 1377682
3 1863.05 1375726
3 1863.05 1374451
3 1863.05 1372007
3 1863.87 1362421
3 1863.87 1361777
3 1866.23 1358256
3 1867.86 1355527
3 1876.59 1468003
3 1876.59 1467321
3 1876.59 1449365
3 1876.59 1420906
3 1876.59 1414502
3 1876.59 1394009
3 1876.59 1385906
3 1876.59 1384803
3 1876.59 1384589
3 1876.59 1379266
3 1876.59 1377323
3 1877.53 1376678
3 1877.53 1371729
3 1877.53 1358603
3 1877.53 1356838
3 1877.53 1351717
3 1878.41 1350411
3 1878.41 1349862
3 1879.18 1348399
3 1879.93 1344087
3 1879.93 1341924
3 1879.93 1341607
3 1879.93 1340815
3 1880.77 1340320
3 1880.77 1339926
3 1880.77 1339232
3 1880.77 1338193
3 1881.59 1337118
3 1881.59 1334737
3 1887.03 1334629
3 1887.53 1332878
3 1887.53 1332579
3 1887.53 1332490
3 1887.53 1331964
3 1889.56 1331682
3 1890.33 1464399
3 1890.33 1454381
3 1890.33 1446747
3 1890.33 1445511
3 1890.33 1420267
3 1890.33 1409999
3 1890.33 1409087
3 1890.33 1401993
3 1890.33 1391735
3 1891.25 1385610
3 1891.25 1377003
3 1891.25 1371648
3 1891.25 1370412
3 1891.25 1358472
3 1891.25 1357886
3 1891.25 1357718
3 1891.25 1357179
3 1892.12 1356254
3 1892.12 1356001
3 1892.89 1354734
3 1893.47 1352590
3 1893.47 1351823
3 1893.47 1350187
3 1894.42 1349123
3 1895.79 1348404
3 1896.25 1347884
3 1898.22 1347338
3 1899.14 1347329
3 1899.63 1347272
3 1899.63 1346673
3 1899.63 1345881
3 1900.12 1345200
3 1900.12 1344947
3 1900.12 1344403
3 1900.12 1342872
3 1900.83 1342248
3 1902.21 1340244
3 1903.15 1339957
3 1903.15 1337818
3 1904.75 1499713
3 1904.75 1488632
3 1904.75 1486996
3 1904.75 1476949
3 1904.75 1470160
3 1904.75 1463516
3 1904.75 1461880
3 1904.75 1433421
3 1904.75 1429212
3 1904.75 1414384
3 1905.74 1408952
3 1905.74 1400341
3 1905.74 1397079
3 1905.74 1392422
3 1906.4 1390231
3 1906.4 1381908
3 1906.4 1376012
3 1907.17 1371772
3 1907.17 1370877
3 1907.17 1370634
3 1907.17 1365424
3 1908.03 1348981
3 1908.03 1347521
3 1908.84 1343131
3 1909.63 1341249
3 1909.63 1340992
3 1909.63 1340245
3 1909.63 1340154
3 1910.36 1337009
3 1910.89 1336802
3 1910.89 1334663
3 1910.89 1332124
3 1910.89 1331445
3 1918.62 1405651
3 1918.62 1400999
3 1918.62 1389802
3 1919.21 1389441
3 1919.21 1381249
3 1919.21 1374525
3 1919.21 1373452
3 1919.21 1372807
3 1919.75 1370891
3 1919.75 1364370
3 1919.75 1361598
3 1919.75 1361552
3 1919.75 1360362
3 1920.29 1358110
3 1920.29 1354386
3 1920.29 1350265
3 1920.83 1347852
3 1920.83 1343133
3 1920.83 1340905
3 1920.83 1340659
3 1921.36 1339847
3 1921.36 1338611
3 1921.83 1336161
1 1932.39 1509368
3 1932.39 1503609
3 1932.39 1490690
3 1932.39 1477176
3 1932.39 1470022
3 1932.39 1461383
3 1933 1454481
3 1933 1432263
3 1933 1430371
3 1933 1428223
3 1933 1413761
3 1933.75 1388255
3 1934.27 1381793
3 1934.27 1381038
3 1935.01 1377606
3 1935.01 1376985
3 1935.01 1373296
3 1935.71 1371157
3 1936.19 1369310
3 1936.19 1365078
3 1936.19 1364551
3 1936.19 1363425
3 1936.19 1360792
3 1936.19 1359556
3 1936.77 1351763
3 1936.77 1348311
3 1937.72 1345471
3 1938.19 1345275
3 1945.09 1343505
3 1945.72 1343405
3 1946.68 1467133
3 1946.68 1441781
3 1946.68 1425102
3 1946.68 1413048
3 1946.68 1405093
3 1946.68 1402570
3 1946.68 1400431
3 1946.68 1399596
3 1946.68 1398400
3 1947.61 1388211
3 1947.61 1381991
3 1947.61 1373926
3 1947.61 1372635
3 1947.61 1370427
3 1947.61 1363933
3 1948.53 1363653
3 1948.53 1361514
3 1949.23 1361350
3 1949.23 1361015
3 1949.23 1358196
3 1949.23 1357915
3 1949.23 1355665
3 1949.74 1354886
3 1951.16 1353563
3 1951.7 1350258
3 1952.17 1348800
3 1952.17 1347975
3 1952.17 1343492
3 1952.9 1343212
3 1952.9 1343078
3 1952.9 1341842
3 1952.9 1341062
3 1954.51 1337116
3 1955.3 1336979
3 1955.3 1334109
3 1956.12 1331430
3 1956.91 1331038
3 1956.91 1329802
3 1960.69 1405205
3 1960.69 1403066
3 1960.69 1394457
3 1960.69 1392745
3 1960.69 1391109
3 1960.69 1380695
3 1960.69 1379819
3 1961.37 1379764
3 1961.37 1371869
3 1961.37 1371408
3 1961.9 1368406
3 1961.9 1359280
3 1962.48 1358477
3 1962.48 1357878
3 1962.48 1357654
3 1962.48 1352846
3 1965.01 1350254
3 1965.01 1347227
3 1965.01 1347052
3 1966.77 1343833
3 1966.77 1343278
3 1967.99 1342247
3 1967.99 1341362
3 1968.93 1340334
3 1969.4 1337878
3 1971.82 1337644
3 1972.47 1336670
3 1973.19 1335939
3 1974.12 1422101
3 1974.12 1420081
3 1974.12 1388389
3 1974.12 1387095
3 1974.12 1382193
3 1974.12 1379845
3 1974.76 1379790
3 1974.76 1377951
3 1975.59 1373333
3 1975.59 1368481
3 1975.59 1363486
3 1975.59 1360412
3 1975.59 1358383
3 1976.18 1353622
3 1976.18 1346790
3 1976.18 1346166
3 1976.18 1343376
3 1976.95 1342283
3 1976.95 1342132
3 1977.46 1341653
3 1979.34 1340322
3 1979.34 1338924
3 1979.34 1337906
3 1979.34 1337803
3 1980.15 1335533
3 1980.15 1334101
3 1981.08 1333332
3 1982.75 1333323
3 1983.41 1330053
3 1983.94 1328817
3 1984.98 1328655
3 1985.52 1328522
3 1985.52 1327357
3 1985.52 1326777
3 1987.39 1326378
3 1987.39 1326026
3 1987.39 1325987
3 1987.39 1324291
3 1988.01 1533040
3 1988.01 1484824
3 1988.01 1461571
3 1988.01 1441899
3 1988.01 1430989
3 1988.01 1414879
3 1988.55 1414825
3 1988.55 1412477
3 1988.55 1404176
3 1988.55 1396532
3 1988.55 1386386
3 1988.55 1383662
3 1989.09 1382161
3 1989.57 1376109
3 1990.05 1374480
3 1990.05 1372778
3 1990.05 1372287
3 1990.05 1371400
3 1990.05 1368832
3 1990.59 1363813
3 1990.59 1362851
3 1991.57 1360804
3 1991.57 1359883
3 1991.57 1358869
3 1992.38 1356246
3 1992.38 1353577
3 1992.38 1349441
3 1993.91 1344650
3 1993.91 1342309
3 1995.46 1342083
3 2002.78 1512975
3 2002.78 1497604
3 2002.78 1469668
3 2002.78 1449996
3 2002.78 1449314
3 2002.78 1436901
3 2002.78 1425820
3 2002.78 1415229
3 2002.78 1386770
3 2002.78 1380514
3 2003.57 1378485
3 2004.05 1377249
3 2005.08 1371486
3 2005.08 1370252
3 2005.08 1369702
3 2005.08 1366316
3 2005.6 1366237
3 2005.6 1360825
3 2005.6 1358219
3 2006.15 1353363
3 2006.15 1349978
3 2008.44 1345244
3 2008.44 1343361
3 2008.44 1341616
3 2011.82 1341523
3 2012.55 1341124
3 2013.55 1341120
3 2016.17 1435259
3 2016.17 1414181
3 2016.17 1404979
3 2016.17 1402817
3 2016.17 1395633
3 2016.17 1391409
3 2016.17 1384964
3 2016.17 1383805
3 2017.08 1378477
3 2017.08 1373732
3 2017.08 1372707
3 2017.08 1370440
3 2017.08 1369648
3 2017.08 1358967
3 2017.71 1358503
3 2018.67 1354867
3 2018.67 1352304
3 2019.44 1350901
3 2020.21 1349703
3 2020.21 1348467
3 2020.21 1346573
3 2021.01 1346328
3 2021.78 1345716
3 2024.09 1344479
3 2024.09 1344296
3 2024.09 1341975
3 2024.09 1340029
3 2024.09 1339190
3 2030.51 1431757
3 2030.51 1430521
3 2030.51 1427179
3 2030.51 1424625
3 2031.17 1423476
3 2031.17 1416795
3 2031.17 1399467
3 2031.17 1395187
3 2031.68 1393505
3 2031.68 1383976
3 2031.68 1376936
3 2032.19 1376447
3 2032.19 1374896
3 2032.19 1371647
3 2032.19 1369591
3 2032.19 1365153
3 2032.19 1362872
3 2032.72 1361854
3 2032.72 1361151
3 2032.72 1359572
3 2034.29 1358336
3 2034.29 1355356
3 2035.11 1354564
3 2035.11 1351818
3 2035.11 1350182
3 2036.6 1348988
3 2039.37 1347292
3 2044.03 1457230
3 2044.03 1433959
3 2044.03 1430060
3 2044.03 1429241
3 2044.03 1416572
3 2044.03 1412806
3 2044.97 1401077
3 2044.97 1399933
3 2044.97 1393577
3 2044.97 1391473
3 2044.97 1390237
3 2045.56 1388318
3 2045.56 1387526
3 2045.56 1382283
3 2046.04 1374784
3 2046.04 1361089
3 2046.04 1354349
3 2046.04 1354346
3 2046.04 1344543
3 2046.63 1341881
3 2047.8 1339584
3 2048.64 1338348
3 2049.43 1338216
3 2049.43 1337484
3 2049.43 1334455
3 2058.55 1474246
3 2058.55 1471557
3 2058.55 1470840
3 2058.55 1458628
3 2058.55 1457672
3 2058.55 1452550
3 2058.55 1447259
3 2058.55 1443976
3 2058.55 1430556
3 2058.55 1424376
1 2058.55 1410926
3 2058.55 1404320
3 2058.55 1400806
3 2059.57 1399908
3 2059.57 1394531
3 2060.4 1393791
3 2061.22 1382520
3 2062.41 1380019
3 2062.91 1376120
3 2062.91 1374458
3 2064.43 1373195
3 2064.43 1372931
3 2064.43 1368640
3 2064.99 1361646
3 2064.99 1360103
3 2064.99 1359311
3 2064.99 1353415
3 2065.52 1352515
3 2065.52 1347561
3 2065.52 1347231
3 2065.52 1341429
3 2065.52 1340375
3 2066.06 1337465
3 2067.22 1337135
3 2067.22 1334576
3 2068 1333583
3 2069.52 1332822
3 2070.27 1330119
3 2072.38 1507102
3 2072.38 1459511
3 2072.38 1457372
3 2072.38 1434891
3 2072.38 1429665
3 2072.38 1429198
3 2072.38 1425936
3 2072.38 1418898
3 2072.38 1417586
3 2073.4 1409729
3 2073.4 1397936
3 2073.4 1392416
3 2073.4 1390927
3 2073.4 1390505
3 2073.4 1383684
3 2073.4 1356389
3 2073.4 1354076
3 2073.4 1353349
3 2074.35 1352140
3 2074.35 1352134
3 2074.35 1351042
3 2074.35 1348610
3 2074.35 1348214
3 2074.35 1348049
3 2074.35 1346887
3 2075.2 1346598
3 2075.2 1346143
3 2076.06 1345737
3 2076.06 1344796
3 2081.84 1344015
3 2082.45 1343680
3 2082.45 1343580
3 2085.26 1339094
3 2085.26 1336463
3 2085.26 1335807
3 2086.26 1428158
3 2086.26 1427280
3 2086.26 1425889
3 2086.26 1424773
3 2086.26 1405101
3 2086.26 1401940
3 2086.26 1397819
3 2086.26 1393958
3 2086.26 1392481
3 2086.26 1389341
3 2087.36 1387880
3 2087.36 1383180
3 2088.19 1378972
3 2088.19 1374826
3 2088.19 1369595
3 2088.19 1363724
3 2089.04 1354981
3 2089.04 1354552
3 2089.04 1351454
3 2090.42 1347411
3 2091.14 1347180
3 2091.77 1346719
3 2092.43 1345369
3 2092.9 1343950
3 2095.47 1341152
3 2096.25 1340151
3 2096.25 1339945
3 2097.05 1339250
3 2100.68 1409162
3 2100.68 1408633
3 2100.68 1403659
3 2100.68 1402275
3 2100.68 1393811
3 2101.42 1390549
3 2101.42 1384475
3 2102.45 1384471
3 2102.45 1383235
3 2102.45 1383070
3 2103.21 1382973
3 2104.01 1379464
3 2104.01 1371389
3 2104.01 1365442
3 2104.01 1364826
3 2104.82 1363421
3 2106.78 1362896
3 2106.78 1362499
3 2107.51 1357193
3 2107.51 1356990
3 2107.51 1356810
3 2107.51 1351994
3 2107.51 1351829
3 2107.51 1351057
3 2108.38 1350864
3 2110.12 1350405
3 2111.2 1349599
3 2111.2 1346652
3 2112 1343910
3 2114.3 1492775
3 2114.3 1477394
3 2114.3 1448935
3 2114.3 1447055
3 2114.3 1436358
3 2114.3 1416928
3 2114.3 1412156
3 2115.2 1411434
3 2115.2 1408797
3 2115.2 1406492
3 2115.2 1406194
3 2115.2 1405402
3 2116.06 1401503
3 2116.06 1395607
3 2116.86 1395016
3 2116.86 1394371
3 2116.86 1393488
3 2116.86 1388514
3 2116.86 1386893
3 2116.86 1386584
3 2117.44 1381814
3 2117.44 1380509
3 2117.44 1379436
3 2117.44 1378705
3 2117.44 1376560
3 2117.44 1376062
3 2118.24 1373390
3 2118.24 1371641
3 2118.24 1367741
3 2118.24 1367520
3 2119.06 1366949
3 2119.06 1363584
3 2119.06 1363328
3 2119.87 1361663
3 2119.87 1361292
3 2119.87 1360871
3 2120.66 1357454
3 2120.66 1356254
3 2122.2 1355985
3 2122.2 1354749
3 2122.98 1354633
3 2124.5 1354097
3 2124.5 1353537
3 2128.3 1389799
3 2128.3 1383656
3 2128.3 1382420
3 2128.3 1375632
3 2128.3 1372233
3 2128.3 1371765
3 2128.99 1371505
3 2128.99 1367635
3 2128.99 1363562
3 2128.99 1363253
3 2129.62 1357690
3 2129.62 1355667
3 2129.62 1351165
3 2129.62 1350714
3 2129.62 1350601
3 2131.26 1344207
3 2131.26 1338193
3 2131.26 1336906
3 2132.09 1334709
3 2134.42 1327890
3 2142.61 1456593
3 2142.61 1450515
3 2142.61 1448879
3 2142.61 1442917
3 2142.61 1434066
3 2143.48 1422978
3 2143.48 1422600
3 2143.48 1414638
3 2144.32 1413373
3 2144.32 1396403
3 2144.32 1394638
3 2144.32 1387154
3 2144.32 1381258
3 2144.32 1376284
3 2145.24 1375048
3 2146.03 1373597
3 2146.8 1373488
3 2149.42 1364988
3 2149.42 1364799
3 2149.42 1360719
3 2149.42 1359290
3 2149.42 1358342
3 2150.31 1351760
3 2150.31 1351549
3 2151.15 1348269
3 2151.94 1346524
3 2152.63 1345900
3 2152.63 1343320
3 2152.63 1341040
3 2153.25 1340623
3 2153.25 1339387
3 2153.25 1338595
3 2153.25 1336680
3 2153.86 1335393
3 2156.75 1452160
3 2156.75 1438158
3 2156.75 1423931
3 2156.75 1416881
3 2156.75 1413366
3 2156.75 1399947
3 2156.75 1397808
3 2156.75 1394298
3 2156.75 1383800
3 2156.75 1381675
3 2157.7 1371413
3 2157.7 1370621
3 2157.7 1362038
3 2157.7 1361692
3 2157.7 1360205
3 2157.7 1359699
3 2158.6 1358132
3 2158.6 1354830
3 2158.6 1351284
3 2158.6 1351060
3 2159.45 1343813
3 2160.24 1340193
3 2160.24 1339503
3 2160.24 1339401
3 2161.09 1337183
3 2161.09 1332209
3 2161.93 1330680
3 2162.7 1330397
3 2163.51 1327886
3 2166.03 1325747
3 2170.16 1496299
3 2170.16 1488427
3 2170.16 1456735
3 2170.16 1456053
3 2170.16 1453461
3 2170.16 1427106
3 2170.16 1420982
3 2170.16 1411962
3 2170.16 1408700
3 2170.16 1407401
3 2170.16 1398794
3 2170.16 1392480
3 2170.16 1385982
3 2171.18 1378397
3 2171.18 1374944
3 2171.18 1373929
3 2171.18 1373604
3 2171.18 1370405
3 2172.06 1360146
3 2172.06 1352208
3 2173.46 1349815
3 2173.46 1348491
3 2173.95 1347255
3 2173.95 1344837
3 2178.54 1344438
3 2178.54 1342110
3 2178.54 1341473
3 2179.44 1340359
3 2179.44 1339429
3 2179.44 1337868
3 2180.24 1337087
3 2180.24 1334493
3 2181.04 1333960
3 2181.04 1332427
3 2181.04 1330592
3 2182.66 1330075
3 2183.15 1329878
3 2184.62 1479419
3 2184.62 1478183
3 2184.62 1471504
3 2184.62 1445797
3 2184.62 1432963
3 2184.62 1426337
3 2184.62 1424697
3 2184.62 1419206
3 2184.62 1415944
3 2184.62 1414708
3 2184.62 1413284
3 2185.62 1407875
3 2185.62 1399141
3 2185.62 1396062
3 2185.62 1391297
3 2186.45 1389207
3 2186.45 1385832
3 2189.45 1378668
3 2189.45 1376955
3 2189.45 1374769
3 2189.45 1374580
3 2189.45 1373115
3 2191.09 1363702
3 2191.87 1362136
3 2192.66 1361377
3 2192.66 1360045
3 2193.73 1358200
3 2194.23 1357174
3 2194.9 1352200
3 2195.41 1351408
3 2195.41 1350900
3 2196.38 1350876
3 2196.9 1349891
3 2196.9 1347330
3 2197.86 1346094
3 2198.32 1476425
3 2198.32 1471448
3 2198.32 1470934
3 2198.32 1464856
3 2198.32 1463181
3 2198.89 1454848
3 2198.89 1442043
3 2198.89 1430892
3 2198.89 1427095
3 2198.89 1417222
3 2199.43 1411139
3 2199.43 1408078
3 2199.43 1399471
3 2199.43 1399274
3 2200.26 1376734
3 2200.26 1374869
3 2200.26 1373925
3 2200.26 1369681
3 2200.26 1366740
3 2201.16 1365684
3 2201.96 1365229
3 2201.96 1360155
3 2201.96 1359235
3 2202.78 1357725
3 2203.6 1354463
3 2204.42 1352721
3 2212.27 1491495
3 2212.27 1459945
3 2212.27 1453946
3 2212.27 1444007
3 2212.27 1428594
3 2212.27 1410772
3 2212.27 1380289
3 2212.27 1374912
3 2212.27 1365852
3 2212.27 1364026
3 2213.23 1363078
3 2213.23 1357989
3 2214.4 1356967
3 2214.4 1353366
3 2214.4 1350221
3 2214.97 1349386
3 2214.97 1348662
3 2214.97 1348631
3 2214.97 1347151
3 2215.47 1345426
3 2215.47 1341533
3 2215.94 1341189
3 2218.05 1340217
3 2218.05 1339586
3 2219.61 1339014
3 2226.62 1419775
3 2226.62 1417954
3 2226.62 1411915
3 2226.62 1404046
3 2226.62 1399239
3 2226.62 1383553
3 2226.62 1381762
3 2227.39 1373386
3 2227.39 1373155
3 2227.39 1366385
3 2227.39 1364788
3 2227.39 1363022
3 2227.39 1350840
3 2227.39 1348811
3 2227.93 1339799
3 2227.93 1332427
3 2228.42 1329729
3 2228.94 1329542
3 2228.94 1329539
3 2230.84 1329175
3 2231.32 1325745
3 2231.79 1325066
3 2231.79 1324961
3 2231.79 1324201
3 2232.28 1323830
3 2232.74 1320016
3 2232.74 1319832
3 2232.74 1318701
3 2232.74 1317236
3 2238.92 1317125
3 2240.13 1491110
3 2240.13 1490393
3 2240.13 1479312
3 2240.13 1477173
3 2240.13 1451929
3 2240.13 1438337
3 2240.13 1436733
3 2240.13 1394334
3 2240.13 1384692
3 2240.13 1375353
3 2240.13 1374811
3 2241.09 1373214
3 2241.09 1365694
3 2241.9 1363420
3 2241.9 1362907
3 2242.72 1361841
3 2242.72 1360768
3 2242.72 1357600
3 2242.72 1356353
3 2243.55 1356259
3 2243.55 1356253
3 2244.34 1355817
3 2245.12 1355025
3 2245.89 1353197
3 2245.89 1350261
3 2246.67 1349651
3 2246.67 1348090
3 2247.47 1347372
3 2247.47 1346388
3 2248.27 1344072
3 2249.04 1343391
3 2249.83 1342155
3 2251.95 1341274
3 2252.68 1338688
3 2253.38 1337850
3 2253.38 1337387
3 2253.86 1337335
3 2254.37 1483046
3 2254.37 1449769
3 2254.37 1439428
3 2254.37 1427360
3 2254.37 1418541
3 2254.37 1415582
3 2254.37 1414192
3 2254.99 1404808
3 2254.99 1395467
3 2254.99 1395103
3 2254.99 1393049
3 2254.99 1390295
3 2254.99 1389059
3 2254.99 1385797
3 2255.61 1382999
3 2255.61 1371183
3 2257.69 1364170
3 2258.21 1363907
3 2258.68 1363519
3 2258.68 1359930
3 2259.17 1357820
3 2259.74 1352676
3 2260.32 1352339
3 2260.32 1351765
3 2260.93 1350965
3 2261.39 1349819
3 2261.39 1347680
3 2261.39 1347590
3 2268.01 1487086
3 2268.01 1461580
3 2268.01 1459551
3 2268.01 1452419
3 2268.01 1446457
3 2268.01 1430164
3 2268.01 1422693
3 2268.01 1399762
3 2268.6 1398589
3 2268.6 1396117
3 2269.1 1388633
3 2269.1 1388630
3 2269.64 1384253
3 2269.64 1383476
3 2270.13 1381609
3 2270.13 1379470
3 2270.13 1368917
3 2270.13 1366888
3 2270.13 1361605
3 2270.13 1357484
3 2270.7 1355864
3 2270.7 1355784
3 2271.23 1349352
3 2271.23 1347915
3 2271.23 1347795
3 2271.72 1344547
3 2278.26 1341899
3 2280.54 1340317
3 2282.06 1474649
3 2282.06 1468978
3 2282.06 1460757
3 2282.06 1456821
3 2282.06 1441700
3 2282.06 1429302
3 2282.06 1425403
3 2282.95 1423799
3 2282.95 1420113
3 2282.95 1417974
3 2283.75 1417596
3 2283.75 1415945
3 2283.75 1408529
3 2283.75 1398404
3 2283.75 1397751
3 2283.75 1396664
3 2283.75 1396528
3 2284.61 1388698
3 2286.95 1383282
3 2286.95 1382046
3 2287.74 1381182
3 2287.74 1380557
3 2287.74 1374072
3 2288.68 1373024
3 2289.13 1371788
3 2289.82 1371724
3 2290.94 1369668
3 2296.42 1456141
3 2296.42 1452259
3 2296.42 1447541
3 2296.42 1435329
3 2296.42 1407093
3 2296.42 1399589
3 2297.3 1398400
3 2297.3 1386518
3 2297.3 1375300
3 2297.88 1374528
3 2298.36 1372499
3 2298.84 1372310
3 2299.81 1370765
3 2300.3 1368756
3 2300.3 1368466
3 2300.3 1364567
3 2300.82 1364162
3 2300.82 1360179
3 2301.78 1355457
3 2305.68 1355040
3 2305.68 1352483
3 2305.68 1352434
3 2306.38 1348589
3 2307.21 1348535
3 2307.21 1347947
3 2307.72 1347912
3 2309.67 1347372
3 2309.67 1347205
3 2309.67 1345169
3 2310.17 1478337
3 2310.17 1461108
3 2310.17 1452097
3 2310.17 1446019
3 2310.17 1426989
3 2310.17 1413505
3 2310.17 1403122
3 2310.17 1398489
3 2310.17 1387106
3 2310.17 1379349
3 2310.76 1377713
3 2310.76 1373123
3 2310.76 1367745
3 2310.76 1366631
3 2310.76 1364492
3 2311.52 1357979
3 2311.52 1355576
3 2312.36 1355187
3 2312.36 1354447
3 2312.36 1352510
3 2312.36 1351841
3 2312.36 1347157
3 2314.08 1346548
3 2315.73 1344992
3 2316.24 1341260
3 2317.01 1340095
3 2317.01 1338639
3 2317.8 1337847
3 2322.56 1337244
3 2324.16 1451750
3 2324.16 1445788
3 2324.16 1422551
3 2324.16 1419039
3 2324.16 1390580
3 2324.16 1390099
3 2324.16 1387311
3 2324.16 1378462
3 2324.16 1377382
3 2324.16 1374919
3 2325.03 1374238
3 2325.03 1373026
3 2325.03 1367199
3 2325.51 1365239
3 2325.51 1361361
3 2325.51 1360863
3 2325.51 1360146
3 2325.51 1358651
3 2326.52 1357449
3 2326.52 1356702
3 2326.52 1356623
3 2327.06 1353682
3 2327.55 1348396
3 2328.07 1348311
3 2328.56 1347751
3 2329.06 1346336
3 2329.96 1344432
3 2329.96 1342042
3 2329.96 1337007
3 2329.96 1335579
3 2330.8 1335488
3 2331.38 1330089
3 2331.84 1329423
3 2331.84 1329053
3 2331.84 1327089
3 2334.81 1326365
3 2334.81 1324855
3 2335.32 1322526
3 2337.62 1322425
3 2338.08 1419042
3 2338.08 1405450
3 2338.08 1402188
3 2338.08 1398990
3 2338.08 1394340
3 2338.62 1390857
3 2338.62 1390520
3 2338.62 1386621
3 2339.27 1385163
3 2339.27 1379672
3 2339.27 1377528
3 2339.27 1377416
3 2339.81 1375432
3 2339.81 1373659
3 2340.33 1369055
3 2340.33 1357724
3 2340.33 1353895
3 2340.84 1353529
3 2340.84 1351866
3 2340.84 1350461
3 2342.43 1350071
3 2342.43 1348339
3 2343.28 1348242
3 2344.08 1347377
3 2344.08 1344760
3 2344.94 1344271
3 2345.71 1343365
3 2346.33 1343169
3 2346.33 1341933
3 2346.82 1341379
3 2346.82 1339589
3 2346.82 1336632
3 2347.38 1333740
3 2347.88 1329521
3 2348.37 1328139
3 2348.37 1328025
3 2352.43 1466362
3 2352.43 1466208
3 2352.43 1455978
3 2352.43 1450951
3 2352.43 1449315
3 2352.43 1448433
3 2352.43 1432680
3 2352.43 1426036
3 2352.43 1419958
3 2352.43 1419835
3 2352.43 1408045
3 2352.43 1406657
3 2353.43 1403569
3 2353.43 1392506
3 2353.43 1391357
3 2353.43 1390427
3 2353.43 1388288
3 2353.43 1387455
3 2353.43 1380370
3 2353.43 1379269
3 2354.16 1377714
3 2354.16 1374526
3 2354.16 1371894
3 2354.16 1370929
3 2354.16 1370648
3 2354.16 1368569
3 2354.16 1366540
3 2354.69 1364257
3 2354.69 1361254
3 2354.69 1360289
3 2355.33 1358074
3 2355.33 1354567
3 2355.81 1354437
3 2355.81 1354331
3 2356.4 1353548
3 2357.18 1347420
3 2357.18 1343615
3 2358.01 1343375
3 2358.79 1342379
3 2366.35 1453557
3 2366.35 1446454
3 2366.35 1444510
3 2366.35 1443641
3 2366.35 1437122
3 2366.35 1424838
3 2367.18 1421894
3 2367.18 1421483
3 2367.18 1417969
3 2367.18 1408291
3 2367.18 1407300
3 2368.01 1398352
3 2368.01 1397654
3 2368.01 1394628
3 2368.01 1392954
3 2368.78 1387481
3 2368.78 1382067
3 2369.31 1382066
3 2369.31 1381403
3 2369.31 1380611
3 2369.88 1380037
3 2370.35 1377925
3 2370.35 1376469
3 2370.9 1375233
3 2370.9 1373506
3 2370.9 1368255
3 2371.41 1364820
3 2371.93 1364815
3 2371.93 1363021
3 2371.93 1362494
3 2371.93 1360992
3 2373.03 1359049
3 2380.01 1477753
3 2380.01 1475309
3 2380.01 1443263
3 2380.01 1429273
3 2380.01 1416908
3 2380.01 1416191
3 2380.01 1415416
3 2380.81 1391079
3 2380.81 1388303
3 2380.81 1384360
3 2380.81 1384248
3 2380.81 1382687
3 2380.81 1379064
3 2380.81 1372317
3 2380.81 1366721
3 2380.81 1364758
3 2380.81 1362757
3 2381.59 1358617
3 2381.59 1355070
3 2381.59 1351316
3 2381.59 1346066
3 2382.19 1344748
3 2383.4 1340327
3 2384.22 1337616
3 2390.32 1336905
3 2390.32 1332809
3 2390.85 1331627
3 2391.76 1326675
3 2394.03 1421925
3 2394.03 1410289
3 2394.03 1404530
3 2394.03 1401989
3 2394.03 1401428
3 2394.03 1392638
3 2394.03 1391073
3 2394.03 1389300
3 2394.03 1379263
3 2394.03 1376757
3 2394.03 1355549
3 2394.03 1352567
3 2395.01 1350967
3 2395.79 1348730
3 2395.79 1347938
3 2395.79 1346492
3 2396.58 1345920
3 2397.18 1343891
3 2398.62 1343835
3 2408.7 1439203
3 2408.7 1437034
3 2408.7 1436002
3 2408.7 1429204
3 2408.7 1419445
3 2408.7 1411000
3 2408.7 1408566
3 2408.7 1407066
3 2409.61 1401434
3 2409.61 1399325
3 2409.61 1398903
3 2409.61 1398089
3 2410.44 1395769
3 2410.44 1389807
3 2410.44 1388571
3 2410.44 1388311
3 2410.44 1385217
3 2411.33 1384311
3 2411.33 1371838
3 2411.33 1370538
3 2411.33 1363072
3 2413.38 1362233
3 2413.38 1361415
3 2414.83 1361137
3 2414.83 1359276
3 2415.46 1358627
3 2415.96 1350797
3 2415.96 1349561
3 2422.32 1489468
3 2422.32 1463113
3 2422.32 1431067
3 2422.32 1425389
3 2422.32 1422396
3 2422.32 1417187
3 2422.32 1396347
3 2422.32 1391386
3 2423.02 1385308
3 2423.02 1383109
3 2423.02 1381943
3 2423.02 1381040
3 2423.02 1379970
3 2423.02 1375934
3 2423.89 1372672
3 2423.89 1369843
3 2424.67 1368290
3 2424.67 1367421
3 2425.45 1363947
3 2425.45 1362711
3 2428.48 1361575
3 2428.48 1361416
3 2428.48 1359382
3 2429.28 1357911
3 2429.28 1353917
3 2429.85 1352681
3 2430.34 1350652
3 2436.09 1438403
3 2436.09 1431803
3 2436.09 1428541
3 2436.09 1425272
3 2436.09 1391205
3 2436.09 1390625
3 2436.09 1384729
3 2436.8 1371620
3 2436.8 1371054
3 2436.8 1359053
3 2436.8 1358002
3 2436.8 1357984
3 2437.52 1353863
3 2437.52 1351385
3 2441.54 1351080
3 2442 1351063
3 2442.52 1349354
3 2443.02 1349080
3 2445.07 1348469
3 2445.07 1347935
3 2445.07 1347377
3 2445.59 1346428
3 2446.11 1345104
3 2446.57 1345058
3 2447.1 1343143
3 2447.56 1342762
3 2447.56 1341202
3 2448.03 1341105
3 2448.03 1340791
3 2448.57 1338890
3 2448.57 1334503
3 2448.57 1333147
3 2449.05 1330442
3 2449.81 1330164
3 2450.59 1405168
3 2450.59 1401047
3 2450.59 1399174
3 2451.48 1397617
3 2451.48 1380651
3 2452.34 1375671
3 2452.34 1374207
3 2452.34 1370393
3 2453.16 1368310
3 2453.16 1365640
3 2453.93 1365482
3 2453.93 1364672
3 2453.93 1362704
3 2454.54 1360689
3 2454.54 1357464
3 2455.34 1353396
3 2455.34 1349551
3 2455.34 1349481
3 2455.34 1349318
3 2456.18 1348301
3 2456.97 1347311
3 2457.79 1347137
3 2457.79 1347088
3 2457.79 1345119
3 2457.79 1342538
3 2458.62 1341302
3 2458.62 1340101
3 2459.42 1339845
3 2460.2 1339787
3 2460.2 1332426
3 2460.86 1331266
3 2461.34 1329822
3 2461.34 1329403
3 2461.8 1328904
3 2461.8 1328611
3 2462.29 1328133
3 2463.27 1327728
3 2464.24 1468196
3 2464.24 1455169
3 2464.24 1445570
3 2464.24 1426696
3 2464.24 1423860
3 2464.77 1419949
3 2464.77 1419907
3 2464.77 1408123
3 2464.77 1402161
3 2465.3 1400591
3 2465.3 1398707
3 2465.3 1395557
3 2465.3 1394568
3 2465.3 1389752
3 2465.3 1387613
3 2465.83 1383492
3 2470.56 1365360
3 2471.36 1362142
3 2471.36 1353966
3 2471.36 1351205
3 2472.22 1349836
3 2473 1346177
3 2473.97 1345704
3 2478.02 1460345
3 2478.02 1452488
3 2478.02 1426982
3 2478.02 1401099
3 2478.02 1400012
3 2478.81 1380835
3 2478.81 1373619
3 2479.62 1366487
3 2479.62 1365877
3 2481.25 1361421
3 2481.25 1355461
3 2481.25 1354226
3 2482.06 1353405
3 2485.13 1351266
3 2485.92 1348931
3 2485.92 1348758
3 2486.71 1347966
3 2487.48 1345029
3 2488.27 1343941
3 2488.27 1343392
3 2489.08 1341201
3 2492.19 1417387
3 2492.19 1411435
3 2492.19 1396621
3 2492.19 1394482
3 2492.19 1393526
3 2492.19 1388909
3 2492.19 1377715
3 2492.19 1377611
3 2492.19 1370467
3 2492.19 1368101
3 2492.78 1367431
3 2492.78 1367018
3 2493.31 1366115
3 2493.31 1364619
3 2493.31 1360577
3 2493.31 1359537
3 2493.84 1351145
3 2493.84 1347850
3 2493.84 1346735
3 2493.84 1343961
3 2493.84 1342249
3 2498.2 1341124
3 2504.72 1340557
3 2504.72 1340262
3 2506.29 1477318
3 2506.29 1454744
3 2506.29 1451034
3 2506.29 1439570
3 2506.92 1434079
3 2506.92 1433327
3 2507.42 1427249
3 2507.42 1415438
3 2507.42 1405724
3 2507.42 1405474
3 2507.42 1405064
3 2507.42 1402241
3 2507.42 1401460
3 2508.2 1396442
3 2508.2 1394565
3 2508.2 1390459
3 2508.2 1389960
3 2508.2 1386359
3 2508.2 1377910
3 2508.2 1375424
3 2509 1372500
3 2509 1369288
3 2509 1367962
3 2509.52 1363841
3 2509.52 1359942
3 2509.52 1356006
3 2510.02 1355897
3 2513.73 1354427
3 2516.39 1353567
3 2516.39 1349741
3 2516.9 1348505
3 2517.66 1347950
3 2517.66 1346879
3 2520.09 1463831
3 2520.09 1463396
3 2520.09 1431509
3 2520.09 1424471
3 2520.09 1422845
3 2520.09 1421823
3 2520.09 1403542
3 2520.09 1398328
3 2520.09 1397611
3 2520.86 1395591
3 2520.86 1393452
3 2520.86 1389924
3 2520.86 1385695
3 2520.86 1375117
3 2520.86 1370996
3 2520.86 1369415
3 2521.53 1365505
3 2521.53 1364886
3 2521.53 1362972
3 2521.53 1360833
3 2521.53 1360765
3 2522.39 1358373
3 2523.67 1356695
3 2523.67 1356533
3 2523.67 1355787
3 2523.67 1355318
3 2523.67 1354082
3 2524.21 1350455
3 2524.21 1350098
3 2524.21 1348204
3 2528.83 1344585
3 2528.83 1341868
3 2528.83 1339800
3 2528.83 1339118
3 2529.46 1338270
3 2529.93 1336318
3 2529.93 1335519
3 2530.93 1331114
3 2531.62 1330322
3 2531.62 1329609
3 2532.44 1327967
3 2532.44 1327019
3 2533.25 1324127
3 2534.42 1437712
3 2534.42 1416970
3 2534.42 1406972
3 2534.42 1399934
3 2534.42 1398298
3 2534.42 1397526
3 2534.42 1393064
3 2534.42 1392552
3 2534.42 1390053
3 2535.34 1388817
3 2536.84 1382921
3 2536.84 1375853
3 2536.84 1375277
3 2536.84 1374077
3 2536.84 1367775
3 2537.35 1365533
3 2537.35 1365098
3 2537.35 1364920
3 2537.35 1364869
3 2537.35 1363421
3 2538.05 1362398
3 2538.82 1360156
3 2538.82 1356915
3 2540.38 1356747
3 2540.38 1353082
3 2541.18 1352974
3 2541.74 1352425
3 2541.74 1346749
3 2541.74 1342697
3 2544.45 1339440
3 2544.45 1338528
3 2545.24 1338221
3 2546 1337292
3 2548.35 1442569
3 2548.35 1440916
3 2548.35 1435425
3 2548.35 1433799
3 2548.35 1424766
3 2548.35 1422627
3 2548.35 1415495
3 2548.9 1404610
3 2548.9 1401230
3 2549.47 1388734
3 2549.47 1386179
3 2549.47 1383167
3 2549.47 1380013
3 2549.47 1373299
3 2549.47 1371160
3 2549.47 1367869
3 2549.47 1364817
3 2550.4 1363060
3 2551.19 1354273
3 2554.72 1349567
3 2554.72 1342327
3 2562.12 1514467
3 2562.12 1514100
3 2562.12 1507036
3 2562.12 1501545
3 2562.12 1494304
3 2562.12 1475758
3 2562.12 1469550
3 2562.12 1465990
3 2562.12 1462728
3 2562.7 1455660
3 2562.7 1433014
3 2562.7 1412472
3 2562.7 1400767
3 2562.7 1399748
3 2562.7 1392244
3 2562.7 1388717
3 2563.29 1383821
3 2563.29 1377380
3 2563.29 1373259
3 2563.29 1371855
3 2563.29 1371854
3 2563.88 1370756
3 2564.36 1370522
3 2564.36 1370242
3 2564.36 1368906
3 2565.35 1367345
3 2566.3 1365484
3 2566.3 1364083
3 2573.85 1359692
3 2576.41 1501588
3 2576.41 1475233
3 2576.41 1440188
3 2576.41 1437517
3 2576.41 1432822
3 2576.41 1427331
3 2576.41 1423051
3 2576.41 1422396
3 2576.99 1418510
3 2576.99 1416361
3 2576.99 1412216
3 2576.99 1392298
3 2576.99 1390662
3 2576.99 1389597
3 2577.52 1375423
3 2577.52 1366476
3 2577.52 1365335
3 2577.52 1365032
3 2577.52 1362098
3 2577.52 1355526
3 2577.52 1354871
3 2577.52 1352468
3 2578.18 1352022
3 2578.18 1349358
3 2578.18 1348036
3 2578.68 1346604
3 2578.68 1344769
3 2578.68 1339278
3 2580.45 1339134
3 2580.45 1336995
3 2581.26 1336340
3 2581.26 1332223
3 2582.4 1330987
3 2590.68 1471342
3 2590.68 1445923
3 2590.68 1437316
3 2590.68 1425082
3 2590.68 1418403
3 2590.68 1415317
3 2591.47 1412536
3 2591.47 1393135
3 2591.47 1376046
3 2591.98 1373477
3 2591.98 1372314
3 2591.98 1370462
3 2591.98 1367515
3 2592.53 1366279
3 2592.53 1364936
3 2593.01 1362012
3 2593.59 1360225
3 2593.59 1355296
3 2593.59 1354496
3 2593.59 1353580
3 2594.37 1352746
3 2594.37 1352344
3 2594.37 1349584
3 2594.37 1347548
3 2595.51 1346112
3 2595.51 1341470
3 2604.44 1442323
3 2604.44 1432790
3 2604.44 1417721
3 2604.44 1412914
3 2604.44 1403946
3 2605.32 1402710
3 2605.32 1397464
3 2605.32 1396081
3 2605.32 1390332
3 2606.16 1386110
3 2608.07 1385329
3 2608.56 1385180
3 2609.07 1381624
3 2609.07 1381517
3 2610.49 1380259
3 2610.49 1380228
3 2610.49 1379343
3 2610.49 1378417
3 2611.1 1377868
3 2611.58 1373969
3 2613.09 1372521
3 2613.09 1370419
3 2613.09 1369183
3 2613.09 1368423
3 2613.09 1367059
3 2613.09 1366770
3 2614.07 1365534
3 2614.07 1364938
3 2614.72 1363287
3 2615.67 1359166
3 2618.12 1505344
3 2618.12 1497185
3 2618.12 1467632
3 2618.12 1467600
3 2618.12 1456747
3 2618.12 1428288
3 2618.12 1401422
3 2618.12 1394686
3 2618.12 1388208
3 2618.12 1383234
3 2618.12 1380208
3 2618.12 1376102
3 2619.1 1375870
3 2619.1 1375527
3 2619.1 1374967
3 2619.9 1374258
3 2619.9 1371912
3 2619.9 1368602
3 2620.7 1362927
3 2620.7 1358064
3 2620.7 1354906
3 2620.7 1353421
3 2622.3 1352697
3 2622.3 1352535
3 2622.3 1351166
3 2622.3 1348321
3 2622.3 1346237
3 2623.16 1345880
3 2623.98 1344213
3 2623.98 1342213
3 2623.98 1340951
3 2625.06 1340685
3 2625.54 1339808
3 2626.47 1339735
3 2626.93 1336184
3 2626.93 1336090
3 2626.93 1334688
3 2626.93 1332828
3 2627.53 1332198
3 2629.51 1331293
3 2630.03 1330758
3 2630.03 1330306
3 2631.98 1329860
3 2631.98 1329264
3 2632.46 1434524
3 2632.46 1432737
3 2632.46 1431501
3 2632.46 1428063
3 2632.46 1425836
3 2633.1 1425805
3 2633.1 1425467
3 2633.1 1421531
3 2633.1 1411301
3 2633.1 1408089
3 2633.1 1402127
3 2633.1 1400107
3 2633.65 1398835
3 2633.65 1393205
3 2633.65 1391347
3 2634.24 1388085
3 2634.24 1380626
3 2634.24 1377873
3 2635.87 1377823
3 2635.87 1376561
3 2636.62 1376077
3 2636.62 1371010
3 2636.62 1369888
3 2639.24 1369118
3 2639.24 1362098
3 2639.24 1356287
3 2640.07 1356171
3 2640.88 1350119
3 2646.22 1496062
3 2646.22 1455868
3 2646.22 1447696
3 2646.22 1430011
3 2646.84 1428624
3 2646.84 1428426
3 2646.84 1427010
3 2646.84 1422889
3 2646.84 1418990
3 2646.84 1400747
3 2646.84 1398194
3 2647.4 1396015
3 2647.4 1393423
3 2647.4 1391577
3 2647.4 1380894
3 2647.95 1380361
3 2647.95 1379664
3 2647.95 1377986
3 2650.02 1377843
3 2650.02 1373309
3 2650.02 1373108
3 2651.38 1368044
3 2651.38 1364447
3 2651.38 1363079
3 2652.15 1361701
3 2652.94 1350927
3 2653.64 1348656
3 2653.64 1347312
3 2654.91 1341234
3 2660.5 1422388
3 2660.5 1404968
3 2660.5 1395129
3 2660.5 1394710
3 2660.5 1390109
3 2660.5 1389079
3 2660.5 1386637
3 2661.55 1382638
3 2661.55 1379925
3 2661.55 1376042
3 2661.55 1375888
3 2662.39 1370963
3 2662.39 1367041
3 2662.39 1363994
3 2662.39 1363017
3 2662.39 1353109
3 2663.77 1351677
3 2663.77 1347848
3 2663.77 1346975
3 2663.77 1346260
3 2664.78 1343979
3 2664.78 1340200
3 2664.78 1338171
3 2666.39 1335508
3 2674.53 1449412
3 2674.53 1448176
3 2674.53 1437291
3 2674.53 1429930
3 2674.53 1423380
3 2674.53 1421351
3 2674.53 1407957
3 2674.53 1407685
3 2675.44 1389313
3 2675.44 1383266
3 2675.44 1379202
3 2675.44 1378655
3 2676.26 1373164
3 2676.26 1369156
3 2676.26 1367086
3 2676.26 1364395
3 2676.26 1361403
3 2676.26 1360167
3 2676.26 1357521
3 2677.89 1357422
3 2677.89 1352258
3 2680.41 1352105
3 2686.79 1350028
3 2687.62 1346766
3 2687.62 1346197
3 2688.58 1428694
3 2688.58 1406900
3 2688.58 1405901
3 2688.58 1401666
3 2688.58 1385048
3 2689.14 1375544
3 2689.14 1370916
3 2689.76 1366201
3 2690.53 1362287
3 2690.53 1361211
3 2690.53 1359494
3 2690.53 1359072
3 2691.45 1358420
3 2691.45 1356208
3 2691.45 1353679
3 2691.45 1353641
3 2691.45 1352959
3 2692.53 1352345
3 2692.53 1351109
3 2692.53 1349667
3 2692.53 1348577
3 2692.53 1342615
3 2692.53 1341947
3 2692.53 1340451
3 2693.37 1340046
3 2693.37 1338685
3 2693.37 1338377
3 2694.16 1334478
3 2695.66 1332712
3 2695.66 1328622
3 2696.43 1327775
3 2696.43 1326253
3 2696.43 1321076
3 2697.15 1319932
3 2700.45 1319429
3 2702.53 1471958
3 2702.53 1452320
3 2702.53 1434842
3 2702.53 1433606
3 2702.53 1427867
3 2702.53 1423895
3 2702.53 1403592
3 2703.31 1395799
3 2703.31 1392707
3 2703.31 1390678
3 2703.31 1377713
3 2703.31 1374312
3 2703.31 1369748
3 2703.86 1367871
3 2703.86 1366747
3 2704.37 1359909
3 2704.37 1357557
3 2704.37 1356321
3 2706.51 1353894
3 2707.29 1353583
3 2707.29 1353431
3 2709.8 1352991
3 2710.61 1349903
3 2711.24 1342139
3 2711.24 1337923
3 2712 1334986
3 2712 1334770
3 2712.79 1332782
3 2713.75 1332762
3 2715.7 1329504
3 2716.32 1421867
3 2716.32 1415905
3 2716.32 1414669
3 2716.32 1411886
3 2716.32 1411407
3 2716.32 1408229
3 2716.32 1400937
3 2716.32 1394859
3 2717.03 1384597
3 2717.03 1384102
3 2717.03 1374434
3 2717.03 1374150
3 2717.03 1365862
3 2717.03 1362635
3 2717.83 1360606
3 2717.83 1358467
3 2718.8 1356278
3 2719.64 1355147
3 2719.64 1351015
3 2720.49 1348830
3 2723.36 1348282
3 2723.36 1346517
3 2725.72 1345158
3 2727.64 1343522
3 2728.96 1342461
3 2728.96 1340788
3 2728.96 1338832
3 2730.14 1488109
3 2730.14 1477224
3 2730.14 1462710
3 2730.14 1460603
3 2730.14 1454641
3 2730.14 1451379
3 2730.14 1449329
3 2730.14 1413040
3 2730.14 1398717
3 2730.14 1397481
3 2730.14 1396683
3 2730.95 1393195
3 2730.95 1390605
3 2731.46 1386886
3 2731.46 1382659
3 2731.46 1381377
3 2731.98 1377507
3 2731.98 1372169
3 2732.47 1370933
3 2732.47 1364192
3 2732.96 1362895
3 2732.96 1360776
3 2733.53 1360293
3 2733.53 1358619
3 2734.02 1355870
3 2734.68 1355508
3 2734.68 1353952
3 2734.68 1351997
3 2734.68 1350273
3 2734.68 1349858
3 2735.83 1348252
3 2736.86 1346988
3 2744.09 1502663
3 2744.09 1465608
3 2744.09 1427892
3 2744.09 1422908
3 2744.09 1418791
3 2744.09 1417555
3 2744.09 1410911
3 2744.09 1407012
3 2744.09 1397047
3 2744.85 1394908
3 2744.85 1394084
3 2744.85 1393238
3 2745.72 1391141
3 2746.65 1385581
3 2746.65 1385063
3 2747.5 1380607
3 2747.5 1369439
3 2748.3 1366738
3 2748.3 1365946
3 2748.3 1364710
3 2749.04 1357956
3 2749.04 1356853
3 2749.04 1354047
3 2749.04 1353477
3 2749.04 1352474
3 2749.67 1351904
3 2749.67 1346508
3 2750.32 1346502
3 2753.09 1345710
3 2758.31 1444971
3 2758.31 1435123
3 2758.31 1420983
3 2758.31 1406469
3 2758.31 1406001
3 2758.31 1388023
3 2758.31 1382127
3 2758.31 1380066
3 2758.31 1379558
3 2758.31 1378380
3 2759.26 1378215
3 2759.26 1377878
3 2759.26 1375904
3 2760.09 1375707
3 2760.09 1375697
3 2760.09 1374307
3 2760.09 1372346
3 2760.95 1370926
3 2760.95 1364918
3 2760.95 1364041
3 2760.95 1359964
3 2760.95 1357345
3 2762.61 1356091
3 2762.61 1354971
3 2762.61 1354206
3 2762.61 1354090
3 2762.61 1352901
3 2768.4 1350093
3 2770.34 1349497
3 2772.66 1480767
3 2772.66 1462136
3 2772.66 1447622
3 2772.66 1441614
3 2772.66 1424317
3 2772.66 1420470
3 2772.66 1400047
3 2772.66 1397124
3 2772.66 1391623
3 2772.66 1389294
3 2772.66 1388058
3 2772.66 1385553
3 2773.7 1384105
3 2773.7 1383975
3 2773.7 1383866
3 2773.7 1381593
3 2773.7 1379615
3 2773.7 1377954
3 2774.55 1373698
3 2774.55 1368646
3 2774.55 1366905
3 2774.55 1361313
3 2775.38 1356733
3 2776.15 1356544
3 2776.15 1354908
3 2776.15 1352769
3 2776.15 1348200
3 2776.15 1345579
3 2776.71 1344525
3 2777.16 1343758
3 2777.16 1343209
3 2777.16 1339637
3 2778.18 1337055
3 2778.18 1333675
3 2779.14 1332039
3 2782.37 1328694
3 2783.16 1328465
3 2783.16 1328086
3 2783.97 1325473
3 2783.97 1324237
3 2786.18 1483447
3 2786.18 1469307
1 2786.18 1460846
3 2786.18 1446556
3 2786.18 1432864
3 2786.72 1422471
3 2786.72 1408602
3 2786.72 1391942
3 2787.55 1388505
3 2787.55 1387713
3 2788.36 1382260
3 2788.36 1381024
3 2789.22 1369836
3 2790.79 1367702
3 2790.79 1365178
3 2791.56 1359801
3 2792.34 1358038
3 2792.34 1355708
3 2792.84 1353594
3 2792.84 1351305
3 2793.59 1348438
3 2793.59 1345188
3 2795.91 1345144
3 2796.68 1344773
3 2796.68 1341335
3 2796.68 1338012
3 2798 1337641
3 2798.51 1337361
3 2799.06 1337187
3 2799.72 1336590
query_times: 253
Score = 1321644
