    Blocking waiting for file lock on package cache
    Blocking waiting for file lock on package cache
    Blocking waiting for file lock on package cache
    Blocking waiting for file lock on package cache
    Blocking waiting for file lock on build directory
    Finished release [optimized] target(s) in 0.04s
     Running `target/release/tester ../a.out 0058`
3 2.551 1568878
3 2.551 1523439
3 2.551 1498660
3 2.551 1496181
3 2.551 1465822
3 2.551 1433100
3 3.249 1430066
3 3.249 1381085
3 3.249 1354595
3 3.857 1351967
3 3.857 1347044
3 3.857 1330543
3 3.857 1330487
3 3.857 1327182
3 3.857 1320197
3 4.563 1320003
3 6.584 1317285
3 7.546 1311932
3 7.546 1305630
3 7.546 1301354
3 7.546 1299796
3 8.536 1294133
3 9.463 1292094
3 9.463 1290153
3 10.172 1288323
3 10.744 1288180
3 13.803 1286766
3 13.803 1278630
3 14.623 1432028
3 14.623 1405119
3 14.623 1400646
3 14.623 1395159
3 14.623 1392369
3 14.623 1387391
3 14.623 1384431
3 14.623 1375847
3 15.342 1360330
3 15.342 1358455
3 15.973 1345640
3 15.973 1341130
3 15.973 1341055
3 16.599 1339000
3 16.599 1330633
3 17.181 1327812
3 17.181 1324778
3 18.499 1321818
3 18.499 1319010
3 18.499 1318076
3 22.079 1311566
3 22.079 1302821
3 23.741 1300788
3 24.84 1299252
3 28.578 1456032
3 28.578 1426532
3 28.578 1414415
3 28.578 1390141
3 28.578 1389219
3 28.578 1377247
3 28.578 1362209
3 28.578 1357179
3 28.578 1352909
3 29.679 1327798
3 29.679 1326729
3 29.679 1322255
3 30.646 1320715
3 31.62 1319243
3 31.62 1309872
3 31.62 1307262
3 31.62 1305067
3 32.628 1303320
3 32.628 1298978
3 32.628 1298316
3 32.628 1288286
3 32.628 1285762
3 33.61 1282714
3 33.61 1279967
3 36.432 1279014
3 37.364 1278393
3 37.364 1272620
3 37.364 1272555
3 38.149 1263809
3 38.735 1263467
3 38.735 1262886
3 39.396 1261352
3 41.272 1258392
3 41.903 1258060
3 42.466 1468063
3 42.466 1395728
3 42.466 1380368
3 42.466 1378286
3 42.466 1376114
3 42.466 1363113
3 43.144 1356701
3 43.144 1345971
3 43.144 1344743
3 43.144 1343781
3 43.144 1343492
3 43.144 1333772
3 43.144 1311778
3 43.144 1309813
3 43.144 1307334
3 44.502 1306796
3 45.069 1306273
3 45.069 1305323
3 46.318 1302533
3 46.318 1301461
3 47.162 1292057
3 49.038 1285625
3 49.038 1279073
3 49.038 1278981
3 49.038 1278380
3 51.027 1274186
3 51.027 1272138
3 56.281 1539645
3 56.281 1505367
3 56.281 1495787
3 56.281 1477801
3 56.281 1475322
3 56.281 1469358
3 56.281 1469082
1 56.281 1467487
3 56.281 1458903
3 57.026 1457274
3 57.026 1439373
3 57.963 1435848
3 57.963 1434450
3 57.963 1421917
3 57.963 1417941
1 57.963 1412809
3 57.963 1401831
3 57.963 1394638
3 57.963 1365379
3 57.963 1363037
3 57.963 1361243
3 57.963 1360169
3 59.053 1359150
3 59.053 1346617
3 59.053 1340065
3 59.053 1331306
3 59.949 1328520
3 59.949 1325041
3 59.949 1321938
3 60.768 1317669
3 60.768 1316051
3 60.768 1315811
3 60.768 1315675
3 61.807 1315123
3 61.807 1310723
3 62.776 1308750
3 62.776 1306271
3 64.669 1300200
3 65.594 1297466
3 69.4 1296978
3 70.145 1440940
3 70.145 1419582
3 70.145 1396546
3 70.901 1387626
3 70.901 1386204
3 70.901 1383725
3 70.901 1378149
3 71.698 1359132
3 71.698 1351283
3 72.438 1348052
3 72.438 1342412
3 72.438 1337166
3 73.146 1335877
3 73.146 1334291
3 73.759 1329858
3 74.386 1319121
3 74.386 1319059
3 74.386 1315586
3 75.083 1310645
3 76.082 1307783
3 76.082 1306402
3 76.99 1300848
3 76.99 1299602
3 77.562 1297000
3 77.562 1296524
3 79.243 1296306
3 79.243 1291520
3 79.831 1282936
3 84.657 1386245
3 84.657 1374459
3 84.657 1369369
3 84.657 1363412
3 84.657 1361917
3 86.71 1354377
3 86.71 1351898
3 86.71 1347240
3 86.71 1346161
3 86.71 1345392
3 87.351 1337256
3 88.823 1333174
3 88.823 1327627
3 91.208 1323986
3 91.993 1321507
3 95.722 1321373
3 98.825 1479339
3 98.825 1452298
3 98.825 1449543
3 98.825 1414322
3 98.825 1407745
3 98.825 1396383
3 98.825 1387307
3 99.88 1380940
3 99.88 1355004
3 99.88 1343412
3 100.595 1343133
3 100.595 1336133
3 100.595 1329669
3 101.364 1298553
3 101.364 1298433
3 102.288 1295437
3 102.288 1279749
3 102.288 1268829
3 103.32 1267216
3 104.775 1266856
3 112.069 1375657
3 112.069 1374631
3 112.069 1372314
3 112.069 1366647
3 112.069 1354861
3 112.744 1353337
3 113.338 1328665
3 113.338 1323850
3 113.338 1320929
3 113.338 1320553
3 113.338 1320444
3 113.338 1318202
3 113.338 1315957
3 113.338 1315268
3 113.987 1312951
3 113.987 1307757
3 113.987 1307577
3 113.987 1305380
3 113.987 1302901
3 115.156 1300737
3 115.156 1299147
3 115.156 1293516
3 115.781 1293026
3 115.781 1291048
3 116.373 1290262
3 116.373 1287493
3 126.741 1584404
3 126.741 1575211
3 126.741 1540933
3 126.741 1493067
3 126.741 1487693
3 126.741 1487563
3 126.741 1478979
3 126.741 1461401
3 126.741 1385208
3 126.741 1378418
3 126.741 1375121
3 127.903 1372831
3 127.903 1363222
3 127.903 1362831
3 127.903 1358157
3 127.903 1356060
3 127.903 1337727
3 128.562 1311043
3 128.562 1302981
3 128.562 1298723
3 130.76 1288267
3 130.76 1286782
3 130.76 1282390
3 131.474 1278410
3 132.046 1275001
3 132.046 1270060
3 132.867 1267100
3 132.867 1266810
3 132.867 1266467
3 140.77 1511576
3 140.77 1478854
3 141.774 1472487
3 141.774 1467564
3 141.774 1431281
3 141.774 1424521
3 141.774 1393753
3 141.774 1361611
3 142.817 1358624
3 142.817 1347364
3 142.817 1334261
3 142.817 1329282
3 142.817 1321424
3 143.866 1319394
3 143.866 1318173
3 143.866 1316789
3 144.827 1314400
3 144.827 1311168
3 145.825 1310215
3 145.825 1308242
3 146.697 1302283
3 147.404 1299323
3 147.971 1297426
3 149.095 1292903
3 151.187 1290874
3 154.833 1441382
3 154.833 1439947
3 154.833 1429195
3 154.833 1394917
3 155.653 1378024
3 155.653 1376419
3 156.412 1375494
3 156.412 1374352
3 156.412 1361701
3 156.412 1360576
3 157.074 1356718
3 157.074 1354260
3 157.074 1348091
3 157.668 1341097
3 157.668 1339662
3 157.668 1337346
3 157.668 1332751
3 157.668 1330765
3 158.999 1323749
3 158.999 1317197
3 158.999 1314957
3 159.923 1310136
3 168.695 1447217
3 168.695 1411108
3 168.695 1411016
3 168.695 1405226
3 168.695 1382029
3 168.695 1347709
3 168.695 1343134
3 168.695 1325354
3 168.695 1321796
3 169.529 1317154
3 169.529 1315833
3 170.103 1307875
3 170.103 1307204
3 170.704 1305948
3 170.704 1295948
3 171.277 1295235
3 171.831 1292010
3 171.831 1289620
3 172.406 1288241
3 173.588 1285762
3 174.699 1285545
3 176.36 1283037
3 176.36 1282174
3 176.36 1275247
3 177.284 1273985
3 179.146 1271702
3 179.146 1264000
3 179.146 1262199
3 182.901 1424036
3 182.901 1421557
3 182.901 1388835
3 182.901 1375312
3 182.901 1361396
3 182.901 1352760
3 183.686 1346907
3 183.686 1338076
3 183.686 1330805
3 184.443 1328370
3 184.443 1317345
3 184.443 1306986
3 185.411 1306274
3 185.411 1304609
3 186.155 1303137
3 186.155 1302978
3 186.155 1301873
3 186.876 1299022
3 186.876 1288749
3 186.876 1283885
3 186.876 1279223
3 186.876 1278346
3 186.876 1278135
3 187.518 1277848
3 187.518 1277523
3 187.518 1277449
3 188.198 1276182
3 190.156 1275875
3 190.156 1274954
3 191.473 1272162
3 191.473 1271899
3 192.598 1269420
3 195.65 1267650
3 196.254 1437945
1 196.254 1413568
3 196.254 1404984
3 196.254 1392150
3 196.254 1380254
3 196.254 1379067
3 196.945 1366831
3 196.945 1351510
3 196.945 1351390
3 196.945 1346023
3 196.945 1344972
3 196.945 1342679
3 197.603 1337129
3 197.603 1328383
3 197.603 1325443
3 198.248 1324936
3 198.248 1321902
3 198.248 1321225
3 198.248 1309190
3 198.864 1306711
3 199.618 1303526
3 206.836 1299414
3 206.836 1297441
3 210.564 1471516
3 210.564 1464964
3 210.564 1441921
3 210.564 1438224
3 211.248 1435091
3 211.248 1430686
3 211.248 1416819
3 211.248 1405907
3 211.248 1381787
3 211.248 1367277
3 211.248 1363992
3 211.248 1347470
1 211.951 1347173
3 211.951 1344436
3 211.951 1334576
3 211.951 1332321
3 212.617 1328007
3 213.274 1317504
3 213.274 1311634
3 213.274 1302435
3 213.274 1298481
3 213.274 1287089
3 213.918 1286695
3 215.086 1285394
3 215.742 1279027
3 215.742 1275877
3 216.334 1269548
3 216.334 1267517
3 216.334 1266849
3 216.334 1263154
3 224.591 1478560
3 224.591 1461617
3 224.591 1457912
3 224.591 1453366
3 224.591 1436712
3 225.303 1428283
3 225.303 1427294
3 225.303 1426462
3 225.303 1421788
3 225.303 1411788
3 225.303 1402159
3 225.303 1363705
3 226.024 1360381
3 226.024 1355322
3 226.024 1331691
3 226.024 1325139
3 226.024 1322932
3 226.024 1322600
3 226.705 1321904
3 226.705 1321353
3 227.291 1316666
3 227.857 1315820
3 227.857 1313560
3 227.857 1303957
3 227.857 1293625
3 227.857 1292683
3 227.857 1292499
3 228.48 1288477
3 229.038 1287813
3 230.57 1284681
3 231.148 1281934
3 231.148 1281630
3 233.401 1280454
3 233.966 1279797
3 233.966 1275736
3 235.65 1271477
3 236.219 1270186
3 236.77 1269117
3 238.249 1435595
3 238.249 1433116
3 238.249 1432905
3 238.249 1422607
3 238.249 1407343
3 238.249 1403181
3 238.249 1360645
3 238.249 1359690
1 238.249 1344187
3 238.249 1338951
3 239.104 1336562
3 239.104 1324819
3 239.104 1323407
3 239.778 1316387
3 239.778 1313784
3 239.778 1311464
3 240.372 1297876
3 241.299 1295412
3 242.254 1294020
3 243.163 1293713
3 243.163 1290697
3 243.875 1283819
3 244.436 1278819
3 252.552 1506032
3 252.552 1486878
3 252.552 1471715
3 252.552 1471521
3 252.552 1462970
3 252.552 1462683
3 252.552 1457862
3 252.552 1425013
3 252.552 1415538
3 252.552 1392609
3 253.512 1389201
3 253.512 1382834
3 253.512 1379879
3 253.512 1359051
3 253.512 1358891
3 253.512 1356412
3 253.512 1356249
3 253.512 1342501
3 254.626 1332648
3 254.626 1327974
3 254.626 1320433
3 254.626 1308120
3 256.161 1305527
3 256.161 1301509
3 257.578 1299536
3 258.508 1294177
3 258.508 1288624
3 259.436 1287805
3 260.214 1286564
3 260.915 1286534
3 260.915 1285197
3 261.629 1284055
3 264.604 1278652
3 265.238 1278536
3 266.178 1465509
3 266.178 1459142
3 266.178 1455046
3 266.178 1430813
3 266.178 1425263
3 266.178 1409205
3 267.209 1397945
3 267.209 1392541
3 267.209 1389507
3 267.209 1385778
3 267.209 1370282
3 267.209 1350137
3 268.184 1332767
3 268.184 1332078
3 268.756 1328441
3 268.756 1318025
3 268.756 1310689
3 268.756 1306426
3 269.388 1301268
3 269.388 1300936
3 269.962 1298941
3 269.962 1298118
3 269.962 1296194
3 270.631 1292874
3 271.207 1289961
3 271.207 1284277
3 271.207 1281750
3 271.207 1277247
3 271.207 1274818
3 275.46 1272210
3 277.908 1270863
3 277.908 1261698
3 279.324 1261252
3 279.324 1261088
3 280.056 1388097
3 280.056 1385428
3 280.056 1374632
3 280.056 1354870
3 280.056 1354641
3 280.056 1342412
3 280.056 1335709
3 281.389 1332330
3 281.389 1330062
3 281.389 1326851
3 282.343 1311052
3 283.044 1310891
3 283.044 1307076
3 283.044 1306650
3 283.044 1301522
3 283.044 1297246
3 283.044 1297171
3 283.701 1294516
3 283.701 1293151
3 283.701 1292248
3 283.701 1289805
3 284.295 1289658
3 284.295 1287827
3 287.739 1287243
3 287.739 1277839
3 288.414 1272679
3 288.414 1269255
3 290.569 1269216
3 291.333 1268423
3 292.195 1267463
3 294.106 1398250
3 294.106 1391439
3 294.106 1386190
3 294.106 1381987
3 294.106 1379544
3 294.106 1370030
3 294.106 1360144
3 295.182 1358212
3 295.182 1339379
3 295.182 1337605
3 295.182 1335239
3 295.182 1308534
3 295.182 1306561
3 296.525 1305764
3 297.503 1301668
3 297.503 1299319
3 297.503 1296887
3 298.473 1294877
3 298.473 1294725
3 298.473 1294300
3 300.881 1292004
3 300.881 1286478
3 300.881 1286148
3 300.881 1282975
3 301.743 1281925
3 301.743 1277262
3 302.511 1276884
3 303.166 1276389
3 303.166 1276211
3 303.166 1273251
3 303.789 1272523
3 303.789 1268837
3 304.434 1266951
3 304.434 1265378
3 308.025 1565537
3 308.025 1520098
3 308.025 1487414
3 308.025 1479523
3 308.025 1476639
3 308.835 1462561
3 308.835 1449437
3 309.557 1429912
3 309.557 1424362
3 310.293 1417995
3 310.293 1412698
3 310.293 1392017
3 310.293 1388554
3 311.068 1380231
3 311.068 1380011
3 311.068 1374616
3 311.068 1369592
3 311.068 1364670
3 312.064 1348155
3 312.064 1347407
3 312.84 1340471
3 312.84 1340417
3 312.84 1338828
3 312.84 1335828
3 312.84 1335622
3 312.84 1334874
3 313.568 1321166
3 313.568 1307299
3 313.568 1305852
3 314.541 1301928
3 314.541 1298401
3 315.526 1295590
3 316.469 1291972
3 316.469 1290040
3 317.046 1289562
3 317.046 1287951
3 317.046 1286299
3 317.046 1285909
3 317.046 1285774
3 317.046 1282937
3 317.681 1278961
3 318.495 1278921
3 318.495 1278778
3 318.495 1276505
3 319.429 1276028
3 320.118 1271790
3 320.855 1271471
3 322.664 1376534
3 322.664 1366401
3 322.664 1365938
3 322.664 1365008
3 322.664 1363654
3 322.664 1351229
3 322.664 1336690
3 322.664 1333730
3 322.664 1332464
3 323.711 1328222
3 323.711 1321479
3 323.711 1321323
3 324.414 1312578
3 324.967 1310176
3 324.967 1309278
3 324.967 1299839
3 325.577 1298916
3 326.183 1293428
3 326.748 1292644
3 326.748 1286643
3 327.322 1284001
3 327.886 1280500
3 327.886 1278831
3 328.515 1277736
3 328.515 1276571
3 329.457 1276218
3 330.405 1266455
3 332.256 1266215
3 334.153 1266131
3 336.026 1479156
3 336.026 1476973
3 336.026 1425847
3 336.026 1410786
3 336.026 1397662
3 336.026 1377272
3 337.06 1370096
3 337.06 1365275
3 337.06 1356522
3 337.06 1335648
3 337.06 1333169
3 338.065 1330120
3 338.065 1324453
3 338.065 1323622
3 338.065 1317618
3 338.065 1303751
3 338.675 1300316
3 338.675 1299710
3 339.379 1298322
3 339.379 1293677
3 339.379 1292772
3 339.379 1291216
3 340.071 1289601
3 340.071 1286014
3 340.798 1283267
3 340.798 1281949
3 342.083 1279892
3 343.312 1278487
3 348.128 1277976
3 350.207 1423898
3 350.207 1392780
3 350.207 1385780
3 350.207 1384588
3 350.207 1370248
3 350.207 1346928
3 350.207 1345817
3 350.207 1343830
3 350.921 1342680
3 350.921 1332052
3 351.508 1324542
3 352.145 1322424
3 352.145 1319591
3 352.145 1310897
3 353.653 1310173
3 353.653 1308429
3 354.392 1307937
3 354.392 1304713
3 354.392 1300935
3 354.392 1294924
3 354.392 1293102
3 354.392 1292378
3 355.438 1289824
3 355.438 1288406
3 356.09 1288080
3 357.211 1284251
3 357.211 1280262
3 357.211 1271552
3 359.542 1270850
3 359.542 1269793
3 360.12 1269672
3 360.12 1266631
3 361.072 1266008
3 361.072 1265839
3 362.937 1264276
3 362.937 1263788
3 364.835 1393865
3 364.835 1380712
3 364.835 1379083
3 364.835 1376349
3 364.835 1373817
3 364.835 1370272
3 365.867 1358097
3 366.746 1332744
3 366.746 1331359
3 366.746 1330010
3 367.823 1326950
3 368.788 1322382
3 368.788 1322133
3 368.788 1320569
3 369.807 1318944
3 369.807 1315955
3 370.879 1315003
3 370.879 1314679
3 371.847 1312669
3 376.83 1312279
3 378.186 1483723
3 378.186 1446849
3 378.186 1407535
3 378.186 1406049
3 378.186 1396491
3 378.186 1389176
3 378.186 1384299
3 378.186 1377299
3 378.186 1367289
3 378.186 1351331
3 378.186 1344630
3 378.186 1340725
3 379.324 1338246
3 379.324 1334270
3 379.324 1332605
3 380.314 1324270
3 380.96 1322086
3 380.96 1316536
3 380.96 1315800
3 380.96 1314552
3 381.594 1314057
3 381.594 1312452
3 381.594 1300981
3 382.215 1298239
3 382.215 1291948
3 382.825 1291453
3 383.462 1280125
3 383.462 1277586
3 384.968 1272437
3 385.546 1271125
3 385.546 1269034
3 386.391 1265687
3 386.391 1263714
3 386.391 1259231
3 392.074 1387202
3 392.074 1365084
3 392.074 1359103
3 392.074 1357301
3 392.074 1344704
3 392.074 1333813
3 392.725 1333384
3 392.725 1333316
3 392.725 1321530
3 392.725 1320408
3 392.725 1317567
3 392.725 1316210
3 392.725 1315189
3 393.373 1313100
3 393.373 1308651
3 393.973 1299992
3 393.973 1296938
3 394.561 1294262
3 394.561 1284760
3 396.763 1282641
3 396.763 1282319
3 397.374 1280661
3 397.374 1279634
3 397.374 1278323
3 397.959 1275844
3 398.56 1274758
3 398.56 1273352
3 398.56 1272572
3 399.791 1267306
3 400.726 1262210
3 401.74 1259888
3 406.42 1397456
3 406.42 1396060
3 406.42 1356830
3 406.42 1355463
3 406.42 1349892
3 407.131 1345570
3 407.131 1338744
3 407.131 1334136
3 407.131 1332128
3 407.131 1322128
3 407.754 1312634
3 407.754 1312583
3 407.754 1304351
3 407.754 1303051
3 408.41 1298180
3 408.41 1297835
3 408.41 1297127
3 409.079 1296243
3 409.079 1296185
3 409.675 1295772
3 409.675 1293799
3 409.675 1291244
3 417.613 1291165
3 418.577 1289439
3 420.024 1399702
3 420.024 1385212
3 420.024 1379075
3 420.024 1367069
3 420.024 1354436
3 420.024 1349861
3 420.024 1344436
3 420.024 1342382
3 420.024 1342149
3 420.793 1339635
3 420.793 1337625
3 420.793 1337372
3 420.793 1336893
3 420.793 1324486
3 421.831 1323955
3 421.831 1317465
3 422.79 1315234
3 422.79 1312424
3 422.79 1310273
3 422.79 1302818
3 422.79 1290565
3 422.79 1286064
3 422.79 1285455
3 423.71 1282745
3 425.009 1280176
3 425.009 1274337
3 425.878 1273604
3 425.878 1272998
3 428.702 1272745
3 434.244 1583322
3 434.244 1570169
3 434.244 1551015
3 434.244 1548536
3 434.244 1518897
3 434.244 1469916
3 434.244 1465496
3 434.244 1450240
3 434.244 1445106
3 434.244 1436420
3 434.244 1436209
3 435.36 1421438
3 435.36 1411680
3 435.36 1408512
3 435.36 1400225
3 435.36 1395872
3 435.36 1393393
3 436.145 1369119
3 436.145 1369063
3 436.145 1364608
3 436.75 1338882
3 436.75 1333198
3 436.75 1329899
1 436.75 1318066
3 436.75 1312386
3 437.407 1310524
3 437.407 1310080
3 438.079 1306379
3 438.653 1306161
3 438.653 1303345
3 439.282 1301804
3 439.851 1299831
3 442.885 1299743
3 442.885 1297352
3 443.52 1296566
3 443.52 1293069
3 444.653 1288540
3 446.947 1285248
3 448.278 1377356
3 448.278 1366192
3 448.278 1356338
3 448.278 1339371
3 448.278 1334680
3 448.278 1330944
3 448.278 1318429
3 448.949 1316456
3 448.949 1307872
3 449.639 1306719
3 449.639 1303830
3 449.639 1302529
3 450.438 1300412
3 450.438 1297884
3 450.438 1297199
3 450.438 1294802
3 452.339 1290749
3 452.339 1288776
3 452.339 1285949
3 452.339 1281534
3 453.059 1280918
3 453.059 1276713
3 453.059 1270161
3 453.059 1267559
3 454.624 1265846
3 455.535 1264575
3 455.535 1264073
3 456.11 1261041
3 462.041 1432253
3 462.041 1427330
3 462.041 1396813
3 462.041 1393601
3 462.041 1362556
3 462.041 1349874
3 462.041 1345622
3 462.778 1341903
3 462.778 1337927
3 462.778 1319988
3 462.778 1318208
3 462.778 1308781
3 463.427 1306465
3 463.427 1303359
3 463.427 1297096
3 463.427 1296924
3 464.185 1296697
3 464.185 1290842
3 464.185 1290771
3 464.763 1288862
3 464.763 1287265
3 464.763 1286122
3 465.333 1282403
3 465.333 1281940
3 476.794 1406735
3 476.794 1383663
3 476.794 1370283
3 476.794 1353554
3 476.794 1350589
3 476.794 1348592
3 476.794 1345520
3 476.794 1334260
3 477.622 1332890
3 478.974 1319620
3 478.974 1317647
3 479.901 1314392
3 479.901 1313773
3 480.907 1311676
3 480.907 1299832
3 480.907 1297953
3 481.913 1293505
3 481.913 1292809
3 481.913 1291971
3 483.796 1288003
3 489.594 1287849
3 489.594 1286062
3 490.232 1500503
3 490.232 1497056
3 490.232 1450408
3 490.232 1436885
3 490.232 1388606
3 490.232 1383836
3 490.232 1380768
3 490.232 1375015
3 491.002 1362482
3 491.002 1349041
3 491.002 1340688
3 491.002 1330900
3 491.669 1330163
3 491.669 1328780
3 492.284 1326820
3 492.928 1326101
3 492.928 1322879
3 493.679 1313748
3 493.679 1310194
3 493.679 1308392
3 494.487 1307438
3 494.487 1295463
3 494.487 1293702
3 496.284 1288779
3 500.446 1288772
3 500.446 1287655
3 500.446 1283969
3 501.413 1282834
3 501.413 1282610
3 502.349 1281571
3 502.349 1280308
3 503.224 1279929
3 503.997 1279667
3 504.585 1393847
3 504.585 1392822
3 504.585 1388340
3 504.585 1384776
3 504.585 1364346
3 504.585 1362373
3 505.279 1348599
3 505.279 1339979
3 505.279 1332791
3 505.279 1331395
3 505.279 1326348
3 505.279 1321407
3 506.148 1318447
3 507.406 1318340
3 507.406 1306874
3 507.406 1301778
3 507.406 1294066
3 508.617 1292290
3 508.617 1290981
3 508.617 1289603
3 509.198 1288699
3 512.818 1279876
3 514.689 1277794
3 514.689 1274187
3 516.77 1271028
3 518.804 1493548
3 518.804 1486996
3 518.804 1425598
3 518.804 1422200
3 518.804 1412222
3 518.804 1410538
3 518.804 1392980
3 519.848 1392218
3 519.848 1391690
3 519.848 1387226
3 520.562 1366577
3 520.562 1349759
3 520.562 1341368
3 521.389 1335892
3 521.389 1325892
3 521.389 1316013
3 522.383 1315804
3 522.383 1313534
3 524.32 1302837
3 524.32 1302138
3 525.296 1298764
3 525.296 1296938
3 526.233 1292889
3 526.811 1290690
3 526.811 1288211
3 526.811 1286906
3 526.811 1282936
3 526.811 1280972
3 526.811 1280917
3 531.132 1274633
3 531.132 1272698
3 531.727 1272692
1 532.291 1389560
3 532.291 1378362
3 532.291 1374410
3 532.291 1364410
3 532.291 1357172
3 532.291 1353339
3 532.291 1344107
3 532.291 1337242
3 532.291 1321317
3 532.291 1310033
3 532.291 1307836
3 533.395 1304819
3 533.395 1303299
3 533.395 1297469
3 533.395 1291103
3 533.395 1288905
3 533.395 1288426
3 534.381 1286906
3 536.232 1285064
3 536.232 1284314
3 536.232 1284167
3 537.188 1284165
3 537.188 1282033
3 537.188 1281688
3 539.121 1279681
3 542.214 1278731
3 542.214 1274532
3 543.945 1267255
3 545.714 1266163
3 546.616 1459114
3 546.616 1445455
3 546.616 1442976
3 546.616 1408387
3 546.616 1392446
3 546.616 1381578
3 547.288 1377980
3 547.288 1375020
3 547.288 1369378
3 547.887 1363234
3 547.887 1355193
3 547.887 1352539
3 547.887 1347718
3 548.594 1317195
3 548.594 1305255
3 548.594 1305075
3 548.594 1293469
3 548.594 1291294
3 549.86 1288762
3 549.86 1286283
3 549.86 1285094
3 550.466 1282246
3 551.108 1281118
3 551.893 1279145
3 556.277 1274199
3 556.277 1273279
3 557.288 1270929
3 557.288 1270711
3 560.134 1443415
3 560.134 1430737
3 560.134 1421677
3 560.134 1418081
3 560.134 1417938
3 560.134 1368957
3 560.134 1363740
3 560.134 1361767
3 560.134 1349335
3 560.134 1330675
3 560.99 1323513
3 560.99 1322932
3 560.99 1321499
3 562.085 1320469
3 562.085 1314317
3 562.085 1313970
3 562.085 1303335
3 562.085 1302256
3 562.701 1295152
3 562.701 1290811
3 563.266 1286835
3 563.997 1283639
3 563.997 1281607
3 564.945 1277959
3 564.945 1275219
3 564.945 1269056
3 564.945 1266168
3 565.932 1265219
3 570.393 1260955
3 570.393 1258087
3 570.996 1252145
3 570.996 1250185
3 574.435 1429709
3 574.435 1389520
3 574.435 1363548
3 574.435 1360478
3 574.435 1333648
3 574.435 1328450
3 575.57 1327547
3 575.57 1321585
3 575.57 1311652
3 575.57 1309227
3 575.57 1308315
3 576.633 1306522
3 576.633 1294736
3 576.633 1292777
3 576.633 1290202
3 583.177 1289943
3 587.613 1283103
3 587.613 1280143
3 588.25 1474887
3 588.25 1437359
3 588.25 1433251
3 588.25 1428775
3 588.25 1393891
3 588.25 1391858
3 588.25 1376929
3 588.25 1361842
3 588.25 1355867
3 589.143 1354181
3 589.143 1353788
3 589.143 1347641
3 589.143 1344645
3 589.143 1343696
3 589.143 1340949
3 589.143 1338920
3 589.881 1332318
3 589.881 1320750
3 589.881 1317648
3 590.475 1315375
3 590.475 1298855
3 590.475 1298251
3 591.327 1298040
3 591.327 1293826
3 591.327 1290108
3 591.327 1287669
3 592.107 1266496
3 592.107 1265567
3 592.107 1263380
3 592.107 1261660
3 592.717 1257751
3 593.36 1255778
3 602.747 1359974
3 602.747 1354355
3 602.747 1349477
3 602.747 1342844
3 602.747 1340459
3 602.747 1337677
3 602.747 1333880
3 602.747 1332506
3 602.747 1327926
3 602.747 1324923
3 602.747 1307493
3 602.747 1304051
3 602.747 1304014
3 603.933 1299326
3 603.933 1297353
3 604.77 1295838
3 605.531 1293729
3 608.092 1293611
3 608.092 1289103
3 608.092 1286175
3 608.092 1284041
3 610.447 1283018
3 616.236 1457242
3 616.236 1415753
3 616.236 1413274
3 616.236 1404937
3 616.933 1391784
3 616.933 1378660
3 616.933 1374684
3 616.933 1374024
3 616.933 1367334
3 617.583 1363358
3 617.583 1356082
3 618.223 1355865
3 618.223 1351178
3 618.223 1344560
3 620.475 1341766
3 620.475 1335616
3 620.475 1333399
3 621.072 1320866
3 621.072 1316890
3 621.78 1315010
3 621.78 1311604
3 621.78 1309191
3 621.78 1305727
3 621.78 1297737
3 622.39 1297235
3 622.39 1295314
3 622.39 1288762
3 623.542 1288337
3 623.542 1286364
3 624.116 1285078
3 624.692 1280795
3 624.692 1279727
3 624.692 1278853
3 625.306 1271797
3 625.306 1270791
3 625.936 1270649
3 630.629 1361731
3 630.629 1354935
3 630.629 1341941
3 630.629 1337965
3 630.629 1329829
3 630.629 1326869
3 631.407 1320078
3 631.407 1313385
3 632.611 1306853
3 632.611 1304891
3 633.256 1299743
3 633.256 1294059
3 634.104 1292263
3 634.104 1283679
3 635.123 1281741
3 637.051 1280799
3 637.051 1278230
3 637.996 1277232
3 637.996 1276019
3 637.996 1274001
3 639.95 1273733
3 641.769 1273556
3 644.472 1366217
3 644.472 1360827
3 644.472 1357472
3 644.472 1354993
3 645.451 1353020
3 645.451 1333994
3 646.414 1325858
3 646.414 1325411
3 647.366 1321279
3 647.366 1316511
3 647.366 1314538
3 648.316 1308947
3 648.316 1308632
3 649.306 1307477
3 650.087 1307148
3 650.087 1305885
3 650.087 1301483
3 650.087 1300781
3 650.839 1296041
3 651.556 1294314
3 657.255 1285278
3 657.255 1280771
3 657.972 1278547
3 657.972 1278024
3 657.972 1276068
3 657.972 1275819
3 658.601 1445559
3 658.601 1414788
3 658.601 1413195
3 658.601 1405071
3 658.601 1402088
3 658.601 1389841
3 658.601 1388481
3 659.252 1375328
3 659.252 1371270
3 659.252 1369326
3 659.252 1367994
3 659.911 1355377
3 659.911 1353404
3 659.911 1352798
3 659.911 1349269
3 659.911 1347191
3 660.541 1331193
3 660.541 1329276
3 661.132 1328836
3 661.132 1326759
3 661.132 1320367
3 661.722 1318440
3 661.722 1318166
3 663.501 1317116
3 663.501 1308166
3 663.501 1301741
3 664.272 1301596
3 664.844 1296351
3 666.066 1291049
3 666.066 1289937
3 666.066 1288302
3 667.052 1287759
3 667.052 1285280
3 667.052 1283401
3 668.971 1280768
3 672.09 1364347
3 672.09 1336720
3 672.09 1322090
3 672.09 1319262
3 672.09 1318179
3 672.09 1316837
3 673.173 1315700
3 673.173 1315003
3 673.173 1304160
3 673.173 1304038
3 673.173 1298607
3 673.173 1297865
3 673.173 1288520
3 674.44 1284338
3 674.44 1283342
3 674.44 1282698
3 675.339 1275476
3 675.929 1270525
3 675.929 1270353
3 677.804 1269017
3 678.73 1266239
3 679.663 1260945
3 679.663 1258782
3 680.616 1256328
3 680.616 1256117
3 681.563 1250186
3 685.87 1247784
3 686.746 1350595
3 686.746 1335369
3 686.746 1333628
3 687.771 1333604
3 687.771 1332857
3 687.771 1331943
3 687.771 1330656
3 687.771 1323521
3 688.869 1311669
3 688.869 1309190
3 688.869 1303163
3 688.869 1301939
3 688.869 1296636
3 689.887 1284618
3 690.864 1284525
3 690.864 1281748
3 691.794 1281364
3 692.743 1279797
3 692.743 1279704
3 693.71 1277388
3 698.262 1272273
3 698.262 1271255
3 698.262 1267412
3 698.991 1266856
3 699.616 1265995
3 699.616 1265633
3 700.196 1474607
3 700.196 1467446
3 700.196 1445990
3 700.196 1387146
3 700.196 1380614
3 700.196 1380087
3 700.196 1378145
3 700.196 1377020
3 700.196 1370181
3 700.196 1356277
3 700.913 1353798
3 700.913 1350278
3 700.913 1348349
3 700.913 1344567
3 700.913 1335822
3 700.913 1327887
3 700.913 1324182
3 701.607 1323354
3 701.607 1309831
3 701.607 1305233
3 701.607 1295199
3 702.256 1292720
3 702.256 1287916
3 702.256 1284360
3 703.462 1277710
3 703.462 1276757
3 704.098 1276125
3 704.098 1275670
3 704.692 1274784
3 708.128 1271770
3 709.108 1271713
3 710.115 1269927
3 714.262 1466315
3 714.262 1453162
3 714.262 1444578
3 714.262 1440977
3 714.262 1427041
3 714.262 1413639
3 714.262 1407105
3 714.262 1405095
3 714.262 1394019
3 714.262 1371225
3 714.262 1357358
3 714.262 1354111
3 714.999 1353184
3 714.999 1325597
3 714.999 1323121
3 714.999 1315809
3 715.893 1311864
3 715.893 1307336
3 715.893 1305249
3 715.893 1299916
3 715.893 1299376
3 717.841 1290172
3 718.498 1290131
3 719.07 1287962
3 719.938 1281180
3 720.901 1278002
3 720.901 1275282
3 723.193 1274951
3 728.66 1592058
3 728.66 1574704
3 728.66 1572530
3 728.66 1569496
3 728.66 1547825
3 728.66 1499346
3 728.66 1489619
3 728.66 1483627
3 729.658 1480496
3 729.658 1477462
3 729.658 1468948
3 730.704 1464025
3 730.704 1457244
3 730.704 1427742
3 730.704 1423766
3 730.704 1387461
3 730.704 1378877
3 731.752 1349546
3 731.752 1332710
3 731.752 1330189
3 732.782 1317490
3 732.782 1317373
3 733.743 1315847
3 734.678 1308618
3 735.594 1301611
3 738.352 1298864
3 740.509 1298225
3 740.509 1295910
3 740.509 1293937
3 741.494 1289961
3 742.437 1411965
3 742.437 1411042
3 742.437 1405492
3 742.437 1389362
3 742.437 1388439
3 742.437 1377926
3 742.437 1365303
3 742.437 1363798
3 742.437 1357680
3 742.437 1342338
3 743.55 1330219
3 743.55 1323010
3 743.55 1317371
3 744.536 1315227
3 744.536 1311596
3 749.335 1302853
3 750.265 1292982
3 756.018 1477396
3 756.018 1470531
3 756.018 1436253
3 756.018 1428556
3 756.018 1417881
3 756.018 1411271
3 756.018 1404550
3 756.824 1390711
3 756.824 1388232
3 756.824 1387452
3 757.455 1386020
3 757.455 1363226
3 757.455 1349482
3 757.455 1344661
3 758.097 1334446
3 759.297 1320308
3 759.297 1318937
3 759.297 1318014
3 759.893 1308301
3 759.893 1305341
3 759.893 1304043
3 759.893 1303666
3 760.768 1302713
3 761.713 1302145
3 762.839 1298379
3 762.839 1298269
3 762.839 1295235
3 763.902 1294525
3 764.647 1292395
3 764.647 1288702
3 765.337 1288419
3 766.322 1287523
3 767.256 1284892
3 767.256 1283531
3 767.256 1279367
3 767.256 1273438
3 769.93 1271893
3 769.93 1268923
3 770.665 1479676
3 770.665 1461696
3 770.665 1413929
3 770.665 1398156
3 770.665 1379801
3 770.665 1374850
3 770.665 1371286
3 770.665 1363691
3 770.665 1350564
3 770.665 1344992
3 770.665 1342663
3 770.665 1341963
3 770.665 1329737
3 771.569 1319737
3 771.569 1319430
3 771.569 1315292
3 771.569 1314609
3 771.569 1311498
3 771.569 1309213
3 772.599 1306427
3 772.599 1305431
3 773.55 1303230
3 773.55 1297096
3 773.55 1295915
3 773.55 1294176
3 773.55 1292989
3 774.539 1292036
3 776.402 1277540
3 777.323 1275999
3 777.323 1274823
3 777.323 1270484
3 777.323 1269432
3 778.087 1268870
3 778.087 1268275
3 778.658 1268097
3 778.658 1265550
3 779.823 1265439
3 779.823 1263898
3 780.452 1263680
3 780.452 1262947
3 780.452 1262386
3 780.452 1261419
3 780.452 1261151
3 781.604 1256855
3 784.338 1455099
3 784.338 1441330
3 784.338 1426913
3 784.338 1413765
3 784.338 1388389
3 784.338 1384931
3 784.338 1378544
3 784.338 1367971
3 784.338 1365663
3 784.338 1351337
3 784.338 1344658
3 785.049 1344228
3 785.049 1324469
3 785.049 1318694
3 785.049 1316250
3 785.049 1310985
3 785.049 1310774
3 785.745 1303082
3 785.745 1300335
3 785.745 1297747
3 785.745 1287747
3 785.745 1286045
3 786.353 1279959
3 786.353 1273386
3 787.095 1271355
3 788.17 1268395
3 788.17 1264222
3 788.17 1264147
3 790.902 1260171
3 792.267 1259761
3 795.184 1258704
3 795.184 1256798
3 795.184 1255500
3 795.846 1252887
3 795.846 1251135
3 796.411 1250704
3 796.411 1250140
3 798.514 1504811
3 798.514 1479330
3 798.514 1439141
3 798.514 1431079
3 798.514 1429312
3 798.514 1429106
3 798.514 1425285
3 799.259 1385394
3 799.259 1377107
3 799.259 1376304
3 799.259 1368373
3 799.259 1355220
3 799.259 1348949
3 799.259 1347048
3 800.12 1337136
3 800.12 1333574
3 800.12 1333183
3 800.792 1331666
3 801.385 1331225
3 801.385 1320213
3 801.385 1318600
3 801.385 1314535
3 801.385 1312179
3 801.385 1309188
3 802.661 1307443
3 802.661 1292906
3 802.661 1286388
3 802.661 1276186
3 803.432 1275709
3 803.432 1272214
3 804.01 1269944
3 804.659 1266598
3 806.135 1266121
3 811.011 1265543
3 811.011 1264891
3 811.011 1262225
3 812.834 1476585
3 812.834 1472179
3 812.834 1456723
3 812.834 1441525
3 812.834 1433410
3 812.834 1420877
3 812.834 1398775
3 812.834 1394389
3 812.834 1374867
3 812.834 1371191
3 812.834 1363672
3 812.834 1361367
3 813.948 1360222
3 813.948 1360048
3 813.948 1349630
3 813.948 1344223
3 813.948 1337097
3 813.948 1323973
3 814.955 1320524
3 814.955 1316190
3 814.955 1313341
3 814.955 1306974
3 814.955 1302998
3 815.962 1298308
3 815.962 1296367
3 820.716 1291775
3 820.716 1291069
3 821.297 1288965
3 821.297 1288625
3 821.985 1286146
3 821.985 1284173
3 824.683 1283488
3 824.683 1282756
3 825.429 1282065
3 826.137 1447794
3 826.137 1430002
3 826.137 1382228
3 826.137 1369104
3 826.137 1355239
3 826.137 1348175
3 826.922 1345679
3 827.557 1341553
3 827.557 1340858
3 828.251 1337000
3 828.251 1326728
3 828.96 1326652
3 828.96 1317255
3 828.96 1315966
3 828.96 1313772
3 828.96 1309159
3 829.81 1306079
3 829.81 1302152
3 831.03 1296346
3 831.593 1292136
3 832.169 1289197
3 832.723 1276541
3 833.865 1276202
3 834.416 1275653
3 835.048 1274483
3 836.007 1273291
3 836.007 1271427
3 836.969 1269109
3 837.905 1268189
3 838.505 1265348
3 838.505 1263072
3 838.505 1262371
3 839.458 1260123
3 839.458 1259920
3 840.056 1464351
3 840.056 1442138
3 840.056 1441609
3 840.056 1412109
3 840.056 1403973
3 840.056 1402955
3 840.056 1398014
3 840.056 1392656
3 840.056 1359691
3 840.815 1352900
3 840.815 1346890
3 840.815 1342562
3 840.815 1328279
3 840.815 1323571
3 841.495 1318263
3 841.495 1308859
3 842.132 1307299
3 842.132 1305918
3 842.132 1300274
3 842.878 1299869
3 842.878 1298310
3 845.708 1296539
3 846.597 1293618
3 847.905 1284130
3 847.905 1281695
3 847.905 1273105
3 848.492 1268956
3 854.574 1455134
3 854.574 1452082
3 854.574 1435627
3 854.574 1431943
3 854.574 1418935
3 854.574 1417029
3 854.574 1408742
3 854.574 1365283
3 855.44 1359703
3 855.44 1353690
3 856.093 1349250
3 856.721 1342883
3 857.309 1340666
3 857.309 1340158
3 857.309 1325955
3 857.309 1323193
3 857.977 1321588
3 858.609 1320535
3 859.211 1316594
3 859.845 1313951
3 860.434 1307399
3 862.878 1306945
3 868.448 1531428
3 868.448 1520168
3 868.448 1469376
3 868.448 1459906
3 868.448 1449752
3 868.448 1430551
3 868.448 1405332
3 869.121 1397270
3 869.121 1386358
3 869.121 1380808
3 869.121 1346480
3 869.121 1324003
3 869.793 1322313
3 870.416 1317279
3 870.416 1313157
3 870.416 1301883
3 871.59 1295003
3 872.157 1294523
3 872.738 1294312
3 873.901 1289552
3 873.901 1288231
3 873.901 1286529
3 878.742 1286258
3 879.346 1286095
3 879.346 1280103
3 879.908 1279882
3 879.908 1278883
3 880.502 1275100
3 880.502 1268365
3 882.174 1450099
3 882.174 1444834
3 882.174 1431564
3 882.174 1421833
3 882.174 1419354
3 882.174 1414953
3 882.174 1411919
3 882.174 1395959
3 882.174 1369984
3 883.21 1366917
3 883.21 1362467
3 884.205 1357422
3 884.205 1354854
3 884.205 1350559
3 884.205 1346246
3 885.164 1344838
3 885.164 1332801
3 885.164 1330591
3 886.016 1329521
3 886.016 1314204
3 886.622 1314025
3 886.622 1309569
3 886.622 1307253
3 886.622 1306138
3 887.223 1305876
3 887.223 1298233
3 887.798 1297701
3 887.798 1296291
3 888.669 1292558
3 888.669 1288229
3 889.39 1285143
3 889.99 1284677
3 889.99 1284657
3 889.99 1280761
3 889.99 1276123
3 889.99 1267245
3 890.992 1267008
3 890.992 1266047
3 890.992 1264587
3 890.992 1262000
3 892.754 1261128
3 894.486 1260027
3 894.486 1257198
3 896.05 1479644
3 896.05 1478487
3 896.05 1468973
3 896.05 1454378
3 896.05 1436207
3 896.05 1428145
3 896.05 1425666
3 896.05 1424508
3 896.746 1397467
3 896.746 1383721
3 896.746 1383402
3 896.746 1349858
3 896.746 1345529
3 897.418 1342407
3 898.018 1333930
3 898.018 1333452
3 898.018 1321666
3 898.018 1302833
3 898.644 1299547
3 898.644 1291479
3 900.305 1290354
3 900.305 1290084
3 901.266 1288381
3 901.266 1287108
3 901.266 1283198
3 901.266 1282831
3 902.18 1281811
3 903.14 1278963
3 903.14 1273927
3 907.075 1273172
3 908.008 1270227
3 908.616 1269411
3 909.177 1265162
3 909.177 1261648
3 910.788 1515358
3 910.788 1512879
3 910.788 1483837
3 910.788 1469532
3 910.788 1456379
3 910.788 1454857
3 910.788 1438212
3 910.788 1403526
3 912.816 1369248
3 912.816 1362346
3 912.816 1358795
3 912.816 1357508
3 912.816 1356555
3 912.816 1341051
3 913.741 1327781
3 914.307 1327528
3 914.307 1322176
3 914.307 1319982
3 914.307 1313557
3 914.926 1310001
3 914.926 1308127
3 914.926 1298352
3 914.926 1291985
3 916.155 1289359
3 916.79 1282807
3 919.663 1268886
3 920.407 1262519
3 924.106 1406380
3 924.106 1393702
3 924.106 1392401
3 924.106 1384688
3 924.106 1381640
3 924.106 1361084
3 924.106 1358520
3 924.766 1348680
3 924.766 1343367
3 924.766 1340407
3 924.766 1330474
3 924.766 1311267
3 925.41 1305988
3 926.021 1301167
3 926.021 1296932
3 926.618 1291135
3 926.618 1290708
3 927.192 1284577
3 930.367 1283850
3 930.926 1283416
3 931.639 1279942
3 931.639 1274655
3 931.639 1272016
3 933.028 1270993
3 933.028 1270828
3 934.154 1268514
3 934.154 1268412
3 934.726 1266485
3 934.726 1266160
3 935.295 1265080
3 935.295 1264961
3 935.295 1262214
3 935.929 1260730
3 937.05 1260576
3 937.727 1257079
3 938.276 1427473
3 938.276 1421062
3 938.276 1409276
3 938.276 1406874
3 938.276 1401140
3 938.276 1394349
3 938.276 1385518
3 939.591 1381958
3 939.591 1380641
3 939.591 1376683
3 939.591 1362768
3 940.453 1354488
3 940.453 1350993
3 940.453 1340021
3 941.444 1339317
3 941.444 1337614
3 941.444 1335243
3 942.434 1328311
3 943.293 1316438
3 943.293 1308655
3 943.293 1307952
3 943.293 1307271
3 943.293 1307028
3 944.065 1307004
3 944.065 1301963
3 945.31 1300777
3 945.987 1297768
3 945.987 1296347
3 945.987 1292938
3 946.73 1287620
3 947.349 1287068
3 947.349 1286965
3 948.235 1285213
3 948.235 1283959
3 948.235 1283519
3 948.944 1279644
3 948.944 1278982
3 952.399 1473937
3 952.399 1471792
3 952.399 1437752
3 952.399 1423974
3 952.399 1419704
3 952.399 1402809
3 952.399 1399435
3 953.506 1394673
3 953.506 1392847
3 953.506 1387137
3 953.506 1384274
3 954.539 1379943
3 954.539 1363983
3 954.539 1352723
3 955.47 1352592
3 955.47 1346290
3 955.47 1333119
3 956.222 1332994
3 956.222 1332061
3 956.222 1319298
3 956.222 1316424
3 956.222 1313329
3 956.222 1313158
3 957.034 1312481
3 957.034 1310880
3 957.763 1309371
3 957.763 1304725
3 958.533 1304071
3 958.533 1296726
3 962.368 1294895
3 963.282 1294247
3 963.282 1293158
3 963.282 1291949
3 964.242 1289665
3 964.242 1289470
3 966.093 1422056
3 966.093 1407984
3 966.093 1404097
3 966.093 1402690
3 966.093 1400255
3 967.084 1385295
3 967.084 1373046
3 967.084 1363046
3 967.084 1362387
3 967.725 1351260
3 967.725 1328963
3 967.725 1317596
3 968.594 1312046
3 968.594 1308365
3 971.478 1306956
3 972.132 1305872
3 972.132 1302348
3 972.132 1296813
3 972.825 1286351
3 975.554 1283872
3 977.403 1281846
3 980.088 1459436
3 980.088 1428087
3 980.088 1427704
3 980.088 1358130
3 980.088 1356750
3 980.088 1348581
3 980.088 1347445
3 980.088 1339369
3 980.088 1337554
3 981.131 1336634
3 981.131 1328364
3 981.131 1321400
3 981.131 1310009
3 982.096 1303651
3 982.814 1302536
3 982.814 1302159
3 984.51 1297565
3 984.51 1295592
3 984.51 1291687
3 988.785 1287277
3 989.475 1286541
3 990.026 1285258
3 992.451 1282165
3 994.009 1555932
3 994.009 1512473
3 994.009 1508188
3 994.009 1481147
3 994.009 1473364
3 994.75 1453722
3 994.75 1408283
3 994.75 1405965
3 994.75 1403320
3 994.75 1398535
3 995.434 1394416
3 995.434 1391937
3 995.434 1342956
3 995.434 1341179
3 995.434 1330644
3 995.434 1320749
3 996.394 1313937
3 996.394 1312687
3 996.394 1309579
3 997.391 1306171
3 997.391 1304059
3 999.28 1295186
3 999.28 1291935
3 1000.02 1287587
3 1000.02 1280873
3 1000.58 1279759
3 1000.58 1272412
3 1000.58 1270355
3 1000.58 1265784
3 1003.32 1264896
3 1004.24 1263365
3 1004.24 1263184
3 1006.04 1262862
3 1007.38 1260628
3 1008.15 1337660
3 1009.42 1328473
3 1009.42 1328310
3 1009.42 1293695
3 1009.42 1293280
3 1010.29 1291785
3 1010.85 1291756
3 1012.53 1291557
3 1013.48 1287411
3 1013.48 1285653
3 1014.31 1285442
3 1014.31 1282707
3 1014.31 1280483
3 1014.31 1278943
3 1014.31 1277925
3 1015.32 1277803
3 1022.15 1598373
3 1022.15 1558464
3 1022.15 1554914
3 1022.15 1553285
3 1022.15 1549309
3 1022.15 1491323
3 1022.15 1445884
3 1022.15 1441978
3 1022.86 1428455
3 1022.86 1419871
3 1022.86 1414931
3 1022.86 1412958
3 1022.86 1399335
3 1022.86 1376805
3 1022.86 1371322
3 1022.86 1365638
3 1023.65 1356522
3 1023.65 1354702
3 1023.65 1341351
3 1024.63 1338155
3 1024.63 1333852
3 1024.63 1328830
3 1024.63 1326950
3 1024.63 1325963
3 1025.38 1321289
3 1026.01 1318588
3 1026.59 1316304
3 1026.59 1314469
3 1026.59 1311664
3 1026.59 1303340
3 1026.59 1302810
3 1027.21 1296176
3 1027.21 1292810
3 1027.78 1291575
3 1027.78 1285208
3 1027.78 1284990
3 1027.78 1282541
3 1027.78 1280637
3 1027.78 1275816
3 1027.78 1273296
3 1028.81 1271840
3 1029.77 1271086
3 1030.73 1264931
3 1031.61 1263808
3 1031.61 1263455
3 1031.61 1261482
3 1034.22 1260393
3 1034.22 1258938
3 1034.22 1256459
3 1034.22 1253646
3 1034.22 1250478
3 1035.22 1250292
3 1036.16 1466758
3 1036.16 1463053
3 1036.16 1451437
3 1036.16 1424783
3 1037.02 1414784
3 1037.02 1412811
3 1037.02 1406488
3 1037.02 1401667
3 1037.02 1367389
3 1037.02 1362254
3 1037.02 1354632
3 1037.02 1345352
3 1037.85 1310472
3 1037.85 1309728
3 1037.85 1306003
3 1037.85 1301797
3 1038.53 1301182
3 1039.22 1298967
3 1040.1 1297658
3 1040.1 1295538
3 1040.78 1295179
3 1042.67 1293125
3 1043.28 1284294
3 1043.9 1283271
3 1044.49 1277876
3 1045.05 1275964
3 1047.32 1275925
3 1048.45 1273280
3 1049.02 1269605
3 1050.33 1484014
3 1050.33 1461736
3 1050.33 1440707
3 1050.33 1427629
3 1050.33 1416065
3 1050.33 1411969
3 1050.33 1404805
3 1050.33 1382201
3 1050.33 1355049
3 1051.39 1341182
3 1052.16 1339209
3 1052.16 1330369
3 1052.16 1327691
3 1052.8 1316666
3 1052.8 1314058
3 1052.8 1311387
3 1052.8 1304208
3 1052.8 1302876
3 1052.8 1302263
3 1053.42 1301258
3 1053.42 1298545
3 1053.42 1296713
3 1054.02 1296169
3 1055.85 1290649
3 1055.85 1290425
3 1055.85 1279831
3 1057.58 1274071
3 1057.58 1271754
3 1058.27 1270294
3 1058.27 1268739
3 1058.84 1266418
3 1058.84 1263948
3 1059.46 1263813
3 1060.02 1263323
3 1061.73 1259700
3 1062.88 1255724
3 1064.56 1357026
3 1064.56 1355993
3 1065.17 1338957
3 1065.17 1331357
3 1065.17 1326951
3 1065.17 1316700
3 1065.83 1313678
3 1065.83 1312644
3 1065.83 1309499
3 1066.43 1309233
3 1066.43 1305478
3 1067.04 1304181
3 1067.04 1298470
3 1067.04 1297451
3 1067.65 1295893
3 1067.65 1292403
3 1068.79 1291713
3 1068.79 1291578
3 1068.79 1290430
3 1068.79 1289322
3 1069.62 1288756
3 1072.3 1283387
3 1072.88 1279440
3 1073.45 1278794
3 1073.45 1276697
3 1073.45 1270381
3 1073.45 1268408
3 1073.45 1267787
3 1075.35 1265098
3 1078.5 1448251
3 1078.5 1446229
3 1078.5 1444961
3 1078.5 1435114
3 1078.5 1423990
3 1079.38 1416207
3 1079.38 1414851
3 1079.38 1411940
3 1079.38 1410715
3 1079.38 1403788
1 1080.47 1390000
3 1080.47 1389134
3 1080.47 1376879
3 1080.47 1374868
3 1081.51 1374504
3 1081.51 1366284
3 1081.51 1365378
3 1081.51 1358717
3 1081.51 1356284
3 1081.51 1356238
3 1081.51 1341728
3 1081.51 1335609
3 1081.51 1334939
3 1082.62 1333273
3 1082.62 1332526
3 1082.62 1330553
3 1083.63 1325852
3 1083.63 1323005
3 1083.63 1318184
3 1086.64 1314208
3 1092.42 1420467
3 1092.42 1399404
3 1092.42 1386914
3 1092.42 1381817
3 1092.42 1376914
3 1092.42 1364515
3 1092.42 1347719
3 1092.42 1328727
3 1093.53 1328219
3 1093.53 1325696
3 1093.53 1325493
3 1093.53 1321169
3 1093.53 1318069
3 1093.53 1309238
3 1095.46 1305500
3 1101 1304527
3 1102.56 1304012
3 1102.56 1297754
3 1106.32 1492617
3 1106.32 1465051
3 1106.32 1435088
3 1106.32 1419195
3 1106.32 1415490
3 1106.32 1413446
3 1107.62 1401611
3 1107.62 1401486
3 1107.62 1376337
3 1107.62 1374608
3 1107.62 1369870
3 1107.62 1359112
3 1108.5 1354632
3 1108.5 1347932
3 1108.5 1341166
3 1108.5 1339870
3 1109.19 1338314
3 1109.19 1334254
3 1109.19 1332281
3 1109.19 1332070
3 1109.19 1322877
3 1110.14 1318910
3 1110.14 1318203
3 1111.8 1310835
3 1112.38 1308888
3 1112.38 1302004
3 1112.38 1295104
3 1112.38 1292936
3 1112.38 1288249
3 1112.38 1284184
3 1113.3 1279544
3 1114.21 1278618
3 1114.21 1277065
3 1114.21 1276388
3 1115.16 1276122
3 1115.16 1274347
3 1115.16 1272436
3 1116.1 1272364
3 1117.03 1269860
3 1119.96 1267887
3 1120.55 1451910
3 1120.55 1400784
3 1120.55 1364828
3 1120.55 1357325
3 1120.55 1356450
3 1120.55 1335044
3 1120.55 1321774
3 1120.55 1315940
3 1121.28 1310390
3 1121.84 1308664
3 1121.84 1302525
3 1121.84 1295039
3 1121.84 1293444
3 1121.84 1291078
3 1121.84 1287070
3 1121.84 1285721
3 1123.41 1282870
3 1123.41 1280910
3 1124.39 1280475
3 1124.39 1270814
3 1124.39 1267968
3 1126.66 1265489
3 1134.05 1349278
3 1134.05 1342911
3 1134.05 1340938
3 1134.05 1327931
3 1134.05 1314417
3 1135.29 1313876
3 1135.29 1311433
3 1135.29 1308435
3 1135.92 1305475
3 1135.92 1304085
3 1136.51 1302170
3 1136.51 1293433
3 1136.51 1291597
3 1137.17 1290753
3 1137.17 1287793
3 1137.17 1286881
3 1137.17 1286367
3 1137.8 1285649
3 1137.8 1285438
3 1137.8 1276155
3 1138.95 1275922
3 1139.79 1275557
3 1139.79 1274254
3 1140.76 1273859
3 1141.46 1272940
3 1142.09 1270857
3 1142.09 1270187
3 1144.09 1268193
3 1144.92 1267905
3 1144.92 1265932
3 1148.65 1416373
3 1148.65 1390941
3 1148.65 1388848
3 1148.65 1378848
3 1148.65 1374027
3 1148.65 1367103
3 1148.65 1360093
3 1148.65 1359892
3 1149.54 1336815
3 1149.54 1326881
3 1149.54 1318074
3 1149.54 1315270
3 1150.51 1305270
3 1150.51 1303757
3 1150.51 1301613
3 1150.51 1301433
3 1151.19 1300419
3 1151.19 1300369
3 1151.19 1297288
3 1151.19 1297165
3 1151.8 1284498
3 1151.8 1282508
3 1151.8 1280009
3 1151.8 1274940
3 1152.42 1274391
3 1153.26 1273900
3 1153.26 1271410
3 1153.26 1269796
3 1155.16 1269674
3 1156.13 1268811
3 1156.99 1264402
3 1157.77 1264246
3 1158.38 1261865
3 1158.38 1260270
3 1158.38 1258797
3 1159.04 1256497
3 1159.04 1255241
3 1162.26 1422126
3 1162.26 1413988
3 1162.26 1412829
3 1162.26 1406700
3 1162.26 1404872
3 1162.26 1397117
3 1162.26 1384523
3 1163.11 1382874
3 1163.11 1380901
3 1163.11 1362546
3 1163.11 1357872
3 1163.73 1352517
3 1163.73 1343113
3 1163.73 1341362
3 1163.73 1329248
3 1163.73 1324813
3 1163.73 1324613
3 1163.73 1319102
3 1164.41 1312209
3 1165.06 1310525
3 1165.06 1309467
3 1165.06 1297553
3 1165.72 1295074
3 1165.72 1292209
3 1165.72 1291864
3 1165.72 1290604
3 1166.33 1289420
3 1167.85 1282113
3 1167.85 1279459
3 1168.48 1278477
3 1168.48 1273192
3 1168.48 1270556
3 1169.13 1267217
3 1170.05 1266064
3 1170.05 1262478
3 1170.05 1261677
3 1171.91 1261196
3 1172.74 1260857
3 1172.74 1260238
3 1176.05 1556608
3 1176.05 1523840
3 1176.05 1515778
3 1176.05 1505087
3 1176.05 1462564
3 1176.05 1461574
3 1176.05 1447204
3 1176.05 1414966
3 1176.05 1402295
3 1176.05 1379691
3 1176.83 1368666
3 1176.83 1365302
3 1176.83 1356880
3 1177.74 1354907
3 1177.74 1337115
3 1177.74 1334534
3 1177.74 1332055
3 1177.74 1321717
3 1178.78 1318757
3 1178.78 1314781
3 1179.75 1312059
3 1180.79 1310278
3 1180.79 1310067
3 1180.79 1307819
3 1180.79 1294577
3 1181.77 1294535
3 1182.42 1293700
3 1182.42 1287411
3 1182.42 1286810
3 1183.37 1277074
3 1183.37 1272531
3 1184.3 1271643
3 1185.19 1271586
3 1185.19 1263729
3 1186.14 1262986
3 1187.04 1258497
3 1189.68 1256069
3 1190.39 1376947
3 1190.39 1354514
3 1190.39 1343599
3 1190.39 1330832
3 1190.39 1327447
3 1191.23 1325937
3 1191.23 1317353
3 1191.23 1316336
3 1191.23 1314093
3 1191.23 1306878
3 1191.23 1305461
3 1192.01 1302677
3 1192.01 1298263
3 1192.78 1297758
3 1192.78 1293703
3 1193.67 1292336
3 1194.4 1291456
3 1194.4 1281530
3 1194.4 1281463
3 1194.4 1281324
3 1194.4 1279563
3 1195.11 1278182
3 1195.11 1277969
3 1195.71 1275248
3 1196.26 1274414
3 1196.26 1274175
3 1196.26 1271584
3 1196.26 1271578
3 1197.25 1269892
3 1198.3 1269731
3 1198.3 1268457
3 1198.3 1267818
3 1198.3 1266296
3 1199.05 1263864
3 1204.79 1462979
3 1204.79 1460800
3 1204.79 1460675
3 1204.79 1435156
3 1204.79 1433970
3 1204.79 1427418
3 1204.79 1417064
3 1204.79 1416853
3 1204.79 1407660
3 1204.79 1402986
3 1205.84 1385843
3 1205.84 1374021
3 1206.53 1372214
3 1206.53 1371088
3 1206.53 1369735
3 1206.53 1357489
3 1206.53 1356141
3 1206.53 1353129
3 1207.34 1351842
3 1207.34 1349401
3 1207.34 1348881
3 1207.34 1346577
3 1207.34 1341756
3 1207.96 1339783
3 1207.96 1333129
3 1208.89 1330969
3 1209.88 1325772
3 1209.88 1324476
3 1209.88 1323870
3 1209.88 1312698
3 1209.88 1312348
3 1210.65 1312264
3 1210.65 1310995
3 1210.65 1310005
3 1210.65 1304517
3 1210.65 1301174
3 1211.26 1299201
3 1212.68 1295137
3 1215.36 1294711
3 1215.97 1293732
3 1215.97 1291523
3 1216.55 1290674
3 1216.55 1286796
3 1217.13 1283003
3 1218.03 1416329
3 1218.03 1406022
3 1218.03 1397960
3 1218.03 1387847
3 1218.03 1387496
3 1218.03 1379269
3 1218.03 1362389
3 1218.03 1354524
3 1218.03 1341100
3 1218.03 1337440
3 1218.03 1337395
3 1218.03 1328593
3 1219.15 1327188
3 1219.15 1319269
3 1219.15 1316905
3 1220.13 1313665
3 1220.13 1309689
3 1220.13 1306540
3 1220.13 1304868
3 1222.02 1302895
3 1222.95 1296839
3 1222.95 1292581
3 1224.07 1290268
3 1224.07 1285402
3 1224.07 1283499
3 1226.1 1283409
3 1226.1 1280755
3 1232.28 1422141
3 1232.28 1418165
3 1232.28 1416836
3 1232.28 1412100
3 1232.28 1404038
3 1232.28 1401352
3 1232.28 1396742
3 1232.28 1396489
3 1232.28 1386489
3 1232.28 1384702
3 1232.97 1373720
3 1232.97 1367377
3 1232.97 1366924
3 1232.97 1366267
3 1232.97 1364325
3 1232.97 1361446
3 1232.97 1357958
3 1232.97 1356505
3 1232.97 1353545
3 1232.97 1344824
3 1232.97 1340848
3 1233.82 1338940
3 1233.82 1327154
3 1233.82 1326341
3 1234.98 1317792
3 1234.98 1317790
3 1234.98 1315266
3 1237.44 1312063
3 1238.1 1308519
3 1238.1 1305546
3 1241.45 1305193
3 1241.45 1303601
3 1241.45 1302229
3 1242.06 1299625
3 1242.06 1298773
3 1242.06 1296680
3 1243.32 1293434
3 1243.96 1290382
3 1243.96 1288501
3 1246.04 1476092
3 1246.04 1435903
3 1246.04 1417569
3 1246.04 1392390
3 1246.04 1382299
3 1246.04 1379691
3 1246.04 1366229
3 1246.04 1363442
3 1246.04 1348050
3 1246.91 1343806
3 1246.91 1327387
3 1246.91 1322067
3 1247.52 1313028
3 1247.52 1310711
3 1247.52 1304688
3 1247.52 1302035
3 1247.52 1298667
3 1248.19 1291478
3 1248.19 1280424
3 1248.19 1274946
3 1248.19 1272758
3 1248.79 1272476
3 1250.26 1271234
3 1251.68 1270290
3 1251.68 1269522
3 1251.68 1267280
3 1253.61 1265656
3 1254.18 1261784
3 1254.18 1260322
3 1260.56 1545231
3 1260.56 1524887
3 1260.56 1522279
3 1260.56 1486806
3 1260.56 1481985
3 1260.56 1480429
3 1260.56 1467159
3 1260.56 1460505
3 1260.56 1457289
3 1260.56 1410641
3 1260.56 1406433
3 1260.56 1383781
3 1260.56 1376131
3 1260.56 1365399
3 1260.56 1361196
3 1261.72 1349943
3 1261.72 1345943
3 1261.72 1336893
3 1261.72 1332482
3 1261.72 1316592
3 1262.45 1312237
3 1262.45 1311506
3 1262.45 1303478
3 1262.45 1298004
3 1262.45 1296031
3 1263.06 1295408
3 1263.06 1292828
3 1263.06 1288496
3 1263.06 1287311
3 1263.06 1283042
3 1263.8 1280563
3 1263.8 1279780
3 1263.8 1276681
3 1263.8 1275411
3 1263.8 1271383
3 1264.71 1271072
3 1264.71 1269410
3 1265.29 1267070
3 1265.88 1266382
3 1265.88 1265693
3 1266.44 1263969
3 1266.44 1263811
3 1266.44 1259516
3 1266.44 1257907
3 1267.03 1257742
3 1267.56 1257265
3 1267.56 1256669
3 1267.56 1255571
3 1268.21 1255230
3 1268.21 1254980
3 1268.21 1254466
3 1268.78 1252772
3 1269.33 1251855
3 1270.6 1250058
3 1270.6 1249195
3 1272.21 1248635
3 1274.4 1420493
3 1274.4 1412382
3 1274.4 1385173
3 1274.4 1382426
3 1274.4 1376870
3 1275.33 1355415
3 1275.33 1339933
3 1275.33 1336520
3 1275.33 1335480
3 1275.33 1334985
3 1275.33 1334774
3 1275.33 1330775
3 1276.35 1327479
3 1277.02 1317479
3 1277.02 1314475
3 1277.02 1300694
3 1277.02 1299805
3 1277.02 1297191
3 1277.02 1296701
3 1277.02 1293553
3 1277.7 1291074
3 1277.7 1285143
3 1278.67 1282779
3 1278.67 1281631
3 1279.6 1281446
3 1281.36 1281441
3 1281.36 1273542
3 1281.36 1271446
3 1281.97 1270178
3 1282.55 1267383
3 1282.55 1266384
3 1282.55 1264971
3 1283.23 1262513
3 1283.96 1262220
3 1283.96 1261167
3 1285.91 1256587
3 1285.91 1253165
3 1285.91 1252645
3 1285.91 1251646
3 1288.75 1462677
3 1288.75 1423737
3 1288.75 1417465
3 1288.75 1415194
3 1288.75 1396296
3 1288.75 1385920
3 1288.75 1383843
3 1288.75 1375763
3 1289.96 1354823
3 1289.96 1337393
3 1289.96 1330841
3 1290.95 1324497
3 1290.95 1315803
1 1291.54 1308157
3 1291.54 1299174
3 1292.14 1298910
3 1292.7 1291771
3 1293.3 1291438
3 1293.3 1291107
3 1293.3 1289292
3 1293.9 1286071
3 1294.52 1283353
3 1294.52 1277796
3 1296.17 1273830
3 1296.17 1273607
3 1297.13 1273555
3 1298.99 1273548
3 1299.81 1272641
3 1300.38 1269123
3 1301.27 1266777
3 1302.27 1491620
3 1302.27 1489696
3 1302.27 1430993
3 1302.27 1408389
3 1302.27 1392351
3 1302.27 1385984
3 1302.27 1380853
3 1302.27 1379432
3 1302.27 1374587
3 1302.27 1370733
3 1303.27 1356868
3 1303.27 1351420
3 1303.86 1351209
3 1303.86 1349978
3 1303.86 1346002
3 1304.5 1334046
3 1304.5 1327181
3 1304.5 1315490
3 1304.5 1310669
1 1305.18 1308835
3 1305.18 1298710
3 1305.18 1294792
3 1305.18 1289593
3 1309.96 1289275
3 1311.8 1288993
3 1311.8 1287020
3 1312.56 1284963
3 1312.56 1284306
3 1312.56 1281230
3 1313.71 1279468
3 1314.27 1276093
3 1314.27 1276092
3 1314.88 1274889
3 1314.88 1272916
3 1315.45 1272666
3 1315.45 1271252
3 1316.35 1391864
3 1316.35 1387888
3 1316.35 1364606
3 1316.35 1352959
3 1316.35 1346387
3 1317.12 1343136
3 1317.12 1338331
3 1317.12 1328065
3 1317.12 1321677
3 1317.12 1319704
3 1317.12 1316091
3 1317.82 1315763
3 1317.82 1312224
3 1317.82 1306198
3 1317.82 1303031
3 1317.82 1300284
3 1318.53 1296308
3 1318.53 1296185
3 1319.09 1292934
3 1319.09 1292193
3 1320.54 1287206
3 1320.54 1286444
3 1320.54 1285101
3 1321.15 1284758
3 1321.71 1282283
3 1321.71 1280971
3 1322.62 1280654
3 1324.75 1280639
3 1325.73 1275987
3 1326.7 1274509
3 1330.06 1402670
3 1330.06 1395222
3 1330.06 1388202
3 1330.06 1381615
3 1330.06 1366389
3 1330.06 1365598
3 1330.88 1362317
3 1330.88 1359348
3 1330.88 1341874
3 1330.88 1337562
3 1330.88 1335729
3 1331.94 1334077
3 1331.94 1330101
3 1331.94 1330038
3 1332.53 1329584
3 1333.13 1327415
3 1333.71 1325136
3 1333.71 1322946
3 1333.71 1320582
3 1334.31 1318937
3 1334.31 1318050
3 1334.31 1307683
3 1334.31 1306818
3 1334.93 1295898
3 1334.93 1294596
3 1334.93 1289981
3 1335.58 1289001
3 1335.58 1288634
3 1335.58 1283745
3 1336.23 1282504
3 1337.37 1281978
3 1337.37 1278660
3 1337.95 1278438
3 1337.95 1277060
3 1337.95 1272888
3 1344.51 1551030
3 1344.51 1538936
3 1344.51 1524039
3 1344.51 1477391
3 1344.51 1470019
3 1344.51 1468730
3 1344.51 1467681
3 1344.51 1465123
3 1344.51 1434967
3 1345.62 1391454
3 1345.62 1385176
3 1345.62 1384769
3 1345.62 1377904
3 1345.62 1351500
3 1346.67 1345452
3 1346.67 1343101
3 1346.67 1341267
3 1346.67 1337291
3 1346.67 1336849
3 1346.67 1336240
3 1347.7 1334924
3 1347.7 1331576
3 1348.69 1319002
3 1349.65 1315026
3 1349.65 1310204
3 1349.65 1309226
3 1350.65 1309190
3 1350.65 1305250
3 1351.59 1304640
3 1355.31 1304297
3 1356.31 1302061
3 1356.31 1300447
3 1356.31 1299288
3 1356.31 1298280
3 1357.29 1294929
3 1357.29 1290347
3 1358.27 1382455
3 1358.27 1345093
3 1358.27 1338775
3 1358.27 1334973
3 1358.27 1330603
3 1358.27 1328023
3 1360.49 1325193
3 1360.49 1323575
3 1360.49 1320748
3 1360.49 1318293
3 1361.42 1317115
3 1361.42 1301732
3 1361.42 1298985
3 1364.42 1294916
3 1364.42 1293789
3 1366.34 1290056
3 1366.34 1287577
3 1367.31 1284655
3 1367.31 1284121
3 1368.29 1281379
3 1368.29 1280509
3 1368.29 1277709
3 1368.29 1276649
3 1368.29 1275116
3 1369.3 1274890
3 1371.18 1268433
3 1371.18 1265214
3 1372.14 1515637
3 1372.14 1475448
3 1372.14 1437324
3 1372.14 1437048
3 1372.14 1407428
3 1372.14 1399547
3 1372.14 1389812
3 1372.14 1384991
3 1372.14 1380068
3 1373.22 1372657
3 1373.22 1366545
3 1373.22 1353903
3 1373.22 1351930
3 1373.22 1348644
3 1373.22 1345897
3 1373.22 1341470
3 1373.22 1332639
3 1373.22 1328663
3 1373.22 1328576
3 1374.3 1326809
3 1375.26 1325497
3 1375.26 1319026
3 1375.26 1315911
3 1375.26 1315111
3 1375.26 1314486
3 1377.19 1311526
3 1378.2 1309078
3 1381.59 1308640
3 1381.59 1304664
3 1381.59 1303180
3 1382.64 1297022
3 1383.36 1295909
3 1386.14 1513506
3 1386.14 1470047
3 1386.14 1463680
3 1386.14 1423491
3 1386.14 1418497
3 1386.14 1402278
3 1386.14 1395893
3 1387.22 1359370
3 1387.22 1346650
3 1387.22 1339752
3 1387.22 1310458
3 1388.14 1304398
3 1390.38 1303982
3 1390.38 1302848
3 1390.38 1302761
3 1390.38 1299512
3 1390.38 1298653
3 1391.39 1294416
3 1391.39 1292990
3 1391.39 1290989
3 1392.36 1280345
3 1392.36 1278784
3 1393.2 1278776
3 1393.2 1276813
3 1393.2 1268637
3 1393.81 1268510
3 1393.81 1263819
3 1393.81 1263689
3 1393.81 1262614
3 1394.47 1262350
3 1400.01 1367401
3 1400.01 1358817
3 1400.01 1353094
3 1400.92 1351131
3 1400.92 1346190
3 1400.92 1338982
3 1400.92 1338152
3 1400.92 1337537
3 1400.92 1331974
3 1401.71 1327618
3 1401.71 1312122
3 1402.3 1309937
3 1402.3 1307293
3 1403 1300466
3 1403 1293736
3 1403.6 1285429
3 1404.29 1282711
3 1409.62 1281778
3 1409.62 1281593
3 1409.62 1279620
3 1410.65 1279031
3 1410.65 1278303
3 1410.65 1276486
3 1414.55 1500455
3 1414.55 1480025
3 1414.55 1450983
3 1414.55 1440328
3 1414.55 1433149
3 1414.55 1431744
3 1415.67 1404703
3 1415.67 1402514
3 1415.67 1388825
3 1415.67 1386576
3 1415.67 1384909
3 1415.67 1365885
3 1415.67 1354625
3 1415.67 1352187
3 1415.67 1347481
3 1415.67 1336691
3 1415.67 1334841
3 1416.79 1332789
3 1417.43 1326348
3 1418 1324157
3 1418 1322054
3 1418.74 1321094
3 1419.79 1318964
3 1419.79 1312998
3 1419.79 1307224
3 1420.74 1304363
3 1420.74 1304196
3 1420.74 1301854
1 1421.65 1298531
3 1421.65 1296052
3 1422.21 1294194
3 1422.21 1288339
3 1422.94 1281787
3 1423.63 1281189
3 1424.35 1280345
3 1424.35 1276570
3 1425.15 1275122
3 1425.15 1268139
3 1425.15 1263342
3 1427.03 1262946
3 1427.94 1262754
3 1428.88 1406945
3 1428.88 1373812
3 1428.88 1371493
3 1428.88 1364947
3 1428.88 1360967
3 1428.88 1356188
3 1428.88 1355379
3 1428.88 1349748
3 1429.98 1345722
3 1429.98 1344927
3 1430.74 1342448
3 1430.74 1340475
3 1431.66 1340109
3 1431.66 1326267
3 1431.66 1315725
3 1432.8 1315460
3 1434.75 1309394
3 1434.75 1301618
3 1434.75 1301322
3 1434.75 1289703
3 1435.74 1284207
3 1437.57 1283274
3 1437.57 1279280
3 1437.57 1274480
3 1437.57 1273910
3 1442.12 1517148
3 1442.12 1484490
3 1442.12 1476428
3 1442.12 1470061
3 1442.12 1418935
3 1442.12 1398753
3 1442.81 1390537
3 1442.81 1390201
3 1442.81 1388412
3 1442.81 1356832
3 1442.81 1354535
3 1442.81 1346806
3 1442.81 1345270
3 1442.81 1342499
3 1443.56 1332691
3 1443.56 1322488
3 1443.56 1321750
3 1444.25 1316282
3 1444.25 1312699
3 1444.25 1311999
3 1444.87 1310726
3 1444.87 1306011
3 1445.56 1299361
3 1446.16 1299237
3 1446.16 1298761
3 1446.16 1293393
3 1446.16 1288585
3 1446.76 1287191
3 1447.35 1286979
3 1447.92 1285218
3 1447.92 1283548
3 1448.76 1281069
3 1448.76 1277761
3 1449.63 1268930
3 1450.18 1267036
3 1450.77 1264203
3 1454 1263201
3 1454.93 1261910
3 1454.93 1260227
3 1455.92 1259324
3 1456.86 1407820
3 1456.86 1398156
3 1456.86 1385623
3 1456.86 1384029
3 1456.86 1381550
3 1456.86 1380303
3 1457.95 1377201
3 1457.95 1369076
3 1457.95 1368026
3 1457.95 1353948
3 1457.95 1335707
3 1457.95 1333937
3 1457.95 1328884
3 1457.95 1328701
3 1457.95 1327385
3 1457.95 1326570
3 1459.02 1325205
3 1459.02 1312880
3 1459.02 1312283
3 1459.02 1309804
3 1460.04 1308990
3 1460.04 1307017
3 1460.98 1301686
3 1460.98 1299060
3 1462.83 1297091
3 1462.83 1295811
3 1463.76 1293864
3 1463.76 1291468
3 1463.76 1290895
3 1463.76 1287091
3 1466.13 1284305
3 1470.36 1348405
3 1470.36 1344429
3 1470.36 1334664
3 1470.36 1330480
3 1471.44 1324754
3 1471.44 1320434
3 1471.44 1320211
3 1471.44 1319767
3 1472.49 1319517
3 1472.49 1313385
3 1472.49 1311167
3 1472.49 1306847
3 1472.49 1301131
3 1472.49 1294937
3 1472.49 1286290
3 1473.49 1284232
3 1473.49 1282166
3 1474.45 1281658
3 1474.45 1277198
3 1474.45 1274567
3 1474.45 1267776
3 1475.39 1267617
3 1475.39 1265671
3 1476.27 1264816
3 1480.33 1263277
3 1483.97 1263023
3 1484.9 1461599
3 1484.9 1446882
3 1484.9 1431809
3 1484.9 1431414
3 1484.9 1421167
3 1484.9 1413748
3 1484.9 1393220
3 1484.9 1392125
3 1486.03 1386539
3 1486.03 1375406
3 1486.03 1370646
3 1486.03 1365027
3 1486.03 1360665
3 1486.03 1348879
3 1486.93 1345337
3 1486.93 1343364
3 1486.93 1338628
3 1487.53 1325338
3 1487.53 1318214
3 1488.09 1317015
3 1488.7 1313835
3 1489.4 1308331
3 1489.4 1305188
3 1489.4 1304298
3 1490.44 1303692
3 1490.44 1299402
3 1491.4 1293719
3 1493.29 1287130
3 1494.07 1283225
3 1494.07 1279852
3 1497.67 1278469
3 1498.32 1419700
3 1498.32 1405374
3 1498.32 1402036
3 1498.32 1393588
3 1498.32 1386588
3 1499.35 1373924
3 1500.3 1368492
3 1500.3 1352684
3 1500.3 1351226
3 1500.3 1341728
3 1500.3 1339760
3 1500.3 1333620
3 1501.32 1331484
3 1501.32 1308735
3 1501.32 1304818
3 1502.11 1289424
3 1502.11 1289337
3 1503.28 1282852
3 1503.28 1280592
3 1504.43 1277845
3 1505.23 1277034
3 1508 1276631
3 1509.6 1275366
3 1509.6 1272981
3 1510.2 1272730
3 1510.2 1272726
3 1510.77 1271262
3 1510.77 1270790
3 1510.77 1270118
3 1511.48 1266612
3 1511.48 1266015
3 1511.48 1265553
3 1512.44 1624591
3 1512.44 1584402
3 1512.44 1541275
3 1512.44 1488347
1 1512.44 1472141
3 1512.44 1421015
3 1512.44 1420453
3 1512.44 1416772
3 1512.44 1395534
3 1512.44 1348886
3 1512.44 1347668
3 1513.61 1338534
3 1513.61 1338298
3 1513.61 1334558
3 1513.61 1332115
3 1514.58 1322802
3 1514.58 1322509
3 1515.54 1319773
3 1515.54 1317476
3 1515.54 1310942
3 1515.54 1291800
3 1518.75 1289180
3 1518.75 1288908
3 1518.75 1286502
3 1518.75 1286433
3 1519.42 1284529
3 1520.03 1277329
3 1520.03 1274624
3 1522.43 1271511
3 1522.43 1270466
3 1525.98 1265667
3 1526.9 1431457
3 1526.9 1413068
3 1526.9 1408247
3 1526.9 1407416
3 1526.9 1390062
3 1526.9 1389194
3 1526.9 1384022
3 1526.9 1372565
3 1528 1358767
3 1528 1358504
3 1528 1354940
3 1528 1347570
3 1528 1346231
3 1528.85 1343603
3 1528.85 1342013
3 1528.85 1338710
3 1529.76 1337111
3 1529.76 1334651
3 1529.76 1328686
3 1531.2 1327752
3 1531.78 1326573
3 1531.78 1319861
3 1531.78 1318278
3 1533.74 1310417
3 1533.74 1310069
3 1536.28 1306935
3 1536.28 1306516
3 1536.95 1305879
3 1536.95 1304498
3 1536.95 1304446
3 1536.95 1302657
3 1537.56 1298622
3 1538.24 1292388
3 1538.24 1290731
3 1540.12 1376589
3 1540.12 1375519
3 1540.12 1374735
3 1540.12 1374379
3 1540.12 1372406
3 1540.12 1365331
3 1540.12 1360228
3 1540.12 1358218
3 1541.2 1354737
3 1541.2 1340867
3 1541.2 1336095
3 1541.2 1331274
3 1541.2 1329544
3 1541.93 1327087
3 1541.93 1321872
3 1541.93 1319655
3 1541.93 1319142
3 1542.88 1314321
3 1542.88 1313055
3 1542.88 1311372
3 1542.88 1310615
3 1542.88 1304027
3 1543.9 1300051
3 1543.9 1299403
3 1544.83 1298041
3 1544.83 1290423
3 1545.41 1289448
3 1545.41 1288588
3 1545.41 1282713
3 1545.41 1282282
3 1546.36 1281809
3 1546.36 1281049
3 1546.36 1279357
3 1547.36 1278667
3 1547.36 1278135
3 1547.36 1277739
3 1548.29 1276734
3 1548.84 1275945
3 1549.56 1270166
3 1550.49 1268044
3 1551.41 1263375
3 1553.19 1262792
3 1554.17 1421791
3 1554.17 1403426
3 1554.17 1384264
3 1554.17 1383106
3 1554.17 1368672
3 1554.17 1354404
3 1554.17 1348242
3 1554.17 1347852
3 1555.25 1341710
3 1555.25 1339231
3 1555.25 1337292
3 1555.25 1333198
3 1555.25 1326762
3 1556.27 1324360
3 1557.23 1323148
3 1557.23 1316630
3 1557.23 1316283
3 1557.23 1315612
3 1557.23 1314266
3 1558.07 1313551
3 1558.07 1308328
3 1558.71 1306746
3 1559.36 1303335
3 1561.08 1301294
3 1561.08 1299585
3 1561.69 1295604
3 1562.27 1293214
3 1562.27 1290467
3 1562.84 1286354
3 1562.84 1285604
3 1563.44 1285348
3 1563.44 1285024
3 1563.44 1283116
3 1564.04 1281177
3 1564.04 1280116
3 1564.92 1279721
3 1565.72 1278680
3 1565.72 1277242
3 1566.31 1276725
3 1568.15 1426427
3 1568.15 1425643
3 1568.15 1408718
3 1568.15 1391439
3 1568.15 1387687
3 1568.15 1381702
3 1568.15 1370608
3 1568.15 1366746
3 1568.15 1365742
3 1568.15 1354178
3 1569.19 1345252
3 1569.19 1340480
3 1569.89 1332651
3 1569.89 1324086
3 1569.89 1323973
3 1570.88 1321726
3 1572.74 1321658
3 1573.73 1311582
3 1573.73 1311156
3 1576.18 1310374
3 1576.79 1309978
3 1576.79 1302008
3 1579.69 1300545
3 1579.69 1300047
3 1579.69 1298562
3 1579.69 1298219
3 1580.89 1298032
3 1582.03 1481434
3 1582.03 1438307
3 1582.03 1425128
3 1582.03 1419066
3 1582.03 1417804
3 1582.03 1409973
3 1582.03 1388304
3 1583.01 1388260
3 1583.01 1385939
3 1583.01 1374600
3 1583.01 1369304
3 1583.01 1368604
3 1583.01 1361829
3 1583.01 1349296
3 1583.01 1347323
3 1584.1 1344218
3 1584.1 1343974
3 1584.1 1340208
3 1584.1 1338559
3 1584.1 1334475
3 1584.1 1315581
3 1585.16 1312326
3 1585.16 1311451
3 1585.16 1307068
3 1585.16 1306351
3 1585.8 1306079
3 1585.8 1303875
3 1585.8 1301380
3 1585.8 1301084
3 1586.78 1298163
3 1588.32 1297350
3 1588.95 1297302
3 1589.69 1296092
3 1595.96 1295107
3 1596.52 1410934
3 1596.52 1408455
3 1596.52 1393469
3 1596.52 1385914
3 1596.52 1372808
3 1596.52 1371164
3 1597.15 1365141
3 1597.15 1361660
3 1597.15 1356019
3 1597.15 1353540
3 1597.79 1339056
3 1597.79 1335355
3 1597.79 1332876
3 1597.79 1326644
3 1597.79 1325884
3 1598.4 1322080
3 1598.4 1320036
3 1598.4 1314901
3 1598.4 1312312
3 1598.4 1299739
3 1599.03 1297962
3 1599.03 1295763
3 1599.03 1289999
3 1599.64 1289603
3 1599.64 1288198
3 1601.72 1282042
3 1602.34 1281666
3 1602.97 1280960
3 1603.65 1280347
3 1603.65 1278353
3 1605.13 1274898
3 1605.13 1273980
3 1610.18 1533715
3 1610.18 1494680
3 1610.18 1491443
3 1610.18 1491314
3 1610.18 1471983
3 1610.18 1465700
3 1610.18 1462740
3 1610.18 1457981
3 1610.18 1447981
3 1610.18 1421065
3 1611.27 1374417
3 1611.27 1367578
3 1611.27 1366628
3 1611.27 1360899
3 1611.27 1360825
3 1611.27 1360614
3 1612.23 1359464
3 1612.23 1348271
3 1612.23 1336860
3 1612.82 1333087
3 1612.82 1332911
3 1612.82 1324666
3 1612.82 1318935
3 1613.49 1310324
3 1613.49 1303757
3 1613.49 1301784
3 1613.49 1298573
3 1613.49 1297326
3 1613.49 1291265
3 1614.15 1289142
3 1614.15 1288761
3 1614.71 1288461
3 1614.71 1286458
3 1614.71 1284934
3 1615.34 1284563
3 1615.98 1282370
3 1615.98 1281465
3 1615.98 1281330
3 1617.77 1280167
3 1617.77 1279377
3 1618.54 1279357
3 1624.11 1368496
3 1624.11 1364854
3 1624.11 1353276
3 1624.11 1343720
3 1624.74 1335047
3 1624.74 1333037
3 1624.74 1321562
3 1624.74 1315251
3 1625.46 1312588
3 1625.46 1308602
3 1625.46 1304126
3 1626.29 1301877
3 1626.94 1297311
3 1627.5 1297145
3 1628.33 1297138
3 1629.25 1296040
3 1629.25 1293293
3 1638.38 1495603
3 1638.38 1482450
3 1638.38 1468372
3 1638.38 1422601
3 1638.38 1417246
1 1638.38 1415617
3 1638.38 1410756
3 1638.38 1400121
3 1639.19 1384264
3 1639.19 1375923
3 1639.19 1370638
3 1639.19 1369775
3 1639.19 1361754
3 1639.19 1332254
3 1639.19 1327699
3 1639.19 1325435
3 1639.19 1323081
3 1639.19 1319391
3 1639.19 1319105
3 1639.19 1313621
3 1641.72 1311142
3 1641.72 1310777
3 1641.72 1308832
3 1641.72 1304726
3 1641.72 1304264
3 1641.72 1301574
3 1641.72 1301331
3 1642.37 1296033
3 1642.37 1292988
3 1642.37 1291015
3 1642.95 1288856
3 1643.6 1288414
3 1643.6 1287498
3 1644.2 1285595
3 1644.2 1285563
3 1644.2 1284463
3 1649.92 1279592
3 1652.41 1423270
3 1652.41 1421797
3 1652.41 1419824
3 1652.41 1383541
3 1652.41 1381203
3 1652.41 1370777
3 1652.41 1353581
3 1652.41 1350004
3 1652.41 1325730
3 1652.41 1321877
3 1652.41 1319130
3 1653.14 1317157
3 1653.14 1316575
3 1653.14 1312893
3 1653.14 1305715
3 1653.14 1302708
3 1653.81 1296244
3 1653.81 1293765
3 1653.81 1293256
3 1653.81 1292167
3 1653.81 1287819
3 1654.44 1284785
3 1654.44 1284116
3 1654.44 1280510
3 1654.44 1279574
3 1655.42 1274712
3 1655.42 1272252
3 1655.42 1269220
3 1655.42 1267008
3 1655.42 1264279
3 1661.73 1264216
3 1661.73 1263370
3 1662.3 1261722
3 1662.9 1261447
3 1662.9 1260766
3 1662.9 1260108
3 1666.52 1399548
3 1666.52 1396801
3 1666.52 1395796
3 1666.52 1393841
3 1666.52 1388870
3 1666.52 1343759
3 1666.52 1341160
3 1666.52 1335453
3 1667.58 1333377
3 1667.58 1331360
3 1667.58 1329307
3 1667.58 1325700
3 1668.57 1316327
3 1668.57 1311962
3 1668.57 1310678
3 1668.57 1301202
3 1680.67 1417868
3 1680.67 1413634
3 1680.67 1413353
3 1680.67 1397442
3 1680.67 1390079
3 1681.98 1388258
3 1681.98 1373853
3 1681.98 1364871
3 1683.04 1337535
3 1683.04 1333276
3 1683.04 1332971
3 1684.13 1326772
3 1684.13 1325743
3 1685.11 1319818
3 1685.11 1318350
3 1685.11 1315085
3 1689.01 1309931
3 1694.61 1574987
3 1694.61 1561863
3 1694.61 1531900
3 1694.61 1507884
3 1694.61 1471650
3 1694.61 1465285
3 1694.61 1449016
3 1694.61 1416017
3 1694.61 1406084
3 1694.61 1366304
3 1694.61 1355366
3 1694.61 1346793
3 1694.61 1336793
3 1695.8 1332837
3 1695.8 1331588
3 1695.8 1321897
3 1696.8 1314004
3 1696.8 1312127
3 1696.8 1308973
3 1696.8 1306837
3 1697.81 1305830
3 1697.81 1301570
3 1697.81 1299138
3 1697.81 1294464
3 1697.81 1292749
3 1697.81 1291344
3 1698.81 1290305
3 1698.81 1288089
3 1698.81 1283632
3 1700.11 1278811
3 1701.07 1276827
3 1702.03 1274854
3 1704 1274264
3 1705.54 1273915
3 1707.44 1271455
3 1707.44 1264694
3 1708.28 1378893
3 1708.28 1376251
3 1708.28 1359764
3 1708.28 1356297
3 1708.28 1331438
3 1709.04 1324131
3 1709.04 1323025
3 1709.04 1320139
3 1709.04 1319766
3 1709.04 1315567
3 1709.82 1313695
3 1709.82 1310854
3 1709.82 1304487
3 1710.53 1302555
3 1711.2 1291333
3 1711.8 1288533
3 1711.8 1288349
3 1711.8 1287932
3 1711.8 1285455
3 1713.09 1282782
3 1714.26 1275266
3 1716.61 1271271
3 1719.09 1271087
3 1722.02 1405629
3 1722.02 1404557
3 1722.02 1369692
3 1722.02 1355203
3 1722.02 1344766
3 1722.02 1334819
3 1723.09 1325043
3 1724.09 1323559
3 1724.09 1314975
3 1725.03 1313688
3 1725.03 1311632
3 1725.03 1309920
3 1725.03 1304975
3 1726.04 1303424
3 1726.04 1303200
3 1727.23 1298259
3 1736.46 1404654
3 1736.46 1393629
3 1736.46 1392118
3 1736.46 1379762
3 1736.46 1330443
3 1736.46 1325622
3 1736.46 1319916
3 1737.4 1309004
3 1738.27 1304869
3 1738.27 1301733
3 1739.22 1298189
3 1739.22 1297992
3 1739.22 1294554
3 1739.22 1293149
3 1746.58 1282587
3 1746.58 1282561
3 1746.58 1279869
3 1747.27 1277807
3 1747.27 1275288
3 1747.27 1273942
3 1747.27 1269988
3 1747.27 1268015
3 1747.27 1265441
3 1747.93 1265062
3 1749.13 1259656
3 1749.75 1259444
3 1750.32 1445193
3 1750.32 1420121
3 1750.32 1412075
3 1750.32 1405234
3 1750.32 1398837
3 1750.32 1398105
3 1751.18 1385077
3 1751.18 1367138
3 1751.18 1357052
3 1751.18 1348610
3 1751.18 1343789
3 1751.18 1329843
3 1752.23 1326487
3 1753.2 1312620
3 1753.2 1311547
3 1753.2 1305980
3 1753.2 1301193
3 1754.22 1296806
3 1754.22 1294321
3 1754.22 1291883
3 1754.22 1287732
3 1755.21 1284484
3 1764.04 1461766
3 1764.04 1440632
3 1764.04 1407438
3 1764.04 1389458
3 1764.04 1381976
3 1764.04 1368111
3 1764.04 1363037
3 1764.04 1359949
3 1764.04 1333476
3 1764.04 1323095
3 1764.78 1321289
3 1764.78 1319976
3 1764.78 1312908
3 1765.41 1307699
3 1766.4 1305779
3 1766.4 1304200
3 1766.4 1299168
3 1766.4 1290423
3 1767.03 1288269
3 1767.6 1287813
3 1767.6 1286526
3 1768.4 1286094
3 1768.4 1285957
3 1768.4 1276845
3 1768.4 1269449
3 1768.4 1268177
3 1770.36 1267908
3 1770.36 1267339
3 1770.96 1265264
3 1770.96 1259505
3 1772.83 1257870
3 1772.83 1254414
3 1772.83 1253821
3 1774.69 1250456
3 1778.19 1486533
3 1778.19 1485270
3 1778.19 1478903
3 1778.19 1446167
3 1778.19 1442422
3 1778.19 1439814
3 1778.19 1435146
3 1778.19 1425507
3 1778.94 1421279
3 1778.94 1396134
3 1778.94 1393119
3 1778.94 1370515
3 1778.94 1358729
3 1778.94 1356067
3 1779.88 1355617
3 1779.88 1354522
3 1779.88 1337294
3 1780.69 1336101
3 1780.69 1334076
3 1780.69 1329073
3 1780.69 1320167
3 1780.69 1318803
3 1781.3 1318041
3 1781.91 1317603
3 1781.91 1314569
3 1782.49 1312260
3 1782.49 1306725
3 1782.49 1295173
3 1782.49 1293554
3 1782.49 1289466
3 1783.5 1288305
3 1783.5 1286034
3 1783.5 1283382
3 1786.33 1281971
3 1786.33 1280903
3 1787.26 1272980
3 1788.23 1268691
3 1789.12 1267315
3 1790.13 1263543
3 1790.13 1262507
3 1792.82 1439079
3 1792.82 1434790
3 1792.82 1424439
3 1792.82 1417574
3 1792.82 1410574
3 1792.82 1399435
3 1793.86 1385005
3 1793.86 1374791
3 1793.86 1373831
3 1793.86 1363596
3 1794.88 1358743
3 1795.9 1355699
3 1795.9 1351618
3 1796.85 1337245
3 1796.85 1333421
3 1796.85 1327216
3 1796.85 1315913
3 1796.85 1308851
3 1797.88 1307300
3 1797.88 1307291
3 1798.9 1303910
3 1798.9 1297056
3 1798.9 1294654
3 1800.04 1291617
3 1803.25 1289544
3 1803.25 1288923
3 1805.2 1288701
3 1806.09 1401744
3 1806.09 1390362
3 1806.09 1368364
3 1806.09 1361364
3 1806.09 1350104
3 1806.09 1340729
3 1806.09 1334493
3 1806.09 1332411
3 1806.09 1321186
3 1807.23 1319757
3 1807.23 1312854
3 1807.23 1312637
3 1808.23 1312264
3 1808.23 1310079
3 1808.23 1304075
3 1808.23 1296440
3 1809.25 1292464
3 1809.25 1289662
3 1809.25 1282650
3 1809.25 1278171
3 1810.25 1276697
3 1810.25 1275946
3 1810.25 1275454
3 1811.22 1274510
3 1811.22 1271812
3 1811.22 1271125
3 1811.99 1270276
3 1811.99 1268581
3 1811.99 1267133
3 1820.35 1355243
3 1820.35 1343457
3 1820.35 1329734
3 1820.35 1324050
3 1820.35 1320168
3 1820.35 1308983
3 1820.35 1308176
3 1821.17 1305599
3 1821.17 1298702
3 1821.97 1298283
3 1822.57 1297690
3 1823.19 1290754
3 1823.19 1278079
3 1823.8 1276238
3 1823.8 1275949
3 1824.45 1270133
3 1825.05 1269892
3 1825.05 1269876
3 1826.69 1269660
3 1827.63 1268453
3 1828.57 1268311
3 1834.48 1467696
3 1834.48 1462053
3 1834.48 1421048
3 1834.48 1400618
3 1834.48 1394560
3 1834.48 1392081
3 1834.48 1390167
3 1835.29 1388914
3 1835.29 1377654
3 1835.29 1364501
3 1835.29 1359618
3 1836.11 1356012
3 1836.11 1355642
3 1836.11 1336441
3 1836.11 1334256
3 1836.11 1314291
3 1836.11 1313316
3 1836.11 1312513
3 1838.15 1312198
3 1838.15 1308148
3 1838.15 1306770
3 1839.16 1305662
3 1839.16 1305218
3 1839.16 1302603
3 1840.11 1301511
3 1840.11 1300443
3 1840.11 1296083
3 1840.11 1293604
3 1840.11 1284541
3 1840.11 1273281
3 1840.11 1273000
3 1840.11 1269305
3 1843.62 1268636
3 1843.62 1266531
3 1848.3 1370118
3 1848.3 1356447
3 1848.3 1346781
3 1848.3 1341040
3 1849.02 1336283
3 1849.6 1327584
3 1849.6 1326283
3 1850.36 1322231
3 1850.36 1321082
3 1850.36 1320668
3 1850.36 1315565
3 1850.36 1301239
3 1850.36 1300574
3 1851.17 1295753
3 1851.17 1294460
3 1851.17 1291777
3 1851.17 1291541
3 1851.17 1273518
3 1851.17 1271893
3 1852.21 1270995
3 1852.21 1264797
3 1852.21 1261797
3 1853.17 1259948
3 1853.17 1259713
3 1854.12 1259620
3 1857.21 1250213
3 1862.26 1521664
3 1862.26 1515297
3 1862.26 1475260
3 1862.26 1468649
3 1862.26 1460470
3 1862.26 1452408
3 1862.26 1439355
3 1862.99 1415262
3 1862.99 1408808
3 1862.99 1404121
3 1862.99 1402388
3 1862.99 1385569
3 1862.99 1385127
3 1864.04 1382717
3 1864.04 1382616
3 1864.04 1379196
3 1864.04 1378876
3 1864.04 1374718
3 1864.04 1370000
3 1865.08 1345697
3 1865.08 1345252
3 1865.08 1342773
3 1865.08 1342080
3 1866.01 1340014
3 1866.01 1339526
3 1866.01 1339034
3 1866.01 1325167
3 1866.01 1320204
3 1867.28 1312416
3 1868.54 1308396
3 1868.54 1302966
3 1869.74 1296103
3 1869.74 1287519
3 1869.74 1285347
3 1869.74 1283304
3 1870.35 1279968
3 1870.35 1276033
3 1871.04 1274911
3 1871.04 1274104
3 1871.04 1271263
3 1871.04 1269606
3 1871.8 1268873
3 1871.8 1266674
3 1875.5 1265444
3 1875.5 1264293
3 1876.51 1379741
3 1876.51 1362993
3 1876.51 1352221
3 1878.48 1339068
3 1879.42 1337468
3 1879.42 1326535
3 1879.42 1323601
3 1879.42 1321326
3 1879.42 1315281
3 1879.42 1314935
3 1880.4 1314814
3 1880.4 1312416
3 1880.4 1306852
3 1888.45 1304703
3 1888.45 1300829
3 1890.89 1509963
3 1890.89 1489220
3 1890.89 1475950
3 1890.89 1461577
3 1890.89 1444911
3 1890.89 1442164
3 1890.89 1434368
3 1890.89 1426204
3 1890.89 1409992
3 1890.89 1403091
3 1890.89 1399036
3 1890.89 1395512
3 1890.89 1387450
3 1890.89 1386461
3 1892.3 1383825
3 1892.3 1361221
3 1892.3 1351483
3 1893.3 1340746
3 1893.3 1336357
3 1894.34 1331621
3 1894.34 1322714
3 1894.34 1321214
3 1894.34 1320482
3 1894.34 1319312
3 1894.34 1314389
3 1894.34 1311185
3 1895.41 1307284
3 1896.38 1303708
3 1896.38 1298024
3 1896.38 1297170
3 1896.38 1289204
3 1896.38 1286725
3 1898.31 1286213
3 1900.18 1285272
3 1900.18 1285061
3 1900.18 1283916
3 1902.11 1283256
3 1903.06 1279941
3 1904.02 1398459
3 1904.02 1391468
3 1904.02 1357765
3 1904.02 1349285
3 1904.02 1347765
3 1904.02 1345286
3 1904.02 1341502
3 1904.02 1319108
3 1904.97 1315997
3 1904.97 1314022
3 1905.78 1312418
3 1905.78 1305197
3 1905.78 1298909
3 1905.78 1290325
3 1905.78 1289437
3 1906.53 1283715
3 1907.15 1283477
3 1907.15 1282371
3 1907.76 1272177
3 1907.76 1270250
3 1907.76 1268678
3 1908.8 1268324
3 1909.53 1267469
3 1909.53 1261446
3 1909.53 1260199
3 1910.36 1253074
3 1912.21 1252884
3 1912.21 1252109
3 1914.1 1248903
3 1914.77 1247974
3 1918.66 1388275
3 1918.66 1379591
3 1918.66 1378690
3 1918.66 1370928
3 1918.66 1368955
3 1918.66 1366889
3 1919.68 1353037
3 1919.68 1345007
3 1919.68 1344350
3 1919.68 1341619
3 1919.68 1336894
3 1919.68 1334921
3 1919.68 1334643
3 1919.68 1331683
3 1919.68 1323888
3 1920.35 1323547
3 1920.35 1323257
3 1920.35 1321950
3 1920.35 1317374
3 1921.02 1317189
3 1921.61 1316365
3 1921.61 1311959
3 1922.31 1308582
3 1923.57 1306727
3 1924.15 1300175
3 1927.57 1292312
3 1929.5 1291907
3 1929.5 1290533
3 1929.5 1288431
3 1930.68 1287846
3 1932.52 1396663
3 1932.52 1368446
3 1932.52 1366179
3 1932.52 1363559
3 1932.52 1360599
3 1932.52 1349339
3 1932.52 1327487
3 1932.52 1325170
3 1933.22 1321720
3 1933.22 1319241
3 1934.09 1316912
3 1934.09 1311644
3 1935.06 1311472
3 1935.06 1303557
3 1935.06 1302573
3 1936.04 1301445
3 1936.04 1301235
3 1936.04 1300809
3 1936.04 1297849
3 1936.67 1297039
3 1937.23 1288670
3 1937.23 1288528
3 1938.11 1287811
3 1938.96 1284966
3 1938.96 1280036
3 1938.96 1278525
3 1938.96 1277949
3 1938.96 1275871
3 1940.6 1273113
3 1941.73 1269786
3 1944.11 1262718
3 1946.04 1439465
3 1946.04 1387645
3 1946.04 1334907
3 1946.04 1325930
3 1946.04 1324589
3 1946.92 1324343
3 1946.92 1320616
3 1947.9 1318952
3 1948.6 1316638
3 1948.6 1315066
3 1948.6 1315003
3 1948.6 1312682
3 1949.77 1310017
3 1949.77 1306927
3 1949.77 1300782
3 1949.77 1295612
3 1949.77 1291798
3 1950.96 1285628
3 1950.96 1276170
3 1951.54 1275506
3 1951.54 1274996
3 1951.54 1272194
3 1952.12 1270583
3 1952.12 1269768
3 1952.73 1269591
3 1952.73 1267975
3 1953.71 1267373
3 1953.71 1265720
3 1953.71 1259815
3 1953.71 1257912
3 1955.09 1254108
3 1958.45 1249676
3 1959.59 1249186
3 1960.29 1403138
3 1960.29 1402342
3 1960.29 1401794
3 1960.29 1387206
3 1960.29 1381656
3 1960.29 1378171
3 1960.29 1375424
3 1960.29 1365572
3 1960.29 1355502
3 1960.29 1327199
3 1960.29 1316468
3 1961.12 1308685
3 1961.12 1304360
3 1961.12 1296514
3 1961.12 1295994
3 1961.72 1288807
3 1966.95 1287939
3 1967.49 1283866
3 1967.49 1280906
3 1974.31 1450313
3 1974.31 1447834
3 1974.31 1417871
3 1974.31 1414166
3 1974.31 1401042
3 1974.31 1396578
3 1974.31 1388509
3 1974.31 1378288
3 1974.31 1376367
3 1974.31 1367907
3 1974.31 1364139
3 1975.27 1357864
3 1975.27 1355235
3 1975.97 1348056
3 1975.97 1339225
3 1975.97 1337498
3 1975.97 1331543
3 1975.97 1331087
3 1976.86 1319010
3 1976.86 1317222
3 1976.86 1310847
3 1977.85 1307818
3 1978.63 1307681
3 1978.63 1307666
3 1978.63 1305888
3 1978.63 1305514
3 1979.42 1287199
3 1979.42 1285386
3 1980.37 1283352
3 1982.4 1280413
3 1985.25 1279472
3 1985.25 1279183
3 1985.25 1278331
3 1986.33 1277108
3 1986.33 1276977
3 1988.35 1465064
3 1988.35 1456632
3 1988.35 1428327
3 1988.35 1422261
3 1988.35 1422099
3 1988.35 1418961
3 1988.35 1391766
3 1988.35 1359465
3 1988.35 1359153
3 1988.35 1336693
3 1988.35 1336685
3 1988.35 1336541
3 1989.58 1336070
3 1989.58 1325045
3 1989.58 1322048
3 1989.58 1317483
3 1989.58 1315659
3 1989.58 1311683
3 1990.59 1311325
3 1990.59 1311114
3 1990.59 1308635
3 1990.59 1304203
3 1990.59 1303689
3 1991.57 1301803
3 1991.57 1299583
3 1991.57 1296988
3 1991.57 1289396
3 1992.54 1286060
3 1992.54 1283614
3 1993.53 1281641
3 1996.37 1280984
3 1998.78 1279872
3 1999.35 1277403
3 1999.35 1277393
3 1999.35 1276773
3 1999.35 1276091
3 2001.63 1274936
3 2001.63 1273057
3 2002.23 1434685
3 2002.23 1432817
3 2002.23 1402062
3 2002.23 1386169
3 2002.23 1379518
3 2002.23 1367161
3 2002.23 1353287
3 2002.23 1350988
3 2002.23 1345898
3 2002.98 1343105
3 2002.98 1334591
3 2002.98 1329041
3 2003.57 1319183
3 2004.3 1315659
3 2004.3 1312104
3 2004.3 1308128
3 2005.68 1307173
3 2005.68 1305274
3 2006.64 1301408
3 2007.58 1292663
3 2007.58 1289629
3 2012.01 1273369
3 2012.01 1272599
3 2012.01 1268690
3 2012.61 1266305
3 2013.18 1264975
3 2013.18 1259664
3 2013.8 1258593
3 2014.48 1257331
3 2014.48 1256871
3 2015.42 1254427
3 2016.38 1390836
3 2016.38 1374268
3 2016.38 1357220
3 2016.38 1348782
3 2016.38 1328360
3 2017.39 1322019
3 2018.12 1319104
3 2018.12 1313565
3 2019.25 1313054
3 2019.25 1310492
3 2019.25 1310389
3 2019.25 1309295
3 2019.25 1307406
3 2019.25 1300185
3 2019.25 1297706
3 2020.77 1296545
3 2020.77 1290883
3 2021.53 1288692
3 2021.53 1288522
3 2021.53 1287984
3 2022.11 1284199
3 2022.86 1277890
3 2022.86 1272076
3 2023.5 1271355
3 2025.17 1269272
3 2025.17 1267507
3 2026.3 1260849
3 2026.3 1258923
3 2030.3 1386843
3 2030.3 1358881
3 2030.3 1346412
3 2030.3 1335152
3 2030.3 1333179
3 2030.3 1319168
3 2030.3 1318460
3 2030.3 1316579
3 2031.09 1313290
3 2031.09 1312000
3 2031.09 1311394
3 2031.7 1309778
3 2031.7 1308915
3 2032.32 1306609
3 2032.32 1302345
3 2033.08 1301201
3 2033.08 1300513
3 2033.08 1299903
3 2033.73 1299649
3 2033.73 1292787
3 2035.08 1291970
3 2035.77 1289010
3 2035.77 1286778
3 2035.77 1286235
3 2044.86 1523225
3 2044.86 1507366
3 2044.86 1478324
3 2044.86 1471957
3 2044.86 1425735
3 2044.86 1424630
3 2044.86 1418212
3 2044.86 1409986
3 2044.86 1407960
3 2044.86 1404218
3 2046.01 1402496
3 2046.01 1383794
3 2046.01 1363051
3 2046.01 1356499
3 2047 1338560
3 2047 1337920
3 2047.6 1335773
3 2047.6 1325763
3 2047.6 1318091
3 2047.6 1310864
3 2047.6 1302696
3 2047.6 1301173
3 2049.28 1292130
3 2049.28 1291796
3 2049.28 1290479
3 2049.28 1276417
3 2049.95 1276170
3 2049.95 1274875
3 2050.68 1273964
3 2052.23 1272955
3 2052.23 1271749
3 2052.23 1270080
3 2053.47 1267677
3 2054.03 1264930
3 2054.6 1262849
3 2057.03 1260876
3 2058.93 1456569
3 2058.93 1440676
3 2058.93 1426809
3 2058.93 1410775
3 2058.93 1408738
3 2058.93 1396488
3 2058.93 1386555
3 2058.93 1377490
3 2058.93 1376365
3 2060.06 1362148
3 2060.06 1353564
3 2060.06 1347012
3 2060.06 1343559
3 2060.06 1339134
3 2060.06 1337943
3 2060.06 1337391
3 2061.1 1332202
3 2061.1 1326197
3 2061.1 1325269
3 2061.1 1314597
3 2061.9 1304719
3 2061.9 1304012
3 2061.9 1300509
3 2062.51 1299101
3 2063.68 1297306
3 2064.85 1294744
3 2064.85 1285520
3 2064.85 1284548
3 2066.14 1281801
3 2068.81 1281369
3 2069.74 1280891
3 2070.7 1278127
3 2070.7 1273297
3 2070.7 1270530
3 2070.7 1269654
3 2070.7 1268873
3 2072.64 1397030
3 2072.64 1377152
3 2072.64 1368954
3 2072.64 1360892
3 2072.64 1353703
3 2072.64 1348540
3 2072.64 1345460
3 2072.64 1344704
3 2072.64 1340572
3 2073.45 1339702
3 2073.45 1327110
3 2074.09 1326835
3 2074.09 1325308
3 2074.09 1321499
3 2074.09 1315758
3 2074.85 1313935
3 2074.85 1312975
3 2074.85 1311066
3 2074.85 1305104
3 2075.8 1305029
3 2075.8 1304175
3 2076.4 1298732
3 2076.4 1294266
3 2076.4 1292818
3 2077.35 1283963
3 2077.35 1280643
3 2082.96 1279623
3 2082.96 1277799
3 2083.55 1276876
3 2084.12 1273949
3 2084.68 1271976
3 2084.68 1271723
3 2085.26 1269881
3 2086.43 1404270
3 2086.43 1404008
3 2086.43 1391186
3 2086.43 1390018
3 2086.43 1381961
3 2087.08 1352919
3 2087.69 1350941
3 2087.69 1341338
3 2087.69 1336097
3 2087.69 1335868
3 2087.69 1334894
3 2088.48 1334648
3 2089.13 1332080
3 2089.13 1320653
3 2090.1 1315074
3 2090.1 1314677
3 2090.1 1308770
3 2091.06 1297931
3 2091.06 1290394
3 2091.06 1286812
3 2092.03 1280445
3 2092.96 1279576
3 2092.96 1279457
3 2094.41 1277277
3 2094.41 1276746
3 2094.41 1275841
3 2094.41 1270308
3 2094.41 1269666
3 2098.55 1269121
3 2100.38 1424271
3 2100.38 1388075
3 2100.38 1383946
3 2100.38 1371091
3 2100.38 1359941
3 2100.38 1346076
3 2100.38 1345702
3 2100.38 1339150
3 2100.38 1336290
3 2101.31 1331088
3 2101.93 1329776
3 2102.89 1318677
3 2103.6 1316198
3 2103.6 1311324
3 2103.6 1302428
3 2104.82 1301167
3 2106.14 1301114
3 2106.14 1295349
3 2107.1 1294674
3 2112.31 1293887
3 2114.05 1346460
3 2114.05 1334042
3 2114.05 1332185
3 2114.05 1330855
3 2114.05 1318013
3 2114.05 1315754
3 2114.05 1315110
3 2114.05 1305460
3 2114.05 1302426
3 2115.07 1293636
3 2115.07 1284926
3 2115.07 1280948
3 2115.07 1280066
3 2115.07 1279462
3 2115.74 1277045
3 2116.65 1274050
3 2116.65 1273839
3 2118.22 1273662
3 2119.37 1270030
3 2119.37 1269258
3 2119.97 1267676
3 2119.97 1267166
3 2120.54 1266298
3 2128.47 1396089
3 2128.47 1393485
3 2128.47 1384607
3 2128.47 1384007
1 2128.47 1380855
3 2128.47 1368853
3 2128.47 1351860
3 2130.47 1350967
3 2130.47 1328173
3 2130.47 1317448
3 2130.47 1315475
3 2133.78 1312570
3 2133.78 1309284
3 2134.92 1306052
3 2134.92 1304504
3 2135.89 1303880
3 2136.82 1298941
3 2136.82 1297788
3 2136.82 1297513
3 2140.12 1288873
3 2141.37 1281664
3 2141.37 1280810
3 2142.02 1351567
3 2142.02 1342064
3 2142.02 1339545
3 2142.02 1337548
3 2143.1 1335808
3 2143.1 1334984
3 2143.1 1332465
3 2143.1 1329191
3 2144.14 1322639
3 2144.14 1319857
3 2145.2 1319716
1 2145.83 1316082
3 2145.83 1313049
3 2145.83 1312480
3 2148.62 1312467
3 2148.62 1311544
3 2149.46 1308296
3 2150.08 1305599
3 2150.08 1303649
3 2150.08 1302098
3 2150.08 1299984
3 2150.08 1297223
3 2150.81 1294582
3 2156.38 1408202
3 2156.38 1401867
3 2156.38 1395166
3 2156.38 1382135
3 2156.38 1378802
3 2156.38 1359067
3 2156.38 1345556
3 2157.33 1324736
3 2157.33 1323842
3 2157.33 1322834
3 2157.33 1319222
3 2157.33 1318736
3 2157.33 1314280
3 2157.96 1313917
3 2157.96 1312349
3 2158.55 1311201
3 2158.55 1310912
3 2159.11 1309688
3 2159.69 1309498
3 2160.31 1308409
3 2160.31 1305978
3 2160.31 1305366
3 2160.95 1304747
3 2161.53 1302365
3 2161.53 1300771
3 2161.53 1297460
3 2162.12 1296940
3 2162.97 1296620
3 2170.33 1427591
3 2170.33 1426668
3 2170.33 1399459
3 2170.33 1359395
3 2170.33 1354646
3 2170.33 1349552
3 2171.16 1348591
3 2171.16 1341800
3 2171.16 1336091
3 2172.16 1329771
3 2172.16 1326091
3 2172.16 1320624
3 2172.16 1320014
3 2172.16 1316212
3 2172.94 1309660
3 2172.94 1309655
3 2172.94 1307181
3 2172.94 1301380
3 2172.94 1298993
3 2172.94 1298030
3 2173.57 1296265
3 2173.57 1287782
3 2174.14 1280007
3 2174.91 1279830
3 2174.91 1277351
3 2175.76 1277157
3 2176.58 1274391
3 2176.58 1267516
3 2177.9 1264848
3 2178.76 1263232
3 2178.76 1262681
3 2179.98 1261187
3 2180.83 1255114
3 2180.83 1254763
3 2181.76 1254725
3 2184.45 1495798
3 2184.45 1477661
3 2184.45 1463392
3 2184.45 1458242
3 2184.45 1429200
3 2184.45 1414633
3 2184.45 1400469
3 2184.45 1384425
3 2184.45 1375966
3 2184.45 1362591
3 2184.45 1362574
3 2184.45 1358401
3 2184.45 1344534
3 2185.61 1332851
3 2185.61 1322837
3 2185.61 1318861
3 2185.61 1305484
3 2186.26 1302737
3 2186.81 1297916
3 2186.81 1297378
3 2186.81 1290137
3 2187.38 1288230
3 2187.93 1284254
3 2189.67 1282364
3 2189.67 1282281
3 2198.15 1448818
3 2198.15 1415847
3 2198.15 1405975
3 2198.15 1404620
3 2198.15 1388755
3 2198.15 1380366
3 2198.15 1367833
3 2198.15 1366946
3 2198.15 1360937
3 2198.15 1356961
3 2198.99 1350902
3 2198.99 1343094
3 2198.99 1305374
3 2199.97 1299566
3 2199.97 1295929
3 2199.97 1291824
3 2199.97 1288750
3 2199.97 1283062
3 2200.95 1280583
3 2207.8 1279216
3 2208.71 1278491
3 2208.71 1276189
3 2209.72 1274216
3 2212.08 1456978
3 2212.08 1455005
3 2212.08 1448453
3 2212.08 1442466
3 2212.08 1422825
3 2212.08 1415978
3 2212.08 1401232
3 2212.08 1399014
3 2212.82 1395576
3 2212.82 1393977
3 2212.82 1386522
3 2212.82 1377938
3 2212.82 1368088
3 2212.82 1365531
3 2212.82 1363854
3 2212.82 1353810
3 2213.89 1351136
3 2213.89 1349537
3 2214.98 1341367
3 2214.98 1341198
3 2214.98 1328786
3 2215.97 1323956
3 2215.97 1317164
3 2215.97 1314034
3 2216.56 1313086
3 2216.56 1312235
3 2216.56 1307783
3 2216.56 1289966
3 2217.71 1285990
3 2218.3 1283238
3 2218.3 1283013
3 2218.3 1279685
3 2218.88 1278963
3 2220.62 1278325
3 2221.2 1277017
3 2221.2 1276211
3 2221.2 1275591
3 2221.8 1272839
3 2222.44 1272142
3 2223 1271219
3 2226.27 1416902
3 2226.27 1386003
3 2226.27 1384143
3 2226.27 1375532
3 2226.27 1375068
3 2226.27 1359260
3 2226.27 1348189
3 2226.27 1346450
3 2226.27 1342946
3 2226.99 1340467
1 2226.99 1339142
3 2226.99 1334621
3 2227.59 1333418
3 2227.59 1332442
3 2227.59 1331966
3 2227.59 1329102
3 2227.59 1326409
3 2228.36 1319618
3 2229.35 1315222
3 2229.35 1303469
3 2229.35 1303365
3 2229.35 1300657
3 2229.35 1300587
3 2229.35 1298578
3 2229.35 1298481
3 2230.37 1296797
3 2231.33 1295578
3 2231.33 1294318
3 2231.33 1286347
3 2240.5 1391428
3 2240.5 1381670
3 2240.5 1377812
3 2240.5 1362278
3 2240.5 1362067
3 2240.5 1357454
3 2240.5 1357103
3 2240.5 1354624
3 2240.5 1350912
3 2241.2 1344268
3 2241.2 1340292
3 2241.81 1329130
3 2241.81 1324340
3 2241.81 1321600
3 2241.81 1319937
3 2241.81 1319627
3 2242.45 1317148
3 2242.45 1315263
3 2243.6 1310865
3 2244.17 1308974
3 2244.17 1306260
3 2244.75 1303781
3 2244.75 1293962
3 2244.75 1290928
3 2245.51 1289669
3 2245.51 1288080
3 2246.54 1285744
3 2246.54 1284395
3 2247.5 1283878
3 2248.42 1283661
3 2248.42 1282850
3 2248.42 1281730
3 2248.42 1278102
3 2248.42 1275178
3 2249.41 1273351
3 2252.56 1272129
3 2254.01 1563788
3 2254.01 1560754
3 2254.01 1533779
3 2254.01 1493590
3 2254.01 1460868
3 2254.01 1412108
3 2254.01 1409742
3 2254.01 1387431
3 2254.01 1387102
3 2254.01 1378443
3 2254.01 1367305
3 2254.83 1365277
3 2254.83 1359812
3 2254.83 1354680
3 2254.83 1343166
3 2254.83 1340893
3 2255.55 1334526
3 2255.55 1333353
3 2255.55 1331492
3 2255.55 1331170
3 2255.55 1329172
3 2256.27 1326362
3 2256.27 1324490
3 2256.27 1323360
3 2256.27 1321902
3 2256.27 1318892
3 2256.89 1316413
3 2256.89 1308220
3 2256.89 1304727
3 2256.89 1301668
3 2256.89 1299695
3 2258.15 1299138
3 2258.15 1295089
3 2258.15 1283303
3 2258.15 1280824
3 2261.08 1276828
3 2261.72 1274998
3 2261.72 1274081
3 2262.32 1273908
3 2264.77 1271203
3 2265.69 1270006
3 2268.28 1369325
3 2268.28 1366846
3 2268.28 1357459
3 2268.28 1350903
3 2268.28 1330872
3 2268.28 1329418
3 2268.28 1324737
3 2268.28 1320037
3 2268.28 1319853
3 2268.28 1317556
3 2269.48 1312339
3 2270.47 1310380
3 2270.47 1308246
3 2270.47 1304317
3 2270.47 1303731
3 2272.38 1291980
3 2272.38 1290007
3 2272.38 1287082
3 2272.38 1284615
3 2273.05 1279013
3 2273.05 1277878
3 2273.8 1277275
3 2273.8 1274615
3 2275.53 1273912
3 2276.69 1272147
3 2277.88 1271852
3 2280.93 1270735
3 2281.89 1266063
3 2282.84 1496940
3 2282.84 1454094
3 2282.84 1443182
3 2282.84 1414610
3 2282.84 1399236
3 2282.84 1396757
3 2282.84 1392627
3 2283.97 1378402
3 2283.97 1376997
3 2283.97 1348301
3 2283.97 1341776
3 2284.84 1336528
3 2284.84 1326217
3 2284.84 1319172
3 2285.47 1318835
3 2285.47 1314859
3 2285.47 1305782
3 2286.48 1301679
3 2286.48 1298823
3 2287.07 1288622
3 2287.07 1281521
3 2288.3 1276836
3 2296.42 1447339
3 2296.42 1442054
3 2296.42 1441843
3 2296.42 1427976
3 2296.42 1425122
3 2297.49 1416538
3 2297.49 1403414
3 2297.49 1398593
3 2297.49 1356365
1 2298.51 1339317
3 2298.51 1329851
3 2298.51 1311281
3 2298.51 1300134
3 2298.51 1296100
3 2298.51 1281793
3 2298.51 1280384
3 2299.6 1276648
3 2300.54 1272988
3 2300.54 1269793
3 2301.77 1269242
3 2301.77 1267275
3 2301.77 1264796
3 2302.35 1264764
3 2302.35 1264574
3 2303.29 1263446
3 2303.29 1262509
3 2303.29 1258878
3 2304.28 1258741
3 2304.28 1258041
3 2304.28 1253920
3 2306.46 1251947
3 2307.03 1249223
3 2309.22 1247008
3 2310.03 1446820
3 2310.03 1444341
3 2310.03 1441748
3 2310.03 1408058
3 2310.03 1402840
3 2310.81 1394009
3 2310.81 1382436
3 2310.81 1368002
3 2310.81 1366496
3 2310.81 1360391
3 2311.85 1359266
3 2311.85 1344869
3 2311.85 1343458
3 2311.85 1339949
3 2311.85 1330395
3 2311.85 1329208
3 2312.89 1327435
3 2312.89 1325296
3 2312.89 1325096
3 2312.89 1323720
3 2313.9 1321442
3 2314.85 1319527
3 2315.76 1319084
3 2316.36 1315090
3 2317.19 1314182
3 2317.19 1310357
3 2317.19 1304117
3 2319.12 1302635
3 2321.01 1301161
3 2321.94 1301086
3 2322.93 1300950
3 2324.64 1378058
3 2324.64 1353266
3 2324.64 1350623
3 2324.64 1348285
3 2324.64 1338661
3 2324.64 1334611
3 2324.64 1331985
3 2324.64 1327855
3 2325.34 1317710
3 2325.34 1315701
3 2325.34 1311302
3 2326.24 1305670
3 2326.24 1304941
3 2326.24 1301371
3 2326.24 1298892
3 2326.24 1278729
3 2327.28 1276023
3 2327.28 1273276
3 2327.28 1269850
3 2329.51 1269109
3 2330.07 1264300
3 2338.18 1511987
3 2338.18 1511600
3 2338.18 1482024
1 2338.18 1438565
3 2338.18 1425042
3 2338.18 1423922
3 2338.18 1421949
1 2338.18 1412317
3 2338.18 1403391
3 2338.88 1394237
3 2338.88 1383943
3 2338.88 1383125
3 2338.88 1377415
3 2338.88 1370189
3 2338.88 1361687
3 2339.72 1360039
3 2339.72 1350635
3 2339.72 1335312
3 2339.72 1331370
3 2339.72 1330069
3 2339.72 1322889
3 2340.64 1319548
3 2341.28 1307820
3 2341.28 1304280
3 2342.3 1303127
3 2342.3 1298730
3 2342.3 1293751
3 2343.01 1292150
3 2343.59 1287271
3 2344.16 1285295
3 2345.01 1284278
3 2345.98 1282675
3 2345.98 1280102
3 2345.98 1279530
3 2347.84 1277557
3 2352.33 1379376
3 2352.33 1356035
3 2352.33 1352107
3 2353.18 1339574
3 2353.79 1333910
3 2353.79 1333022
3 2353.79 1329950
3 2354.49 1323618
3 2354.49 1319426
3 2354.49 1314204
3 2355.09 1310631
3 2357.44 1308152
3 2364.64 1302577
3 2365.25 1302505
3 2365.25 1299920
3 2365.25 1294712
3 2365.25 1291965
3 2365.95 1290056
3 2366.54 1439576
3 2366.54 1428640
3 2366.54 1394323
3 2366.54 1393494
3 2367.22 1391410
3 2367.22 1386977
3 2367.22 1379446
3 2367.22 1373253
3 2367.86 1368800
3 2367.86 1366824
3 2367.86 1363233
3 2367.86 1357809
3 2367.86 1355732
3 2367.86 1353768
3 2367.86 1352333
3 2367.86 1352172
3 2368.56 1348272
3 2368.56 1346667
3 2368.56 1335025
3 2368.56 1328487
3 2368.56 1325266
3 2368.56 1317598
3 2368.56 1314618
3 2369.24 1314607
3 2369.24 1311145
3 2369.24 1310512
3 2369.24 1308140
3 2369.24 1308086
3 2369.95 1303894
3 2371.15 1303106
3 2371.15 1302536
3 2371.79 1295984
3 2371.79 1293249
3 2373.02 1288788
3 2373.8 1283962
3 2373.8 1283767
3 2373.8 1275557
3 2373.8 1274518
3 2374.7 1272214
3 2375.64 1271290
3 2376.65 1269900
3 2380.54 1505096
3 2380.54 1493605
3 2380.54 1473929
3 2380.54 1462290
3 2380.54 1456062
3 2380.54 1452915
3 2381.43 1445265
3 2381.43 1407737
3 2381.43 1404731
3 2382.07 1396275
3 2382.07 1392974
3 2382.07 1392261
3 2382.07 1385186
3 2382.07 1377418
3 2382.89 1374939
3 2382.89 1334729
3 2382.89 1323416
3 2382.89 1317247
3 2383.49 1316487
3 2383.49 1311051
3 2383.49 1309238
3 2383.49 1306022
3 2383.49 1304417
3 2384.22 1304240
3 2384.22 1302608
3 2384.22 1302100
3 2384.22 1296038
3 2384.22 1295994
3 2385.09 1294664
3 2385.86 1288114
3 2385.86 1285893
3 2385.86 1285474
3 2385.86 1284001
3 2387.13 1283330
3 2389.92 1282963
3 2391.44 1282752
3 2391.44 1277589
3 2392.43 1273559
3 2394.01 1466680
3 2394.01 1466442
3 2394.01 1461757
3 2394.01 1459442
3 2394.01 1400546
3 2394.01 1356813
3 2394.01 1346132
3 2394.01 1342946
3 2395.07 1340031
3 2395.07 1335341
3 2395.07 1332862
3 2395.07 1330251
3 2395.07 1328708
3 2395.07 1316325
3 2396.38 1315800
3 2396.38 1312112
3 2396.38 1307741
3 2397.19 1305020
3 2398.7 1304122
3 2398.7 1298814
3 2398.7 1292447
3 2398.7 1292336
3 2403.79 1291861
3 2404.72 1281109
3 2404.72 1273618
3 2404.72 1273326
3 2405.7 1270881
3 2405.7 1266055
3 2408.51 1404100
3 2408.51 1402338
3 2408.51 1397498
3 2408.51 1389068
3 2408.51 1361351
3 2408.51 1360304
3 2409.56 1357557
3 2409.56 1345485
3 2409.56 1325621
3 2409.56 1323272
3 2410.61 1320037
3 2410.61 1313868
3 2410.61 1310060
3 2411.55 1307581
3 2412.47 1293483
3 2416.21 1292601
3 2416.21 1289300
3 2416.21 1288285
3 2417.14 1286931
3 2417.14 1284869
3 2417.14 1278268
3 2418.98 1278176
3 2422.44 1522428
3 2422.44 1494862
3 2422.44 1454673
3 2422.44 1438780
3 2422.44 1401252
3 2423.08 1395957
3 2423.08 1390407
3 2423.08 1378916
3 2423.08 1371036
3 2423.08 1364479
3 2423.08 1363104
3 2423.76 1331139
3 2423.76 1330381
3 2424.34 1312026
3 2424.34 1306782
3 2424.34 1303442
3 2424.34 1294242
3 2424.34 1292024
3 2425.15 1285826
3 2425.15 1284807
3 2426.12 1282088
3 2426.12 1277963
3 2428.85 1275048
3 2431.71 1274475
3 2431.71 1272665
3 2434.2 1271314
3 2434.77 1270692
3 2436.48 1428618
3 2436.48 1423655
3 2436.48 1401487
3 2436.48 1401047
3 2437.15 1388265
3 2437.15 1385822
3 2437.15 1381260
3 2437.15 1371450
3 2437.79 1348846
3 2437.79 1340853
3 2437.79 1340488
3 2437.79 1319866
3 2437.79 1313447
3 2437.79 1312684
3 2437.79 1289955
3 2437.79 1289890
3 2438.65 1283805
3 2439.57 1282959
3 2439.57 1281326
3 2440.17 1280283
3 2440.17 1279353
3 2440.17 1273996
3 2440.75 1271083
3 2440.75 1268610
3 2440.75 1267994
3 2441.54 1265780
3 2441.54 1263872
3 2441.54 1261398
3 2444.71 1261393
3 2444.71 1260723
3 2444.71 1260687
3 2445.32 1259509
3 2446.26 1258396
3 2450.27 1422315
3 2450.27 1418076
3 2450.27 1413824
3 2450.27 1412030
3 2450.27 1405257
3 2450.27 1398440
3 2450.27 1394188
3 2450.27 1391005
3 2450.27 1386054
3 2451.4 1383674
3 2451.4 1374843
3 2451.4 1367894
3 2451.4 1364807
3 2452.46 1355614
3 2452.46 1352269
3 2452.46 1349538
3 2452.46 1347664
3 2452.46 1340478
3 2452.46 1335598
3 2453.67 1333323
3 2454.4 1330844
3 2454.99 1329368
3 2454.99 1328743
3 2455.66 1328003
3 2456.24 1326698
3 2456.24 1323738
3 2456.24 1314480
3 2456.24 1304078
3 2457.29 1301760
3 2459.23 1299787
3 2464.76 1402172
3 2464.76 1398885
3 2464.76 1382984
3 2464.76 1380317
3 2464.76 1379804
3 2464.76 1361388
3 2464.76 1351901
3 2464.76 1348118
3 2464.76 1347382
3 2466.75 1343424
3 2466.75 1327616
3 2467.71 1325137
3 2468.65 1321931
3 2468.65 1320196
3 2468.65 1309048
3 2469.44 1305953
3 2469.44 1303085
3 2470.01 1302444
3 2470.01 1295892
3 2472.28 1293909
1 2472.28 1291545
3 2473.25 1289565
3 2474.2 1289518
3 2476.97 1289291
3 2477.93 1289118
3 2477.93 1287039
3 2478.78 1424778
3 2478.78 1421530
3 2478.78 1412580
3 2478.78 1408377
3 2478.78 1403411
3 2478.78 1386949
3 2478.78 1371779
3 2478.78 1366843
3 2478.78 1366016
3 2478.78 1364750
3 2479.5 1360430
3 2479.5 1349923
3 2479.5 1346225
3 2479.5 1339833
3 2479.5 1339815
3 2479.5 1337994
3 2479.5 1336457
3 2479.5 1331231
3 2479.5 1330359
3 2480.3 1329654
3 2480.3 1326358
3 2480.3 1318559
3 2480.89 1315981
3 2481.46 1314529
3 2481.46 1311729
3 2481.46 1311221
3 2482.09 1309488
3 2482.09 1309108
3 2482.09 1300972
3 2482.09 1300424
3 2482.76 1299457
3 2482.76 1290873
3 2483.53 1290458
3 2484.49 1288963
3 2484.49 1288303
3 2485.44 1286806
3 2485.44 1286363
3 2485.44 1284119
3 2485.44 1280515
3 2492.03 1454329
3 2492.03 1434734
3 2492.03 1432255
3 2492.03 1422867
3 2492.03 1411955
3 2492.03 1387907
3 2492.03 1378301
3 2492.03 1367958
3 2492.03 1360068
3 2492.03 1359868
3 2492.03 1359044
3 2493.34 1350615
3 2493.34 1344536
3 2493.34 1337357
3 2493.34 1336155
3 2493.34 1314832
3 2493.34 1313909
3 2494.41 1313218
3 2494.41 1310939
3 2494.41 1308313
3 2494.41 1306721
3 2494.41 1302795
3 2494.41 1295105
3 2494.41 1293175
3 2495.43 1290241
3 2495.43 1288942
3 2496.42 1288262
3 2496.42 1288250
3 2497.14 1285979
3 2497.14 1284933
3 2497.78 1273257
3 2497.78 1271260
3 2501.81 1268823
3 2502.77 1267806
3 2502.77 1266850
3 2502.77 1265701
3 2505.15 1264371
3 2506.03 1480170
3 2506.03 1474972
3 2506.03 1470996
3 2506.03 1458521
3 2506.03 1409540
3 2506.03 1399151
3 2506.03 1382126
3 2506.03 1372109
3 2506.03 1370136
3 2506.03 1367657
3 2506.03 1362421
3 2506.03 1360802
3 2507.07 1349008
3 2507.07 1346529
3 2507.07 1345212
3 2507.07 1345156
3 2507.07 1342626
3 2507.07 1340148
3 2507.86 1331230
3 2507.86 1323961
3 2507.86 1321988
3 2507.86 1307633
3 2507.86 1300709
3 2508.8 1295908
3 2508.8 1292207
3 2508.8 1284230
3 2508.8 1282516
3 2508.8 1282257
3 2509.75 1281304
3 2509.75 1279546
3 2510.65 1275778
3 2510.65 1275754
3 2511.51 1269072
3 2511.51 1267458
3 2512.27 1264654
3 2512.27 1263420
3 2513.2 1262218
3 2514.11 1260972
3 2514.11 1260633
3 2520.18 1351229
3 2520.18 1341229
3 2520.18 1331118
3 2520.18 1330466
3 2520.18 1323302
3 2520.18 1320555
3 2521.18 1313749
3 2522.19 1310111
3 2522.19 1302785
3 2522.19 1302334
3 2522.19 1299783
3 2523.23 1296338
3 2523.23 1294524
3 2524.22 1291901
3 2524.22 1284118
3 2524.22 1283930
3 2524.22 1283377
3 2525.05 1281429
3 2525.05 1281404
3 2528.3 1278113
3 2531.03 1277904
3 2531.03 1277428
3 2533.16 1273572
3 2533.95 1272607
3 2534.61 1419219
3 2534.61 1408312
3 2534.61 1394427
3 2534.61 1373483
3 2534.61 1371004
3 2534.61 1364509
3 2534.61 1350335
3 2535.57 1347819
3 2535.57 1343783
3 2535.57 1333504
3 2535.57 1331422
3 2536.29 1330803
3 2536.29 1329481
3 2536.99 1318427
3 2536.99 1316130
3 2536.99 1314812
3 2536.99 1313966
3 2536.99 1310483
3 2536.99 1309511
3 2536.99 1307298
3 2537.71 1304072
3 2537.71 1302765
3 2537.71 1300518
3 2537.71 1297886
3 2537.71 1295913
3 2537.71 1295000
3 2537.71 1292253
3 2538.83 1287082
3 2540.68 1285640
3 2541.29 1284844
3 2541.88 1281078
3 2541.88 1279437
3 2541.88 1278596
3 2543.64 1278449
3 2543.64 1274437
3 2544.57 1274403
3 2545.18 1273353
3 2545.18 1271122
3 2545.9 1269447
3 2548.6 1514798
3 2548.6 1482076
3 2548.6 1452085
3 2548.6 1446855
3 2548.6 1433702
3 2548.6 1431729
3 2548.6 1422283
3 2548.6 1405429
3 2549.7 1404138
3 2549.7 1386199
3 2549.7 1375089
3 2549.7 1359230
3 2549.7 1356196
3 2549.7 1355698
3 2550.72 1346772
3 2550.72 1333692
3 2550.72 1326556
3 2550.72 1321939
3 2550.72 1315916
3 2551.72 1314364
3 2552.66 1313922
3 2553.59 1310536
3 2553.59 1310132
3 2554.54 1309320
3 2554.54 1307370
3 2561.25 1305839
3 2562.51 1404996
3 2562.51 1371535
3 2562.51 1359840
3 2562.51 1350780
3 2562.51 1345382
3 2562.51 1343409
3 2563.17 1330955
3 2563.17 1324350
3 2563.17 1323219
3 2563.17 1321603
3 2565.57 1320737
3 2565.57 1320593
3 2565.57 1316816
3 2566.89 1308105
3 2566.89 1297448
3 2566.89 1289749
3 2566.89 1287626
3 2569.3 1285802
3 2569.3 1279458
3 2569.3 1278222
3 2570.09 1278055
3 2570.09 1276648
3 2570.85 1276422
3 2571.96 1272180
3 2572.93 1268710
3 2573.56 1267224
3 2573.56 1266510
3 2573.56 1264745
3 2576.37 1533166
3 2576.37 1526799
3 2576.37 1497757
3 2576.37 1491281
3 2576.37 1470851
3 2576.37 1462267
3 2576.37 1461931
3 2577.07 1446123
3 2577.07 1428445
3 2577.07 1417620
3 2577.07 1404549
3 2577.07 1388589
3 2577.07 1373093
3 2577.07 1355984
3 2577.07 1351542
3 2577.07 1339823
3 2577.07 1336561
3 2577.83 1333515
3 2577.83 1329561
3 2577.83 1327561
3 2577.83 1321211
3 2578.76 1320018
3 2578.76 1319454
3 2578.76 1313726
3 2578.76 1302814
3 2578.76 1302003
3 2579.49 1300196
3 2580.06 1298223
3 2580.62 1295744
3 2583 1293573
3 2583.68 1283913
3 2583.68 1277638
3 2583.68 1277284
3 2584.24 1276725
3 2584.24 1275229
3 2584.24 1272597
3 2585.09 1271324
3 2586.99 1269036
3 2586.99 1268955
3 2588.77 1267282
3 2589.55 1265676
3 2589.55 1265438
3 2589.55 1265109
3 2590.19 1445991
3 2590.19 1440441
3 2590.19 1408117
3 2590.19 1387736
3 2590.19 1354275
3 2590.19 1353377
3 2590.19 1334752
3 2590.19 1334495
3 2590.19 1334245
3 2591.01 1330394
3 2591.01 1329761
3 2591.01 1324170
3 2591.64 1318896
3 2591.64 1314338
3 2591.64 1311591
3 2591.64 1311148
3 2592.32 1303697
3 2592.32 1301650
3 2592.32 1297017
3 2592.32 1293449
3 2592.32 1291715
3 2593.83 1290533
3 2593.83 1288054
3 2593.83 1287605
3 2597.36 1283293
3 2604.55 1592033
3 2604.55 1555718
3 2604.55 1521440
3 2604.55 1485157
3 2604.55 1483752
3 2604.55 1481194
3 2605.48 1477670
3 2605.48 1472849
3 2605.48 1445808
3 2605.48 1440339
3 2605.48 1426472
3 2605.48 1418689
3 2605.48 1385977
3 2605.48 1383468
3 2606.39 1362589
3 2606.39 1362145
3 2606.39 1358307
3 2606.39 1348678
3 2606.39 1342126
3 2606.39 1338644
3 2606.39 1328065
3 2607.2 1310885
3 2607.2 1307322
3 2607.89 1306495
3 2607.89 1304016
3 2607.89 1280899
3 2607.89 1277804
3 2608.49 1273805
3 2608.49 1272223
3 2609.15 1267402
3 2612.1 1266991
3 2613.02 1265194
3 2614.92 1262939
3 2614.92 1262840
3 2615.79 1262666
3 2615.79 1262473
3 2617.55 1260499
3 2618.1 1428383
3 2618.1 1425904
3 2618.1 1409422
3 2618.1 1389082
3 2618.1 1377304
3 2618.1 1367697
3 2618.1 1365724
3 2618.1 1356858
3 2618.1 1356056
3 2618.88 1336331
3 2618.88 1326721
3 2618.88 1321884
3 2619.58 1321680
3 2619.58 1321437
3 2619.58 1306157
3 2619.58 1302089
3 2619.58 1296653
3 2619.58 1295220
3 2619.58 1292485
3 2620.26 1291155
3 2620.26 1290075
3 2620.26 1288340
3 2620.86 1285023
3 2620.86 1284690
3 2620.86 1284477
3 2620.86 1277584
3 2620.86 1276415
3 2621.63 1276021
3 2621.63 1274049
3 2623.53 1273404
3 2626.33 1272366
3 2626.33 1271197
3 2626.33 1270209
3 2627.35 1268293
3 2632.43 1433563
3 2632.43 1390436
3 2632.43 1364740
3 2632.43 1359936
3 2632.43 1351587
3 2632.43 1336091
3 2633.25 1328134
3 2633.25 1322454
3 2633.25 1310084
3 2634.17 1295677
1 2635.2 1292687
3 2635.2 1285617
3 2635.2 1285225
3 2635.2 1284697
3 2635.2 1283990
3 2635.2 1283244
3 2635.2 1283151
3 2636.32 1273747
3 2637.49 1270004
3 2638.1 1268604
3 2638.72 1268188
3 2638.72 1267914
3 2638.72 1265896
3 2638.72 1261303
3 2639.79 1259330
3 2640.74 1256121
3 2642.52 1253161
3 2646.08 1435271
3 2646.08 1407240
3 2646.08 1392139
3 2646.08 1382103
3 2646.08 1377282
3 2646.08 1375241
3 2646.08 1374484
3 2646.08 1366381
3 2647.14 1358245
3 2647.14 1353554
3 2647.14 1352321
3 2647.14 1350282
3 2647.14 1345530
3 2647.14 1339796
3 2647.14 1334394
3 2648.36 1333937
3 2649.29 1330963
3 2649.29 1320963
3 2649.29 1318996
3 2650.25 1310412
3 2650.25 1307452
3 2653.7 1307166
3 2653.7 1301734
3 2654.33 1300802
3 2657.15 1288050
3 2658.94 1280747
3 2659.51 1279219
3 2660.27 1428603
3 2660.27 1409686
3 2660.27 1396548
3 2660.27 1392443
3 2660.27 1383172
3 2660.27 1380749
3 2660.27 1378002
3 2660.27 1375031
3 2660.27 1371127
3 2660.27 1369227
3 2660.27 1363258
3 2660.27 1361241
3 2660.27 1357581
3 2661.34 1355167
3 2661.34 1351522
3 2661.34 1351249
1 2661.34 1346020
3 2662.17 1342634
3 2662.17 1340407
3 2662.8 1339752
3 2662.8 1322980
3 2662.8 1321086
3 2662.8 1314172
3 2662.8 1307933
3 2663.67 1307733
3 2664.57 1306744
3 2665.32 1300230
3 2665.32 1296944
3 2665.32 1293984
3 2667.13 1288809
3 2671.94 1288280
3 2671.94 1286772
3 2673.38 1284493
3 2674.17 1397823
3 2674.17 1397612
3 2674.17 1396247
3 2674.17 1382380
3 2674.17 1379346
3 2674.17 1367434
3 2674.17 1362754
3 2675.35 1346311
3 2675.35 1343713
3 2675.35 1341234
3 2675.35 1339835
3 2675.35 1339521
3 2676.38 1334967
3 2676.38 1331360
3 2676.38 1328881
3 2677.37 1328538
3 2677.37 1316669
3 2677.37 1316627
3 2677.37 1314895
3 2678.36 1308710
3 2678.36 1308684
3 2678.36 1304921
3 2678.36 1297659
3 2678.36 1289113
3 2678.36 1287030
3 2679.38 1283929
3 2679.38 1283142
3 2680.31 1279539
3 2681.21 1277357
3 2683.02 1275564
3 2683.97 1272378
3 2683.97 1271700
3 2688.74 1428410
3 2688.74 1395517
3 2688.74 1381907
3 2688.74 1370946
3 2688.74 1364912
3 2688.74 1352816
3 2689.68 1349767
3 2689.68 1347450
3 2689.68 1343032
3 2689.68 1342816
3 2691.89 1338501
3 2692.78 1333548
3 2692.78 1333365
3 2693.4 1327127
3 2693.4 1318991
3 2694.05 1318123
3 2694.05 1310325
3 2694.64 1304875
3 2696.35 1298330
3 2696.35 1291722
3 2698.08 1289774
3 2702.59 1465307
3 2702.59 1464837
3 2702.59 1458756
3 2702.59 1455803
3 2702.59 1441463
3 2702.59 1432879
3 2702.59 1423475
3 2702.59 1416923
3 2703.28 1415041
3 2703.28 1387454
3 2703.28 1385084
3 2703.28 1376253
3 2703.28 1375493
3 2703.97 1370988
3 2703.97 1367517
3 2703.97 1351709
3 2703.97 1349638
3 2703.97 1349394
3 2703.97 1349092
3 2704.83 1326298
3 2704.83 1326243
3 2704.83 1314944
3 2704.83 1312274
3 2706.1 1310264
3 2706.1 1308098
3 2708.62 1304557
3 2708.62 1298355
3 2708.62 1298293
3 2709.24 1296957
3 2709.92 1295646
3 2709.92 1295555
3 2710.54 1294575
3 2711.74 1292602
3 2714.41 1290680
3 2714.41 1290191
3 2716.53 1444923
3 2716.53 1412177
3 2716.53 1410878
3 2716.53 1397351
3 2716.53 1389995
3 2716.53 1385565
3 2716.53 1381595
3 2716.53 1372764
3 2716.53 1370285
3 2717.31 1362502
3 2717.31 1354523
3 2717.31 1352646
3 2717.31 1349258
3 2717.95 1340626
3 2717.95 1336650
3 2717.95 1331445
3 2718.63 1325213
3 2718.63 1323309
3 2718.63 1321237
3 2718.63 1317519
3 2718.63 1311183
3 2719.26 1310946
3 2719.84 1309024
3 2719.84 1308467
3 2719.84 1303763
3 2719.84 1301766
3 2722.57 1300856
3 2722.57 1299373
3 2722.57 1298123
3 2723.86 1298039
3 2725.96 1298003
3 2725.96 1295945
3 2726.58 1295323
3 2729.86 1294224
3 2730.48 1545515
3 2730.48 1544641
3 2730.48 1485622
3 2730.48 1476220
3 2730.48 1456521
3 2730.48 1426933
3 2730.48 1418514
3 2730.48 1415610
3 2730.48 1411214
3 2730.48 1381251
3 2731.18 1378076
3 2731.18 1367021
3 2731.18 1357468
3 2731.18 1340967
3 2731.18 1328434
3 2731.92 1327142
3 2731.92 1326924
3 2731.92 1324426
3 2732.55 1323613
3 2732.55 1319517
3 2732.55 1314811
3 2732.55 1308335
3 2734.45 1301927
3 2735.37 1301850
3 2735.37 1298860
3 2736.32 1296519
3 2736.32 1294971
3 2737.25 1294609
3 2737.25 1290902
3 2738.18 1290848
3 2738.18 1289430
3 2738.18 1287691
3 2739.71 1286352
3 2739.71 1284348
3 2742.22 1283424
3 2742.22 1283210
3 2742.22 1279817
3 2742.22 1279599
3 2744.06 1380472
3 2744.06 1375549
3 2744.06 1358847
3 2744.06 1355543
3 2744.06 1349502
3 2744.06 1349227
3 2744.06 1348731
3 2744.06 1332838
3 2744.06 1326649
3 2744.91 1317062
3 2744.91 1310937
3 2744.91 1305828
3 2745.8 1302520
3 2745.8 1300062
3 2746.81 1299270
3 2746.81 1297820
3 2747.76 1297814
3 2747.76 1294767
3 2747.76 1293570
3 2748.35 1292715
3 2748.92 1288715
3 2750.86 1282447
3 2750.86 1279576
3 2750.86 1277415
3 2751.85 1277163
3 2752.77 1274598
3 2755.05 1273172
3 2756.2 1272737
3 2757.14 1271199
3 2758.1 1397928
3 2758.1 1370902
3 2758.1 1363688
3 2758.1 1355796
3 2758.1 1343729
3 2758.1 1336594
3 2758.1 1331943
3 2758.1 1327492
3 2759.04 1318565
3 2759.04 1313870
3 2759.04 1302413
3 2759.04 1300341
3 2759.04 1293809
3 2760.45 1287215
3 2760.45 1282069
3 2761.03 1279605
3 2761.62 1276436
3 2772.76 1390584
3 2772.76 1361023
3 2772.76 1353261
3 2772.76 1340728
3 2773.5 1337718
3 2773.5 1313519
3 2775.57 1310355
3 2775.57 1306241
3 2776.59 1302392
3 2776.59 1302265
3 2776.59 1301739
3 2779.51 1290841
3 2780.87 1288824
3 2783.26 1287657
3 2783.26 1283916
3 2784.63 1277038
3 2786.42 1357636
3 2786.42 1353253
3 2786.42 1351932
3 2786.42 1342318
3 2786.42 1341727
3 2786.42 1336786
3 2786.42 1333826
3 2787.48 1331347
3 2787.48 1326977
3 2790.55 1302451
3 2790.55 1299269
3 2790.55 1297393
3 2790.55 1289257
3 2792.18 1283309
3 2793.14 1280830
3 2793.98 1280673
query_times: 88
Score = 1263995
