    Blocking waiting for file lock on package cache
    Blocking waiting for file lock on package cache
    Blocking waiting for file lock on package cache
    Finished `release` profile [optimized] target(s) in 0.05s
     Running `target/release/tester ../a.out 0058`
3 0.028 1557358
3 0.028 1513199
3 0.028 1488420
3 0.028 1460854
3 0.028 1460417
3 0.028 1459897
3 0.028 1458375
3 0.028 1457341
3 0.028 1456584
3 0.028 1445232
3 0.028 1428446
3 1.083 1400256
3 1.083 1394863
3 1.083 1388611
3 1.083 1382342
3 1.083 1350208
3 1.083 1337953
3 1.852 1328671
3 3.077 1309930
3 3.077 1306695
3 3.753 1298626
3 3.753 1295949
3 3.753 1283449
3 4.437 1276898
3 4.437 1275395
3 4.437 1264949
3 6.329 1261913
3 8.096 1259026
3 8.706 1258542
3 9.327 1257963
3 9.327 1256737
3 11.123 1255701
3 11.728 1254811
3 14.072 1437079
3 14.072 1434988
3 14.072 1421969
3 14.072 1414353
3 14.072 1400923
3 14.072 1400622
3 14.918 1394795
3 15.576 1389838
3 15.576 1387739
3 15.576 1380367
3 15.576 1377614
3 15.576 1350422
3 15.576 1345955
3 16.392 1339421
3 16.392 1337563
3 16.392 1335538
3 16.392 1330383
3 16.392 1330137
3 17.158 1329350
3 18.377 1328106
3 18.377 1327259
3 19.023 1320570
3 19.023 1317555
3 20.274 1316557
3 21.481 1316040
3 21.481 1312097
3 23.277 1311554
3 23.877 1310749
3 26.306 1308452
3 26.306 1306985
3 27.006 1306098
3 28.251 1400871
3 28.251 1384368
3 28.251 1380028
3 28.251 1368233
3 28.251 1346737
3 28.251 1339963
3 28.251 1326096
3 28.251 1324735
3 28.251 1319436
3 29.127 1319338
3 29.127 1305431
3 29.127 1302376
3 29.127 1299484
3 29.127 1294975
3 29.127 1291475
3 30.995 1288585
3 30.995 1288253
3 30.995 1286806
3 31.665 1285393
3 31.665 1284409
3 34.023 1283138
3 34.023 1281826
3 35.729 1281035
3 36.605 1280595
3 37.533 1276672
3 37.533 1276180
3 38.507 1275995
3 38.507 1275091
3 39.458 1271311
3 42.088 1439461
3 42.088 1409014
3 42.088 1397229
3 42.088 1392861
3 42.088 1386220
3 42.088 1385182
3 42.088 1378211
3 42.088 1370582
3 42.088 1363921
3 43.219 1361425
3 43.219 1353990
3 43.219 1347000
3 43.219 1345034
3 43.219 1322972
3 44.246 1321125
3 44.246 1318378
3 45.166 1317726
3 45.166 1316797
3 46.053 1308342
3 46.893 1307604
3 46.893 1305445
3 47.764 1297645
3 47.764 1293620
3 49.465 1291012
3 49.465 1289670
3 49.465 1287325
3 50.358 1282950
3 50.358 1276685
3 56.304 1493992
3 56.304 1479353
3 56.304 1444585
3 56.304 1430071
3 56.304 1417044
3 56.304 1416284
3 57.386 1372125
3 57.386 1345107
3 57.386 1345096
3 57.386 1331923
3 57.386 1327377
3 58.417 1313851
3 58.417 1311543
3 58.417 1307742
3 59.391 1307069
3 59.391 1305743
3 59.391 1295913
3 59.391 1294373
3 59.391 1288712
3 59.391 1287182
3 60.437 1279502
3 60.437 1274609
3 60.437 1273853
3 61.389 1268908
3 63.074 1268087
3 63.074 1265678
3 63.074 1264093
3 64.817 1262545
3 65.783 1261140
3 65.783 1260269
3 65.783 1258303
3 70.297 1419787
3 70.297 1406350
3 70.297 1403117
3 70.297 1399315
3 70.297 1381148
3 70.297 1360274
3 70.297 1350990
3 70.297 1344198
3 70.297 1330566
3 71.485 1329009
3 71.485 1322789
3 73.384 1315876
3 73.384 1308850
3 73.384 1300413
3 74.435 1296388
3 76.324 1292586
3 81.083 1291561
3 81.083 1289153
3 84.991 1423210
3 84.991 1419576
3 84.991 1382648
3 84.991 1352288
3 84.991 1334103
3 84.991 1333556
3 84.991 1323463
3 84.991 1319691
3 84.991 1318213
3 84.991 1314659
3 86.262 1312293
3 86.262 1301015
3 87.258 1300078
3 87.258 1299098
3 87.258 1298664
3 87.258 1297993
3 87.258 1296185
3 88.327 1290974
3 88.327 1290449
3 89.351 1288407
3 90.278 1287694
3 90.278 1285215
3 91.233 1282679
3 91.233 1280194
3 92.242 1279421
3 93.223 1273827
3 94.199 1272995
3 94.199 1270684
3 94.199 1269170
3 94.199 1264678
3 98.149 1376352
3 98.149 1368899
3 98.149 1360655
3 98.149 1355666
3 98.149 1338847
3 98.149 1336049
3 98.149 1328539
3 98.149 1321377
3 99.398 1311659
3 100.404 1308519
3 100.404 1304774
3 100.404 1298461
3 100.404 1296712
3 100.404 1295085
3 101.612 1294355
3 102.605 1294030
3 103.56 1293723
3 105.55 1293697
3 105.55 1291173
3 106.592 1290976
3 107.745 1287287
3 109.784 1285305
3 109.784 1282747
3 110.823 1281466
3 110.823 1281069
3 110.823 1280263
3 111.902 1278802
3 111.902 1276250
3 112.905 1527016
3 112.905 1511056
3 112.905 1477909
3 112.905 1476565
3 112.905 1475334
3 112.905 1472855
3 112.905 1431947
3 112.905 1399225
3 112.905 1379339
3 114.216 1377527
3 114.216 1368943
3 114.216 1367884
3 114.216 1364784
3 114.216 1350938
3 114.216 1345500
3 114.216 1335270
3 115.459 1302977
3 115.459 1301810
3 116.491 1294815
3 118.463 1281892
3 119.475 1276947
3 122.299 1266229
3 122.299 1265929
3 124.331 1262365
3 126.246 1444444
3 126.246 1422788
3 126.246 1407987
3 126.246 1407796
3 126.246 1405801
3 126.246 1335447
3 126.246 1332444
3 126.246 1331172
3 127.521 1329882
3 127.521 1324218
3 127.521 1319273
3 127.521 1317838
3 128.648 1313239
3 128.648 1305241
3 129.647 1305116
3 129.647 1304288
3 129.647 1294886
3 130.688 1292249
3 130.688 1288046
3 131.703 1277883
3 135.582 1276789
3 135.582 1273626
3 135.582 1269266
3 136.697 1267212
3 136.697 1266211
3 137.672 1265690
3 138.662 1264163
3 138.662 1263115
3 138.662 1260361
3 138.662 1258963
3 138.662 1258254
3 139.756 1257159
3 140.719 1405805
3 140.719 1404692
3 140.719 1395861
3 140.719 1392757
3 140.719 1386906
3 141.92 1381182
3 141.92 1372826
3 141.92 1360734
3 141.92 1356125
3 141.92 1351544
3 143.059 1341302
3 143.059 1337677
3 143.059 1332220
3 143.059 1329141
3 143.059 1328375
3 143.059 1326640
3 144.236 1321380
3 144.236 1320841
3 145.223 1318048
3 146.204 1311360
3 146.204 1305085
3 146.204 1302338
3 149.107 1297257
1 152.945 1295846
3 152.945 1289435
3 154.96 1570254
3 154.96 1555308
3 154.96 1507166
3 154.96 1502221
3 154.96 1489505
3 154.96 1488342
3 154.96 1475879
3 154.96 1466294
3 154.96 1452429
3 154.96 1449709
3 154.96 1433556
3 156.37 1402746
3 156.37 1390827
3 156.37 1388107
3 156.37 1379370
3 157.475 1379248
3 157.475 1372248
3 157.475 1360236
3 157.475 1359259
3 158.584 1350911
3 158.584 1350014
3 158.584 1348653
3 159.662 1347137
3 159.662 1347111
3 159.662 1336471
3 159.662 1329976
3 159.662 1326286
3 159.662 1317149
3 160.818 1314133
3 160.818 1310954
3 161.808 1309516
3 161.808 1307059
3 161.808 1301811
3 162.922 1292087
3 162.922 1291240
3 162.922 1289363
3 162.922 1289126
3 162.922 1288545
3 162.922 1288400
3 162.922 1286334
3 164.19 1280915
3 165.237 1276753
3 167.213 1275042
3 168.167 1534199
3 168.167 1501477
3 168.167 1486632
3 168.167 1454185
3 168.167 1445112
3 168.167 1440318
3 168.167 1405463
3 169.384 1392540
3 169.384 1387595
3 169.384 1384218
3 169.384 1373749
3 169.384 1372958
3 170.492 1356805
3 170.492 1354141
3 170.492 1345234
3 170.492 1335754
3 170.492 1332377
3 170.492 1332117
3 171.672 1329388
3 172.686 1326122
3 172.686 1315210
3 172.686 1311097
3 172.686 1308349
3 172.686 1306919
3 172.686 1295232
3 172.686 1293205
3 172.686 1290673
3 172.686 1287791
3 173.915 1287281
3 173.915 1281235
3 176.812 1277794
3 176.812 1277064
3 178.897 1274315
3 180.761 1271449
3 180.761 1270457
3 182.695 1599833
3 182.695 1597359
3 182.695 1566912
3 182.695 1523294
3 182.695 1480652
3 182.695 1468581
3 182.695 1461586
3 182.695 1449826
3 182.695 1443958
3 183.96 1442962
3 183.96 1426792
3 183.96 1421851
3 183.96 1408081
3 183.96 1386152
3 183.96 1385941
3 183.96 1381122
3 183.96 1374122
1 185.229 1368552
3 185.229 1351234
3 185.229 1345953
3 185.229 1329013
3 185.229 1323695
3 185.229 1318463
3 186.343 1317519
3 186.343 1312710
3 186.343 1312383
3 187.378 1309629
3 189.197 1308007
3 189.197 1306783
3 189.197 1305348
3 190.215 1304644
3 190.215 1304557
3 191.244 1303368
3 192.329 1299255
3 192.329 1296576
3 193.444 1295922
3 194.485 1294797
3 194.485 1293501
3 194.485 1291589
1 196.497 1542890
3 196.497 1540411
3 196.497 1535454
3 196.497 1507464
3 196.497 1466556
3 196.497 1434729
3 196.497 1430294
3 196.497 1417371
3 196.497 1389181
3 197.834 1385999
3 197.834 1378269
3 197.834 1345831
3 197.834 1341341
3 197.834 1323649
3 198.956 1320841
3 198.956 1318550
3 198.956 1315419
3 198.956 1314836
3 198.956 1307345
3 198.956 1307169
3 198.956 1305033
3 200.169 1304857
3 200.169 1299672
3 200.169 1297149
3 201.183 1295222
3 201.183 1293147
3 201.183 1287520
3 201.183 1286253
3 201.183 1285041
3 202.265 1284671
3 202.265 1284304
3 202.265 1284102
3 203.277 1274204
3 203.277 1273647
3 203.277 1267911
3 208.152 1267175
3 210.191 1381484
3 210.191 1380896
3 210.191 1370200
3 210.191 1366354
3 210.191 1364699
3 210.191 1355714
3 210.191 1347056
3 210.191 1345587
3 210.191 1331232
3 210.191 1327550
3 210.191 1318719
3 211.283 1315972
3 211.283 1313773
3 211.283 1311593
3 211.283 1308597
3 212.104 1308501
3 212.104 1308425
3 212.104 1300782
3 212.104 1289083
3 212.104 1286675
3 213.643 1284547
3 213.643 1284310
3 213.643 1278461
3 214.421 1276880
3 214.421 1273594
3 216.761 1271831
3 216.761 1271465
3 217.478 1270849
3 220.305 1268056
3 220.305 1266077
3 221.792 1265577
3 224.508 1397214
3 224.508 1381653
3 224.508 1368678
3 224.508 1359396
3 224.508 1357697
3 225.401 1350702
3 225.401 1342693
3 225.401 1331433
3 225.401 1329064
3 225.401 1321046
3 226.252 1307153
3 227.547 1292159
3 238.208 1344052
3 238.208 1334617
3 238.208 1330160
3 239.269 1329497
3 239.269 1323204
3 240.247 1322062
3 240.247 1317937
3 241.264 1311262
3 241.264 1306871
3 241.264 1298805
3 241.264 1298410
3 241.264 1292373
3 242.426 1292162
3 242.426 1289062
3 243.499 1283672
3 243.499 1281970
3 243.499 1278295
3 243.499 1276873
3 244.719 1276374
3 244.719 1273875
3 245.629 1273706
3 246.326 1273317
3 247.009 1266327
3 248.305 1265849
3 248.963 1265181
3 249.665 1263190
3 250.313 1262820
3 252.223 1382839
3 252.223 1377737
3 252.223 1363393
3 252.223 1350308
3 253.02 1333398
3 253.02 1325819
3 253.02 1322165
3 254.006 1322063
3 254.006 1319686
3 255.574 1316896
3 255.574 1315575
3 255.574 1315205
3 255.574 1312828
3 256.68 1301338
3 257.638 1300124
3 257.638 1294741
3 258.691 1291994
3 258.691 1278148
3 266.287 1413042
3 266.287 1397082
3 266.287 1387510
3 266.287 1384247
3 266.287 1358685
3 266.287 1349854
3 266.287 1347795
3 267.536 1337349
3 268.577 1336310
3 268.577 1321119
3 271.5 1320443
3 271.5 1312204
3 271.5 1309183
3 271.5 1306538
3 272.619 1305769
3 273.609 1304014
3 273.609 1304007
3 273.609 1301503
3 280.573 1429564
3 280.573 1429439
3 280.573 1399173
3 280.573 1389938
3 280.573 1349474
3 280.573 1348817
3 280.573 1346522
3 281.826 1343628
3 281.826 1342196
3 282.843 1339086
3 282.843 1333067
3 282.843 1329483
3 282.843 1327346
3 282.843 1326727
3 282.843 1325248
3 284.002 1323259
3 284.982 1321716
3 284.982 1319031
3 284.982 1316605
3 286.913 1315386
3 288.775 1313360
3 288.775 1309437
3 289.767 1309120
3 290.778 1300437
3 291.919 1300309
3 292.678 1299961
3 293.355 1298867
3 293.355 1295673
3 294.048 1494654
3 294.048 1457033
3 294.048 1423886
3 294.048 1417835
3 294.048 1400227
3 294.048 1392218
3 294.048 1380268
3 294.048 1377042
3 295.036 1362403
3 295.036 1355408
3 295.036 1349821
3 295.036 1349308
3 295.815 1329347
3 295.815 1328266
3 295.815 1327142
3 296.586 1324845
3 296.586 1322014
3 296.586 1315859
3 296.586 1308424
3 296.586 1308147
3 296.586 1307151
3 297.424 1305945
3 297.424 1283429
3 297.424 1281173
3 297.424 1281059
3 299.339 1279559
3 299.339 1273624
3 299.339 1270175
3 300.917 1262691
3 300.917 1261061
3 300.917 1261025
3 301.639 1257770
3 301.639 1255970
3 302.33 1255656
3 302.33 1252525
3 303.065 1250666
3 303.727 1250609
3 304.397 1250218
3 308.37 1360584
3 308.37 1356144
3 308.37 1349345
3 308.37 1348855
3 308.37 1345311
3 308.37 1339493
3 309.262 1328903
3 309.262 1327353
3 309.262 1326445
3 309.262 1324787
3 309.262 1320369
3 310.79 1310396
3 310.79 1308694
3 310.79 1299949
3 310.79 1298938
3 310.79 1295465
3 310.79 1291893
3 315.809 1289215
3 317.229 1287745
3 320.363 1280665
3 320.363 1277133
3 320.363 1275922
3 322.617 1544626
3 322.617 1492523
3 322.617 1481270
3 322.617 1478920
3 322.617 1464303
3 322.617 1453819
3 322.617 1442714
1 322.617 1430814
3 322.617 1418984
3 322.617 1411717
3 322.617 1405339
3 322.617 1389531
3 323.696 1388601
3 323.696 1387110
3 323.696 1381600
3 323.696 1380051
3 323.696 1379121
3 323.696 1377138
3 324.647 1370906
3 324.647 1361990
3 324.647 1359547
3 324.647 1356585
3 325.434 1353148
3 325.434 1348810
3 325.434 1340225
3 325.434 1333002
3 325.434 1323263
3 325.434 1319751
3 326.287 1319249
3 326.287 1315077
3 326.985 1309972
3 326.985 1306872
3 326.985 1304517
3 326.985 1299681
3 327.752 1299413
3 328.411 1297840
3 328.411 1295361
3 328.411 1294491
3 329.163 1293179
3 329.163 1291802
3 329.85 1289345
3 330.543 1286710
3 332.515 1285526
3 332.515 1282476
3 332.515 1279833
3 332.515 1270866
3 333.469 1270549
3 334.217 1263843
3 334.217 1261741
3 335.226 1261298
3 336.218 1493037
3 336.218 1446814
3 336.218 1432949
3 336.218 1427829
3 336.218 1423181
3 336.218 1379563
3 336.218 1372128
3 336.218 1371059
3 337.562 1358845
3 337.562 1353971
3 337.562 1349026
3 337.562 1348173
3 337.562 1342778
3 337.562 1338104
3 338.797 1337885
3 338.797 1332470
3 338.797 1332259
3 339.883 1320126
3 339.883 1318389
3 339.883 1318117
3 339.883 1317787
3 341.024 1308630
3 341.024 1301630
3 341.024 1292026
3 342.117 1291283
3 344.051 1291088
3 344.051 1290283
3 344.051 1290264
3 345.198 1289387
3 345.198 1281378
3 346.239 1280511
3 346.239 1277153
3 348.294 1275992
3 348.294 1268997
3 349.418 1263840
3 350.475 1385901
3 350.475 1364435
3 350.475 1361015
3 350.475 1349755
3 350.475 1349062
3 350.475 1342681
3 350.475 1342113
3 351.841 1320695
3 351.841 1312686
3 352.781 1312138
3 353.63 1301966
3 354.587 1300878
3 355.578 1296804
3 357.894 1295893
3 357.894 1295483
3 357.894 1294475
3 357.894 1291728
3 357.894 1291531
3 358.933 1290884
3 358.933 1289762
3 359.805 1269471
3 359.805 1269092
3 359.805 1268016
3 360.714 1264769
3 360.714 1263761
3 360.714 1259818
3 360.714 1253284
3 365.036 1494837
3 365.036 1477333
3 365.036 1444886
3 365.036 1442621
3 365.036 1439596
3 365.036 1420844
3 365.036 1410719
3 366.257 1382586
3 366.257 1368728
3 366.257 1355264
3 366.257 1349490
3 367.53 1348415
3 367.53 1343371
3 370.014 1338310
3 370.014 1336376
3 371.187 1333919
3 371.187 1328941
3 372.196 1327944
3 372.196 1323809
3 373.276 1322856
3 374.324 1317553
3 376.493 1314495
3 376.493 1309230
3 377.565 1303668
3 377.565 1299068
3 378.65 1430861
3 378.65 1408799
3 378.65 1390189
3 378.65 1389784
3 378.65 1373631
3 378.65 1365915
3 378.65 1359688
3 378.65 1350332
3 378.65 1342998
3 378.65 1340075
3 378.65 1331244
3 378.65 1324211
3 379.998 1321761
3 379.998 1317913
3 379.998 1311904
3 379.998 1308477
3 379.998 1304469
3 379.998 1302288
3 379.998 1301935
3 379.998 1294262
3 379.998 1288128
3 381.046 1286284
3 381.769 1286260
3 382.467 1283574
3 383.207 1283560
3 383.207 1283149
3 383.207 1280926
3 384.221 1277012
3 384.221 1275848
3 385.364 1272014
3 386.426 1269453
3 387.482 1265445
3 392.312 1341964
3 392.312 1338604
3 392.312 1336167
3 392.312 1333870
3 393.456 1331691
3 393.456 1330738
3 393.456 1327743
3 393.456 1324272
3 394.569 1318868
3 394.569 1315212
3 394.569 1305697
3 394.569 1302698
3 395.456 1297434
3 395.456 1288355
3 395.456 1284215
3 396.302 1282654
3 397.069 1281705
3 397.069 1279239
3 397.069 1278812
3 397.995 1276028
3 397.995 1271560
3 397.995 1265805
3 397.995 1262003
3 399.015 1261918
3 399.015 1261594
3 401.411 1261109
3 401.411 1252228
3 406.482 1478569
3 406.482 1435365
3 406.482 1410393
3 406.482 1384207
3 406.482 1370129
3 406.482 1363168
3 406.482 1349583
3 406.482 1328098
3 407.469 1319185
3 407.469 1309781
3 408.202 1299141
3 408.202 1293969
3 408.202 1288615
3 408.202 1285603
3 408.202 1283768
3 408.202 1280885
3 409.067 1278996
3 409.067 1278062
3 409.067 1277677
3 409.833 1273875
3 409.833 1273734
3 409.833 1269020
3 411.99 1265302
3 411.99 1263990
3 412.721 1262839
3 414.025 1262657
3 414.791 1261573
3 416.228 1258931
3 417.253 1256726
3 418.241 1253979
3 418.241 1253579
3 418.241 1248169
3 420.212 1363467
3 420.212 1335820
3 420.212 1330370
3 420.212 1328922
3 420.212 1326486
3 421.329 1321423
3 421.329 1316359
3 423.212 1315585
3 423.212 1302920
3 425.124 1300744
3 425.124 1300233
3 427.887 1291268
3 427.887 1290848
3 428.872 1284726
3 430.712 1280537
3 433.536 1280386
3 434.579 1443908
3 434.579 1412431
3 434.579 1403181
3 434.579 1387221
3 434.579 1381870
3 434.579 1381790
3 434.579 1381004
3 434.579 1372242
3 434.579 1367306
3 434.579 1358022
3 436.2 1355146
3 436.2 1351882
3 436.2 1346411
3 436.2 1338294
3 436.2 1326658
3 436.2 1321452
3 437.53 1316262
3 437.53 1307587
3 438.648 1304840
3 438.648 1303646
3 439.668 1301878
3 439.668 1300180
3 440.679 1299826
3 440.679 1298282
1 441.675 1298035
3 441.675 1296989
3 445.664 1289345
3 446.631 1285907
3 446.631 1285372
3 446.631 1284419
3 448.583 1367072
3 448.583 1362848
3 448.583 1356314
3 448.583 1352411
3 448.583 1351690
3 448.583 1336340
3 448.583 1316116
3 448.583 1313226
3 448.583 1313182
3 450.807 1309354
3 450.807 1307671
3 450.807 1299748
3 452.791 1296584
3 453.801 1291718
3 454.789 1285833
3 455.768 1283782
3 455.768 1277230
3 455.768 1273428
3 456.866 1272798
3 456.866 1272566
3 458.818 1272478
3 462.528 1485316
3 462.528 1459956
3 462.528 1443569
3 462.528 1426259
3 462.528 1410451
3 462.528 1393901
3 462.528 1388815
3 462.528 1385287
3 463.794 1384729
3 463.794 1370906
3 463.794 1333643
3 463.794 1317986
3 463.794 1315449
3 464.892 1305322
3 466.761 1303869
3 466.761 1297800
3 466.761 1295124
3 466.761 1289435
3 466.761 1289078
3 471.585 1282972
3 472.6 1274287
3 474.504 1270173
3 474.504 1268772
3 476.492 1389473
3 476.492 1389015
3 476.492 1384688
3 476.492 1373461
3 477.329 1365945
3 477.329 1365678
3 477.329 1364150
3 477.329 1354788
3 477.329 1353476
3 478.977 1329644
3 479.711 1327557
3 480.658 1326859
3 481.616 1322605
3 481.616 1319043
3 481.616 1318488
3 483.347 1309685
3 485.319 1304060
3 485.319 1300625
3 487.905 1296638
3 487.905 1294847
3 487.905 1292525
3 490.278 1466907
3 490.278 1461962
3 490.278 1434921
3 490.278 1428596
3 490.278 1427836
3 490.278 1421867
3 491.152 1383095
3 491.152 1380291
3 491.152 1340480
3 491.91 1340089
3 491.91 1336414
3 491.91 1330534
3 492.654 1329044
3 492.654 1320375
3 492.654 1316637
3 492.654 1316410
3 492.654 1312289
3 493.512 1308555
3 493.512 1308204
3 493.512 1307125
3 494.329 1304134
3 495.156 1293981
3 495.878 1285207
3 495.878 1284269
3 495.878 1282648
3 496.619 1279938
3 496.619 1275803
3 496.619 1273289
3 499.402 1271561
3 499.402 1266561
3 500.873 1266168
3 500.873 1261223
3 504.395 1447350
3 504.395 1442784
3 504.395 1439237
3 504.395 1432242
3 504.395 1429904
3 504.395 1420305
3 505.466 1414273
3 505.466 1401902
3 505.466 1395243
3 505.466 1393717
3 505.466 1388507
3 505.466 1376397
3 506.319 1373836
3 506.319 1364994
3 506.319 1361497
3 506.319 1358980
3 506.319 1355900
3 506.319 1347107
3 506.319 1338276
3 506.319 1327251
3 506.319 1320857
3 508.554 1315771
3 508.554 1313862
3 509.529 1310448
3 509.529 1308141
3 509.529 1296800
3 510.545 1287796
3 510.545 1287290
3 511.522 1285764
3 511.522 1285014
3 511.522 1278972
3 512.537 1276267
3 512.537 1271543
3 512.537 1271349
3 512.537 1270778
3 513.62 1270757
3 514.63 1270306
3 515.548 1269009
3 516.454 1268892
3 517.368 1268790
3 518.293 1500044
3 518.293 1485966
3 518.293 1454028
3 518.293 1451549
3 518.293 1443533
3 518.293 1399374
3 518.293 1394078
3 518.293 1390573
3 518.293 1382675
3 518.293 1373665
3 518.293 1361332
3 518.293 1351989
3 518.293 1351301
3 519.684 1348661
3 519.684 1345712
3 519.684 1336881
3 519.684 1335738
3 519.684 1329886
3 520.754 1324299
3 520.754 1322724
3 520.754 1321651
1 520.754 1319630
3 521.804 1304472
3 521.804 1303939
3 521.804 1297561
3 521.804 1292110
3 521.804 1290562
3 523.002 1286961
3 523.002 1279966
3 523.002 1276824
3 523.002 1276804
3 524.079 1271166
3 525.09 1267553
3 525.09 1266628
3 525.09 1265100
3 529.467 1256871
3 532.287 1479169
3 532.287 1460548
3 532.287 1417205
3 532.287 1402581
3 532.287 1386773
3 532.287 1384294
3 533.495 1383357
3 533.495 1377772
3 533.495 1376295
3 533.495 1360032
3 533.495 1359211
3 536.137 1351287
3 536.137 1349237
3 536.137 1346746
3 537.484 1346036
3 537.484 1339876
3 537.484 1332426
3 538.614 1331805
3 538.614 1327959
3 538.614 1325712
3 539.717 1324984
3 540.631 1322610
3 540.631 1322555
3 540.631 1318295
3 540.631 1315898
3 541.683 1314515
3 542.711 1313952
3 543.696 1313440
3 543.696 1310386
3 544.751 1299472
3 544.751 1296596
3 546.512 1396564
3 546.512 1383641
3 546.512 1373229
3 546.512 1359388
3 546.512 1347803
3 546.512 1345506
3 547.531 1345244
3 547.531 1334673
3 547.531 1329436
3 547.531 1328591
3 548.493 1322057
3 548.493 1320492
3 549.321 1315584
3 549.321 1301738
3 550.158 1297444
3 551.141 1295324
3 552.172 1287760
3 552.172 1282607
3 553.134 1281980
3 560.556 1363870
3 560.556 1357970
3 560.556 1354152
3 561.638 1347222
3 561.638 1339787
3 561.638 1338310
3 561.638 1331677
3 561.638 1326711
3 562.773 1313788
3 562.773 1313655
3 563.796 1305379
3 564.784 1299069
3 569.66 1292914
3 570.373 1292739
3 570.373 1290435
3 572.457 1289597
3 573.799 1282861
3 573.799 1282243
3 574.516 1533770
3 574.516 1501147
3 574.516 1492953
3 574.516 1483834
3 574.516 1467737
3 574.516 1437290
1 574.516 1428737
3 574.516 1411633
3 574.516 1393125
3 574.516 1374373
3 575.569 1356968
3 575.569 1342303
3 575.569 1337145
3 575.569 1336073
3 576.358 1332874
3 577.71 1330127
3 578.428 1328491
3 578.428 1314512
3 578.428 1311765
3 580.51 1310132
3 582.47 1302544
3 585.684 1297597
3 587.478 1297406
3 588.323 1481898
3 588.323 1469041
3 588.323 1464650
3 588.323 1462385
3 588.323 1418226
3 588.323 1409034
3 588.323 1406555
3 589.366 1380147
3 589.366 1380100
3 589.366 1362241
3 589.366 1361562
3 590.213 1345409
3 590.213 1339228
3 590.213 1330020
3 590.213 1329933
3 590.213 1328316
3 590.213 1324051
3 590.213 1320881
3 591.117 1313201
3 591.117 1311468
3 591.848 1298948
3 591.848 1286791
3 591.848 1284584
3 592.589 1284034
3 592.589 1283523
3 592.589 1282359
3 593.375 1281173
3 594.101 1278502
3 594.101 1276313
3 594.101 1275972
3 594.919 1273557
3 594.919 1273504
3 594.919 1272518
3 594.919 1266683
3 595.774 1266354
3 596.637 1261409
3 599.467 1253978
3 601.582 1253405
3 603.628 1580673
3 603.628 1576509
3 603.628 1564684
3 603.628 1527063
3 603.628 1524897
3 603.628 1483604
3 603.628 1462730
3 603.628 1457598
3 603.628 1450722
3 604.765 1432712
3 604.765 1429310
3 604.765 1425550
3 604.765 1412123
3 604.765 1410911
3 604.765 1408890
3 604.765 1402451
3 604.765 1388819
3 604.765 1382872
3 604.765 1378363
3 604.765 1377927
3 605.891 1370492
3 605.891 1366589
3 606.787 1345953
3 606.787 1345600
3 606.787 1342620
3 606.787 1341860
3 606.787 1334524
3 607.773 1327362
3 607.773 1326533
3 608.591 1304430
3 608.591 1304103
3 610.001 1300204
3 610.001 1296731
3 610.755 1295037
3 615.115 1294428
3 615.115 1294130
3 616.669 1433029
3 616.669 1421246
3 616.669 1413463
3 616.669 1383721
3 616.669 1374890
3 616.669 1366308
3 616.669 1364588
3 616.669 1338678
3 617.862 1333628
3 617.862 1333057
3 617.862 1331388
3 617.862 1331177
3 617.862 1328513
3 618.915 1326932
3 618.915 1325888
3 618.915 1320318
3 618.915 1312883
3 618.915 1308053
3 619.768 1307986
3 619.768 1304751
3 619.768 1304432
3 620.524 1304221
3 620.524 1296531
3 620.524 1292729
3 621.337 1292533
3 621.337 1291375
3 622.105 1290399
3 622.792 1287509
3 623.472 1280514
3 624.884 1278647
3 626.236 1278641
3 626.236 1275183
3 630.16 1419731
3 630.16 1412736
3 630.16 1398890
3 630.16 1389788
3 630.16 1382324
3 630.16 1379170
3 630.16 1363031
3 630.16 1358488
3 631.136 1354686
3 631.136 1354598
3 631.136 1352467
3 631.136 1346589
3 631.136 1339724
3 631.136 1338583
3 631.136 1332013
3 632.063 1324063
3 632.063 1317816
3 632.063 1304184
3 632.063 1297287
3 632.063 1288580
3 634.285 1287822
3 635.157 1285557
3 635.993 1284991
3 635.993 1281664
3 635.993 1281549
3 636.76 1280685
3 636.76 1278276
3 639.568 1275046
3 640.259 1268146
3 640.259 1267219
3 641.052 1265853
3 641.052 1264906
3 641.807 1264145
3 642.479 1263447
3 643.149 1263336
3 644.486 1526120
3 644.486 1521175
3 644.486 1509350
3 644.486 1465732
3 644.486 1435285
3 644.486 1421418
3 644.486 1383740
3 644.486 1379245
3 644.486 1363923
3 645.497 1361104
3 645.497 1335224
3 646.834 1334561
3 647.491 1333056
3 647.491 1323798
3 647.491 1321777
3 647.491 1317566
3 648.329 1311520
3 649.221 1305654
3 649.221 1293034
3 649.945 1283194
3 649.945 1282907
3 651.493 1282270
3 654.23 1274197
3 656.749 1270390
3 656.749 1263014
3 658.101 1469396
3 658.101 1452328
3 658.101 1441640
3 658.101 1430132
3 658.101 1423137
3 658.101 1415702
3 658.101 1400891
3 658.101 1400141
3 658.101 1394901
3 658.101 1394554
3 659.215 1387582
3 659.215 1379849
3 659.215 1379458
3 659.215 1376079
3 659.215 1376059
3 659.215 1374904
3 659.215 1365934
3 659.215 1365277
3 659.215 1363965
3 660.21 1359920
3 660.21 1356118
3 660.21 1355495
3 660.957 1349886
3 661.647 1349553
3 661.647 1342944
3 661.647 1337839
3 661.647 1333982
3 661.647 1333391
3 661.647 1332524
3 662.481 1330914
3 662.481 1324644
3 662.481 1324063
3 663.277 1323765
3 665.327 1313322
3 666.78 1305815
3 666.78 1304136
3 666.78 1301275
3 667.844 1298920
3 667.844 1297678
3 667.844 1297671
3 669.045 1297014
3 669.045 1293219
3 669.045 1287416
3 670.108 1281985
3 670.108 1277011
3 672.128 1426100
3 672.128 1423706
3 672.128 1422557
3 672.128 1408243
3 672.128 1402917
3 672.128 1400306
3 672.128 1396556
3 672.128 1389666
3 673.473 1388354
3 673.473 1380954
3 673.473 1372123
3 673.473 1370484
3 673.473 1367579
3 673.473 1365720
3 674.652 1360359
3 674.652 1342574
3 674.652 1330439
3 675.472 1321291
3 675.472 1317158
3 679.529 1306896
3 679.529 1306139
3 680.286 1303660
3 680.286 1300818
3 681.013 1300256
3 681.751 1293261
3 681.751 1292876
3 682.498 1290114
3 682.498 1288001
3 683.292 1287628
3 684.039 1286302
3 684.887 1282159
3 684.887 1280363
3 684.887 1278357
3 685.848 1277959
3 686.563 1434147
3 686.563 1429202
3 686.563 1403371
3 686.563 1400818
3 686.563 1393656
1 686.563 1379950
3 686.563 1376283
3 686.563 1365643
3 686.563 1355756
3 686.563 1353009
3 687.587 1345202
3 687.587 1343958
3 687.587 1342402
3 687.587 1336416
3 688.435 1332998
3 688.435 1330251
3 688.435 1329126
3 688.435 1328340
3 688.435 1324181
3 689.238 1323910
3 689.238 1316746
3 689.238 1313622
3 689.238 1303992
3 689.238 1301231
3 689.238 1296865
3 690.072 1296660
3 690.745 1293447
3 690.745 1292901
3 690.745 1287208
3 691.475 1282896
3 692.166 1280046
3 692.166 1275588
3 692.849 1273784
3 692.849 1272895
3 694.158 1269988
3 694.158 1269435
3 694.158 1269047
3 694.983 1266300
3 694.983 1266163
3 698.835 1265556
3 698.835 1263892
3 700.194 1382249
3 700.194 1377834
3 700.194 1370407
3 700.194 1368105
3 700.194 1363406
3 700.194 1357818
3 701.159 1350656
3 701.159 1349264
3 701.159 1342817
3 701.159 1339186
3 702.094 1338651
3 702.094 1336439
3 702.094 1319313
3 702.094 1312110
3 702.094 1309635
3 702.094 1304685
3 702.926 1303868
3 702.926 1301591
3 702.926 1298944
3 703.707 1294250
3 703.707 1293341
3 704.453 1289297
3 704.453 1288492
3 705.218 1285994
3 705.218 1285775
3 705.955 1281244
3 705.955 1280951
3 705.955 1278539
3 706.685 1271100
3 708.591 1270361
3 710.477 1269708
3 714.3 1334450
3 714.3 1333849
3 714.3 1327497
3 714.3 1326885
3 714.3 1321219
3 714.3 1317417
3 715.204 1312010
3 715.204 1311293
3 715.204 1311227
3 715.204 1309538
3 716.005 1303955
3 716.667 1303618
3 716.667 1301622
3 717.449 1300711
3 721.566 1297060
3 722.904 1296299
3 723.567 1294498
3 723.567 1294456
3 724.266 1292764
3 725.035 1292371
3 725.707 1286021
3 727.088 1284999
3 727.732 1284974
3 727.732 1284588
3 728.424 1550744
3 728.424 1544948
3 728.424 1523723
3 728.424 1504814
3 728.424 1484025
3 728.424 1446749
3 728.424 1446430
3 728.424 1419514
3 729.319 1409387
3 729.319 1406908
3 729.319 1380599
3 729.319 1363290
3 729.319 1360050
3 730.12 1359451
3 730.12 1358766
3 730.12 1355915
3 730.12 1349979
3 730.12 1344920
3 730.916 1339158
3 730.916 1323243
3 730.916 1317602
3 730.916 1316150
3 730.916 1315215
3 732.323 1305482
3 732.323 1304313
3 732.994 1303101
3 733.648 1299531
3 733.648 1291492
3 734.443 1290548
3 734.443 1290131
3 734.443 1282862
3 735.25 1278479
3 736.011 1274529
3 736.66 1272209
3 739.11 1269703
3 739.11 1268914
3 742.333 1357853
3 742.333 1350131
3 742.333 1346548
3 742.333 1342302
3 742.333 1333018
3 743.176 1324273
3 743.176 1321830
3 743.176 1321794
3 743.176 1321681
3 743.176 1319213
3 743.947 1318881
3 746.465 1316024
3 747.097 1315899
3 747.097 1306911
3 747.097 1299566
3 747.097 1294872
3 747.097 1289832
3 747.893 1289225
3 748.601 1289157
3 748.601 1287541
3 748.601 1285315
3 748.601 1284042
3 748.601 1282244
3 749.388 1281939
3 750.018 1277237
3 750.018 1277050
3 750.728 1276920
3 751.506 1274547
3 756.118 1408486
3 756.118 1378679
3 756.118 1368552
3 756.118 1367756
3 756.118 1349800
3 756.118 1344855
3 756.118 1341053
3 757.036 1338574
3 757.732 1335752
3 757.732 1335471
3 757.732 1327035
3 757.732 1324379
3 757.732 1318651
3 760.346 1317571
3 760.346 1315222
3 761.047 1313725
3 761.047 1313449
3 761.047 1312938
3 761.815 1312628
3 761.815 1310924
3 764.435 1309612
3 767.892 1305438
3 767.892 1295732
3 767.892 1295520
3 768.84 1287003
3 770.455 1381110
3 770.455 1375659
3 770.455 1375154
3 770.455 1360029
3 770.455 1359580
3 770.455 1356458
3 771.401 1335275
3 771.401 1323691
3 771.401 1309082
3 771.401 1305109
3 774.634 1304556
3 774.634 1300400
3 774.634 1295601
3 774.634 1290530
3 774.634 1289273
3 774.634 1288773
3 775.723 1287548
3 775.723 1286925
3 775.723 1284120
3 776.58 1281236
3 780.469 1278989
3 782.409 1278682
3 782.409 1278233
3 783.345 1276510
3 784.216 1514441
3 784.216 1498288
3 784.216 1495809
3 784.216 1474150
3 784.216 1441772
3 784.216 1415616
3 784.216 1390976
3 785.483 1377571
3 785.483 1369276
3 785.483 1353468
3 785.483 1350721
3 785.483 1340728
3 785.483 1333733
3 786.435 1329897
3 786.435 1327418
3 786.435 1326413
3 787.369 1325748
3 787.369 1316876
3 787.369 1303244
3 792.395 1302399
3 792.395 1291486
3 792.395 1285979
3 795.354 1273572
3 796.052 1271301
3 796.052 1268354
3 796.052 1268292
3 798.426 1374766
3 798.426 1367771
3 798.426 1346489
3 798.426 1343638
1 799.313 1343432
3 800.013 1342424
3 800.742 1337814
3 800.742 1327767
3 800.742 1325720
3 800.742 1312088
3 802.379 1309444
3 802.379 1306372
3 803.544 1296627
3 803.544 1289342
3 803.544 1288843
3 811.464 1286844
3 812.324 1401771
3 812.324 1391748
3 812.324 1385276
3 812.324 1385032
3 812.324 1374774
3 812.324 1369512
3 812.324 1348206
3 812.324 1344936
3 812.324 1342876
3 813.497 1337750
3 814.359 1336717
3 814.359 1335082
3 815.293 1331866
3 815.293 1331397
3 816.186 1327724
3 816.186 1325261
3 816.186 1322310
3 816.186 1321692
3 816.186 1320307
3 816.186 1313312
3 817.324 1311993
3 818.259 1311476
3 818.259 1310523
3 820.953 1310477
3 820.953 1309021
3 821.671 1306826
3 822.327 1305957
3 824.298 1298896
3 826.189 1452089
3 826.189 1442765
3 826.189 1417201
3 826.189 1412256
3 826.189 1405647
3 826.977 1403626
1 826.977 1372077
3 826.977 1371938
3 826.977 1369483
3 826.977 1362971
3 827.753 1360032
3 827.753 1352249
3 827.753 1349475
3 827.753 1347594
3 829.15 1347388
3 829.15 1344909
1 829.15 1327124
3 829.15 1307457
3 829.897 1302192
3 830.555 1298965
3 830.555 1297441
3 830.555 1294507
3 831.274 1293941
3 831.274 1293237
3 831.274 1291324
3 831.981 1291116
3 831.981 1288369
3 831.981 1280614
3 834.601 1278446
3 834.601 1275852
3 835.534 1275539
3 836.421 1273139
3 836.421 1268544
3 840.346 1433804
3 840.346 1423677
3 840.346 1405699
3 840.346 1389766
3 841.152 1381650
3 841.152 1377998
3 841.152 1375542
3 841.152 1373063
3 842.566 1358985
3 843.216 1337012
3 843.216 1332597
3 843.216 1331364
3 843.945 1329731
3 843.945 1320859
3 843.945 1318389
3 843.945 1315914
3 844.714 1306098
3 845.384 1303677
3 845.384 1297146
3 846.081 1295236
3 846.081 1294034
3 846.811 1291209
3 846.811 1289665
3 848.146 1287019
3 848.795 1284540
3 849.47 1283562
3 849.47 1282600
3 850.179 1278021
3 850.179 1277666
3 851.248 1274823
3 851.248 1272344
3 854.404 1352978
3 854.404 1328194
3 854.404 1317359
3 854.404 1312712
3 854.404 1309527
3 854.404 1299128
3 854.404 1293966
3 855.353 1286397
3 856.032 1283803
3 856.032 1282706
3 858.059 1280173
3 858.059 1277027
3 858.059 1276383
3 858.059 1275985
3 858.834 1273178
3 860.133 1272765
3 860.133 1270491
3 860.133 1270486
3 861.52 1270284
3 867.629 1266924
3 867.629 1265809
3 868.629 1406871
3 868.629 1400825
3 868.629 1386968
3 868.629 1386793
3 868.629 1377509
3 868.629 1367678
3 868.629 1365739
3 868.629 1364387
3 868.629 1361908
3 868.629 1347381
1 870.228 1342489
3 871.256 1332328
3 871.256 1332201
3 871.256 1330581
3 871.256 1316945
3 872.389 1316448
3 873.371 1315124
3 874.402 1297770
3 874.402 1296346
3 875.5 1285298
3 875.5 1276920
3 875.5 1275810
3 876.532 1268316
3 876.532 1267085
3 876.532 1265337
3 877.602 1264222
3 879.517 1262849
3 881.422 1261191
3 882.373 1576878
3 882.373 1562552
1 882.373 1536271
3 882.373 1535651
3 882.373 1471401
3 882.373 1423259
3 882.373 1412032
3 882.373 1399864
3 882.373 1387698
3 882.373 1386826
3 883.777 1356684
3 883.777 1347602
3 883.777 1342819
3 883.777 1342181
3 883.777 1340806
3 884.922 1337838
3 884.922 1333811
3 885.907 1333029
3 885.907 1326355
3 885.907 1322903
3 886.935 1320828
3 886.935 1319383
3 886.935 1318264
3 886.935 1317127
3 886.935 1317090
3 888.028 1310281
3 889.24 1308280
3 889.24 1307802
3 889.24 1305533
3 890.282 1300739
3 890.282 1300498
3 890.282 1300082
3 892.338 1299038
3 894.377 1293055
3 894.377 1290786
3 896.406 1406713
3 896.406 1402386
3 896.406 1370590
3 896.406 1365320
3 896.406 1355347
3 897.61 1345900
3 897.61 1340506
3 897.61 1321462
3 897.61 1318275
3 898.757 1317156
3 900.042 1313472
3 900.974 1312856
3 903.596 1310377
3 904.338 1302113
3 904.338 1297668
3 904.338 1295510
3 904.338 1294563
3 904.338 1293893
3 905.363 1292034
3 905.363 1290467
3 906.091 1283253
3 906.803 1282110
3 907.51 1281872
3 907.51 1279245
3 910.338 1514868
3 910.338 1496388
3 910.338 1460037
3 910.338 1453779
3 910.338 1440285
3 910.338 1417072
3 910.338 1405870
3 910.338 1397210
3 911.405 1393679
3 911.405 1385896
3 911.405 1375256
3 911.405 1372408
3 911.405 1370684
3 911.405 1361400
3 912.421 1360050
1 912.421 1354977
3 913.177 1346146
3 913.177 1343667
3 913.177 1342528
3 913.177 1336232
3 913.177 1335695
3 913.177 1331884
3 914.405 1331682
3 914.405 1330494
3 914.405 1330468
3 915.494 1320854
3 923.381 1319441
3 923.381 1319328
3 924.42 1494538
3 924.42 1494191
3 924.42 1480088
3 924.42 1466456
3 924.42 1437714
3 924.42 1424937
3 924.42 1416928
3 924.42 1416917
3 924.42 1410157
3 924.42 1388526
3 925.751 1386047
3 925.751 1368472
3 925.751 1368108
3 925.751 1340098
3 925.751 1339973
3 926.862 1317327
3 926.862 1315745
3 926.862 1315306
3 926.862 1314042
3 926.862 1312668
3 926.862 1307046
3 928.027 1300486
3 928.027 1299667
3 928.027 1293638
3 929.085 1290891
3 929.756 1287767
3 929.756 1285288
3 931.047 1282461
3 934.248 1280730
3 935.143 1280042
3 936.151 1278084
3 937.091 1277526
3 938.063 1486980
3 938.063 1449663
3 938.063 1441350
3 938.063 1434734
3 938.063 1432810
3 938.063 1392667
3 938.063 1392395
3 938.063 1389339
3 939.342 1389146
3 939.342 1376816
3 939.342 1374199
3 939.342 1374122
3 939.342 1362138
3 939.342 1351328
3 940.496 1328030
3 940.496 1326294
3 940.496 1319314
3 940.496 1314398
3 940.496 1311278
3 940.496 1310515
3 940.496 1297948
3 942.605 1297298
3 943.59 1286837
3 943.59 1283597
3 943.59 1281213
3 943.59 1279909
3 944.678 1277219
3 945.512 1276600
3 945.512 1276019
3 945.512 1272899
3 945.512 1272835
3 946.92 1272823
3 946.92 1271546
3 946.92 1271088
3 951.448 1270245
3 951.448 1268814
3 951.448 1268240
3 951.448 1267613
3 952.379 1554783
3 952.379 1519691
3 952.379 1491701
3 952.379 1478069
3 952.379 1462124
3 952.379 1443372
3 952.379 1442356
3 952.379 1417536
3 952.379 1412331
3 952.379 1402206
3 952.379 1394771
3 952.379 1381500
3 953.854 1380484
3 953.854 1363407
3 953.854 1333481
3 953.854 1325199
3 953.854 1322569
3 955.036 1317432
3 955.036 1311859
3 955.036 1310864
3 956.066 1310375
3 956.066 1298680
3 956.066 1295658
3 957.095 1293530
3 957.095 1292872
3 958.083 1285759
3 958.083 1275415
3 958.083 1275350
3 958.083 1271237
3 959.193 1270326
3 960.254 1269854
3 963.3 1266423
3 964.313 1264855
3 966.159 1592004
3 966.159 1579147
3 966.159 1535529
3 966.159 1526819
3 966.159 1489891
3 966.159 1484946
3 966.159 1452914
3 966.159 1446477
3 966.159 1434209
3 966.159 1433554
3 966.159 1408248
3 966.159 1403107
3 967.693 1398964
3 967.693 1385097
3 967.693 1356194
3 967.693 1348411
3 967.693 1343279
3 967.693 1334672
3 967.693 1325285
3 967.693 1314453
3 967.693 1314251
3 969.594 1312178
3 969.594 1311281
3 969.594 1311215
3 969.594 1307807
3 970.868 1302584
3 971.877 1296700
3 972.872 1293211
3 972.872 1279133
3 973.956 1269097
3 973.956 1264963
3 973.956 1263325
3 976.017 1257787
3 976.985 1257539
3 977.978 1252014
3 978.976 1251257
3 978.976 1251171
3 980.908 1481658
3 980.908 1451211
3 980.908 1444346
3 980.908 1441962
3 980.908 1399641
3 980.908 1394901
3 980.908 1390481
3 980.908 1388867
3 982.147 1381872
3 982.147 1377837
3 982.147 1375358
3 982.147 1360714
3 983.259 1349599
3 983.259 1346852
3 983.259 1344102
3 983.259 1337364
3 983.259 1332538
3 984.45 1329734
3 984.45 1326999
3 984.45 1326300
3 984.45 1326266
3 985.634 1322453
3 986.681 1318494
3 986.681 1303303
3 986.681 1298609
3 987.754 1286974
3 987.754 1281180
3 988.783 1280873
3 993.379 1279067
3 993.379 1273497
3 994.391 1547699
3 994.391 1536439
3 994.391 1522574
3 994.391 1519309
3 994.391 1511532
3 994.391 1474604
3 994.391 1469524
3 994.391 1456363
3 994.391 1448680
3 994.391 1434502
3 994.391 1429247
3 994.391 1393037
3 994.391 1387259
3 994.391 1379383
3 994.391 1368123
3 995.872 1353750
3 995.872 1318170
3 995.872 1303553
3 995.872 1302454
3 995.872 1288687
3 997.014 1286805
3 997.014 1282444
3 997.014 1279424
3 998.065 1277845
3 998.065 1275798
3 999.104 1274568
3 1000.07 1272457
3 1001.05 1271544
3 1001.05 1269162
3 1008.57 1449491
3 1008.57 1443671
1 1008.57 1425760
3 1008.57 1419608
3 1008.57 1400856
3 1008.57 1395720
3 1008.57 1381202
3 1009.82 1373980
3 1009.82 1363853
1 1009.82 1350333
3 1009.82 1350208
3 1009.82 1339266
3 1011 1321036
3 1011 1319211
3 1012.03 1316792
3 1012.03 1316234
3 1012.03 1314804
3 1012.03 1314507
3 1013.25 1312241
3 1013.25 1305975
3 1013.25 1305765
3 1014.43 1304453
3 1014.43 1295299
3 1014.43 1291551
3 1016.69 1291196
3 1016.69 1288610
3 1017.78 1281807
3 1017.78 1276855
3 1017.78 1274322
3 1019.22 1274005
3 1019.22 1272485
3 1020.24 1268448
3 1022.12 1407643
3 1022.12 1400550
3 1022.12 1391872
3 1022.12 1388151
3 1022.12 1384480
3 1022.12 1380419
3 1022.12 1378851
3 1022.12 1377940
3 1023.39 1372717
3 1023.39 1372609
3 1024.37 1369619
3 1024.37 1345481
3 1024.37 1344425
3 1024.37 1344043
3 1024.37 1341600
3 1025.53 1339561
3 1025.53 1336816
3 1025.53 1335708
3 1026.61 1327876
3 1027.62 1321591
3 1027.62 1308935
3 1027.62 1306406
3 1028.55 1305185
3 1029.38 1303265
3 1029.38 1301489
3 1029.38 1298464
3 1031.44 1298138
3 1032.42 1293141
3 1036.41 1413144
3 1036.41 1405277
3 1036.41 1394813
3 1036.41 1388844
3 1036.41 1386097
3 1036.41 1384985
3 1036.41 1381599
3 1036.41 1374734
3 1038.68 1373757
3 1038.68 1369697
3 1038.68 1369486
3 1038.68 1356345
3 1038.68 1348910
3 1038.68 1347207
3 1045.67 1344460
3 1045.67 1325573
3 1045.67 1320186
3 1045.67 1317709
3 1045.67 1316639
3 1045.67 1308623
3 1045.67 1303678
3 1045.67 1303467
3 1046.85 1302437
3 1046.85 1293107
3 1046.85 1292953
3 1047.88 1287628
3 1047.88 1286150
3 1047.88 1286084
3 1047.88 1285148
3 1049.18 1280648
3 1049.18 1272639
3 1050.29 1366869
3 1050.29 1360372
3 1050.29 1356026
3 1050.29 1331426
3 1050.29 1331152
3 1051.39 1327876
3 1052.32 1324047
3 1054.31 1317413
3 1055.44 1315658
3 1055.44 1314819
3 1055.44 1304892
3 1056.49 1300502
3 1057.58 1289582
3 1057.58 1281909
3 1058.7 1280547
3 1058.7 1269719
3 1058.7 1265440
3 1058.7 1264224
3 1059.58 1262933
3 1064.39 1391387
3 1064.39 1365285
3 1064.39 1355408
3 1064.39 1342935
3 1064.39 1339457
3 1064.39 1332449
3 1065.36 1332343
3 1065.36 1331152
3 1065.36 1330590
3 1066.8 1327442
3 1066.8 1321900
3 1067.66 1318611
3 1067.66 1313702
3 1067.66 1312696
3 1067.66 1310438
3 1068.65 1304736
3 1068.65 1296806
3 1068.65 1291205
3 1069.68 1288580
3 1070.61 1287986
3 1072.5 1284568
3 1074.35 1284301
3 1075.5 1283003
3 1076.6 1282219
3 1077.68 1281916
3 1078.77 1422690
3 1078.77 1418835
3 1078.77 1417734
3 1078.77 1408577
1 1078.77 1405885
3 1078.77 1385011
3 1078.77 1369334
3 1078.77 1357130
3 1078.77 1352494
3 1078.77 1342418
3 1080.23 1337698
3 1081.27 1327565
3 1081.27 1325392
3 1081.27 1324952
3 1082.43 1324223
3 1082.43 1321530
3 1082.43 1321470
3 1082.43 1318097
3 1082.43 1315618
3 1083.75 1314433
3 1083.75 1307835
3 1083.75 1307816
3 1083.75 1298985
1 1085.06 1295666
3 1085.06 1294948
3 1085.06 1293902
3 1088.24 1291958
3 1088.24 1290994
3 1089.49 1289039
3 1092.58 1490180
3 1092.58 1469479
3 1092.58 1461417
3 1092.58 1460702
3 1092.58 1433661
3 1092.58 1408824
1 1092.58 1394976
3 1092.58 1385794
3 1092.58 1383047
3 1092.58 1360985
3 1094.03 1355536
3 1094.03 1347236
3 1094.03 1339833
3 1094.03 1330788
3 1095.19 1325475
3 1095.19 1324395
3 1095.19 1317599
3 1095.19 1306854
3 1097.35 1306040
3 1097.35 1305467
3 1098.44 1302975
3 1098.44 1297822
3 1101.58 1294239
3 1102.61 1288824
3 1102.61 1288533
3 1102.61 1287483
3 1102.61 1284727
3 1103.78 1283828
3 1106.77 1478123
1 1106.77 1438880
3 1106.77 1390746
3 1106.77 1382737
3 1106.77 1365177
3 1106.77 1362698
3 1108.07 1350291
3 1108.07 1349404
3 1108.07 1341271
3 1108.07 1336597
3 1108.07 1331359
3 1108.07 1331003
3 1108.07 1328213
3 1109.48 1318718
3 1109.48 1314466
3 1109.48 1311517
3 1111.25 1308060
3 1111.25 1307577
3 1111.25 1305517
3 1111.25 1303826
3 1111.25 1289176
3 1112.48 1285456
3 1112.48 1282317
3 1120.09 1542374
3 1120.09 1510136
3 1120.09 1503924
3 1120.09 1502921
3 1120.09 1501515
3 1120.09 1463894
3 1120.09 1458932
3 1120.09 1448137
3 1120.09 1439433
3 1120.09 1425801
3 1121.61 1423549
3 1121.61 1408910
3 1121.61 1392628
3 1121.61 1374586
3 1121.61 1374461
3 1121.61 1370914
3 1121.61 1364334
3 1121.61 1362880
3 1123.02 1357542
3 1123.02 1353970
3 1123.02 1350888
3 1123.02 1341946
3 1124.15 1340735
3 1124.15 1324927
3 1124.15 1311914
3 1124.15 1309435
3 1124.15 1303814
3 1125.41 1302537
3 1125.41 1300669
3 1126.5 1297913
3 1127.55 1295451
3 1127.55 1292972
3 1135.09 1410391
3 1135.09 1409764
3 1135.09 1404053
3 1135.09 1389950
3 1135.09 1384864
3 1135.09 1382132
3 1136.44 1380725
3 1136.44 1372046
3 1136.44 1362647
3 1136.44 1353363
3 1136.44 1346287
3 1136.44 1345479
3 1137.7 1340813
3 1138.81 1338186
3 1138.81 1336666
3 1138.81 1328830
3 1138.81 1325028
3 1138.81 1323642
3 1141.04 1312105
3 1142.63 1310710
3 1142.63 1302905
3 1142.63 1301546
3 1144.24 1298365
3 1144.24 1291011
3 1144.24 1289540
3 1146.21 1288358
3 1146.21 1287688
3 1147.24 1282475
3 1148.17 1400625
3 1148.17 1396914
3 1148.17 1389233
3 1148.17 1383932
3 1148.17 1376497
3 1148.17 1375185
3 1148.17 1368190
3 1148.17 1358934
3 1148.17 1358828
3 1149.52 1351033
3 1149.52 1349577
3 1149.52 1345197
3 1149.52 1342540
3 1150.53 1336806
3 1150.53 1331089
3 1150.53 1322237
3 1150.53 1317146
3 1151.57 1302926
3 1151.57 1296585
3 1152.69 1295143
3 1152.69 1287765
3 1152.69 1287619
3 1153.9 1282815
3 1155.02 1279493
3 1155.02 1279079
3 1155.02 1277937
3 1155.02 1277758
3 1155.9 1276451
3 1156.63 1274327
3 1156.63 1267327
3 1158.7 1266877
3 1158.7 1264920
3 1159.44 1263947
3 1159.44 1263379
3 1160.22 1263132
3 1162.26 1466089
3 1162.26 1454559
3 1162.26 1410400
3 1162.26 1409726
3 1162.26 1404597
3 1162.26 1395313
3 1162.26 1393326
3 1162.26 1385900
3 1163.22 1384913
3 1163.22 1368929
3 1163.22 1367830
3 1163.22 1363168
3 1163.22 1355655
3 1163.22 1355159
3 1164.1 1341292
3 1164.1 1341063
3 1164.92 1340137
3 1164.92 1335728
1 1164.92 1322461
3 1164.92 1321367
3 1165.71 1314372
3 1166.42 1301444
3 1166.42 1298697
3 1166.42 1296218
3 1166.42 1295750
3 1166.42 1290784
3 1167.44 1287923
3 1167.44 1284880
3 1167.44 1284574
3 1167.44 1284549
3 1167.44 1275265
3 1168.55 1274349
3 1171.94 1272786
3 1172.99 1271602
3 1174 1269746
3 1175.03 1261594
3 1175.03 1259619
3 1176.13 1417191
3 1176.13 1415123
3 1176.13 1414671
3 1176.13 1401760
3 1176.13 1395085
3 1176.13 1384960
3 1176.13 1375339
3 1176.13 1375128
3 1176.13 1374416
3 1177.51 1366736
3 1177.51 1364210
3 1177.51 1364190
3 1177.51 1356216
3 1177.51 1349483
3 1177.51 1342082
3 1177.51 1314541
3 1178.78 1312062
3 1178.78 1308219
3 1178.78 1299782
3 1178.78 1299377
3 1178.78 1299179
3 1178.78 1293946
3 1178.78 1291157
3 1178.78 1290602
3 1178.78 1289678
3 1180.47 1279544
3 1180.47 1275926
3 1180.47 1273595
3 1180.47 1270809
3 1182.49 1269801
3 1190.29 1373116
3 1190.29 1370719
3 1190.29 1370328
3 1190.29 1369754
3 1190.29 1358106
3 1190.29 1341953
3 1190.29 1330601
3 1191.17 1329492
3 1191.17 1328227
3 1191.17 1327863
3 1191.17 1326283
3 1191.17 1324413
3 1191.97 1310567
3 1192.65 1309899
3 1192.65 1308222
3 1192.65 1306954
3 1193.4 1306396
3 1193.4 1297297
3 1193.4 1295942
3 1193.4 1292226
3 1194.19 1285815
3 1194.19 1284654
3 1195.01 1283905
3 1195.01 1280696
3 1196.03 1279819
3 1197.05 1277263
3 1198.08 1267549
3 1198.08 1267138
3 1204.19 1580543
3 1204.19 1551716
3 1204.19 1514788
3 1204.19 1472358
3 1204.19 1467413
3 1204.19 1460174
3 1204.19 1444669
3 1204.19 1423667
3 1204.19 1399352
3 1204.19 1397195
3 1204.19 1391302
3 1204.19 1381828
3 1204.19 1368905
3 1204.19 1349607
3 1204.19 1343596
3 1205.52 1342019
3 1205.52 1329797
3 1205.52 1320803
3 1205.52 1317652
3 1206.65 1313060
3 1206.65 1312907
3 1207.76 1312867
3 1208.89 1311817
3 1208.89 1310079
3 1210.12 1309131
3 1211.13 1308829
3 1211.13 1304982
3 1211.13 1297305
3 1211.13 1296055
3 1212.24 1288820
3 1212.24 1282301
3 1212.24 1279554
3 1213.12 1276242
3 1213.85 1274779
3 1213.85 1273888
3 1215.66 1272390
3 1216.69 1269134
3 1216.69 1266105
3 1216.69 1264823
3 1217.63 1258854
3 1218.5 1395214
3 1218.5 1363321
3 1218.5 1349770
3 1218.5 1315870
3 1219.46 1315632
3 1219.46 1308719
3 1219.46 1306366
3 1220.26 1301145
3 1223.01 1300586
3 1224.38 1298945
3 1232.15 1339714
3 1232.15 1336307
3 1232.15 1330812
3 1232.94 1325690
3 1234.39 1325144
3 1235.22 1321115
3 1235.22 1319005
3 1235.22 1317123
3 1236.05 1315397
3 1236.73 1311595
3 1236.73 1310128
3 1237.45 1308084
3 1237.45 1303139
3 1237.45 1302345
3 1239.52 1296333
3 1241.53 1285862
3 1241.53 1285241
3 1242.32 1284719
3 1243.01 1283432
3 1245.09 1282991
3 1246.41 1427262
3 1246.41 1425882
3 1246.41 1404187
3 1246.41 1398218
3 1246.41 1395303
3 1246.41 1392103
3 1246.41 1376969
3 1246.41 1372624
3 1246.41 1369186
3 1247.41 1368727
3 1247.41 1364925
3 1247.41 1360490
3 1248.29 1358577
3 1248.29 1355727
3 1248.29 1346674
3 1248.29 1333637
3 1249.86 1325795
3 1249.86 1324892
3 1250.69 1321310
3 1250.69 1309754
3 1251.64 1308999
3 1252.41 1307911
3 1253.18 1306244
3 1253.9 1300723
3 1254.65 1300107
3 1255.37 1299778
3 1255.37 1299501
3 1255.37 1293215
3 1255.37 1291903
3 1256.22 1287706
3 1256.95 1284679
3 1257.9 1283536
3 1257.9 1283098
3 1258.69 1280650
3 1259.43 1276760
3 1260.24 1447531
3 1260.24 1413119
3 1260.24 1388140
3 1260.24 1387191
3 1260.24 1384439
3 1261.12 1376504
3 1261.12 1367100
3 1261.12 1330668
3 1261.89 1323987
3 1262.62 1323623
3 1262.62 1317085
3 1263.38 1312036
3 1263.38 1309357
3 1263.38 1307645
3 1264.14 1306180
3 1264.9 1299629
3 1265.6 1298072
3 1265.6 1296100
3 1265.6 1292415
3 1266.35 1290063
3 1266.35 1282961
3 1266.35 1279492
3 1267.81 1274208
3 1269.98 1274144
3 1269.98 1269628
3 1270.73 1269619
3 1271.42 1265766
3 1272.78 1262882
3 1274.5 1421565
3 1274.5 1405044
3 1274.5 1399568
3 1274.5 1391829
3 1274.5 1385970
3 1274.5 1384184
3 1274.5 1381246
3 1274.5 1375200
3 1274.5 1370465
3 1274.5 1355950
3 1274.5 1349552
3 1275.93 1329916
3 1276.95 1326343
3 1276.95 1325301
3 1276.95 1321082
3 1276.95 1319697
3 1278.1 1319367
3 1278.1 1310783
3 1278.1 1298107
3 1278.1 1295360
3 1279.27 1293723
3 1279.27 1291540
3 1280.38 1281415
3 1280.38 1269929
3 1280.38 1265993
3 1281.48 1262253
3 1281.48 1261691
3 1282.54 1259212
3 1287.67 1258940
3 1287.67 1253986
3 1287.67 1253825
3 1288.51 1453258
3 1288.51 1447366
3 1288.51 1429515
3 1288.51 1425487
3 1288.51 1414702
3 1288.51 1407453
3 1288.51 1396813
3 1288.51 1383263
3 1289.61 1381163
3 1289.61 1367296
1 1290.38 1360906
3 1290.38 1349957
3 1290.38 1330459
3 1290.38 1321941
3 1290.38 1316220
3 1290.38 1314774
3 1291.28 1303270
3 1291.28 1297875
3 1292.03 1290567
3 1292.03 1290048
3 1292.77 1289926
3 1292.77 1286787
3 1293.63 1285310
3 1293.63 1284063
3 1293.63 1278491
3 1295.85 1276715
3 1297.19 1276012
3 1302.03 1410549
3 1302.03 1401525
3 1302.03 1399980
3 1302.03 1351509
3 1302.03 1348679
3 1302.03 1348274
3 1303.02 1339443
3 1303.02 1318866
3 1303.79 1312367
3 1304.49 1312116
3 1304.49 1309587
3 1304.49 1302297
3 1304.49 1301466
3 1305.53 1300206
3 1305.53 1299253
3 1306.56 1295459
3 1307.53 1292258
3 1307.53 1286302
3 1309.33 1285658
3 1310.68 1278712
3 1313.41 1278254
3 1314.81 1277465
3 1315.55 1274651
3 1315.55 1272520
3 1316.29 1431051
3 1316.29 1429844
3 1316.29 1423509
3 1316.29 1422771
3 1316.29 1419874
3 1316.29 1416072
3 1316.29 1410445
3 1316.29 1407697
3 1317.32 1399830
3 1317.32 1397570
3 1317.32 1386273
3 1317.32 1376989
3 1317.32 1363122
3 1318.23 1356703
3 1318.96 1353527
3 1318.96 1336238
3 1319.71 1332555
3 1319.71 1331611
3 1319.71 1328728
3 1320.58 1323395
3 1321.32 1322412
3 1321.32 1320740
3 1321.32 1317993
3 1321.32 1309388
3 1322.14 1307042
3 1322.14 1306821
3 1322.92 1303019
3 1322.92 1296204
3 1325.25 1291283
3 1325.25 1291095
3 1327.58 1284589
3 1327.58 1282712
3 1327.58 1282269
3 1329.17 1281662
3 1330.88 1486002
3 1330.88 1482762
3 1330.88 1434620
3 1330.88 1424036
3 1330.88 1418467
3 1330.88 1397876
3 1330.88 1386051
3 1330.88 1379711
3 1330.88 1375389
3 1331.86 1374734
3 1331.86 1364769
3 1331.86 1351855
3 1331.86 1346441
3 1331.86 1342050
3 1332.69 1341728
3 1332.69 1340956
3 1332.69 1339785
3 1332.69 1326446
3 1332.69 1317162
3 1333.51 1312672
3 1333.51 1303764
3 1333.51 1289661
3 1333.51 1283393
3 1333.51 1282442
3 1334.42 1279411
3 1334.42 1277180
3 1334.42 1274188
3 1334.42 1273052
3 1335.31 1271106
3 1335.31 1266737
3 1337.14 1266170
3 1337.14 1265106
3 1337.14 1264369
3 1337.88 1258000
3 1339.89 1257906
3 1339.89 1256601
3 1339.89 1256586
3 1339.89 1255194
3 1340.66 1254653
3 1341.33 1253038
3 1341.33 1252583
3 1343.97 1243790
3 1344.66 1479056
3 1344.66 1468929
3 1344.66 1425311
3 1344.66 1407072
3 1344.66 1397319
3 1344.66 1379747
3 1344.66 1368868
3 1345.56 1351757
3 1345.56 1350815
3 1345.56 1338421
3 1346.31 1316428
3 1346.99 1310956
3 1347.67 1304088
3 1347.67 1298196
3 1348.39 1295128
3 1348.39 1293419
3 1348.39 1291990
3 1349.77 1289149
3 1350.43 1283262
3 1351.17 1280783
3 1351.17 1273621
3 1351.97 1273205
3 1351.97 1271968
3 1352.67 1271826
3 1352.67 1264043
3 1352.67 1263832
3 1354.79 1256936
3 1358.54 1400935
3 1358.54 1392763
3 1358.54 1389344
3 1358.54 1384980
3 1358.54 1384791
3 1358.54 1380677
3 1358.54 1380587
3 1358.54 1378108
3 1358.54 1376083
3 1359.77 1352520
3 1360.65 1346563
3 1360.65 1344728
3 1360.65 1335303
3 1361.71 1335259
3 1361.71 1332512
3 1361.71 1331200
3 1361.71 1317093
3 1362.95 1316802
3 1362.95 1314215
3 1364.12 1308348
3 1364.12 1305754
3 1370.94 1305472
3 1372.26 1391821
3 1372.26 1386100
3 1372.26 1363123
3 1372.26 1355340
3 1374.51 1354060
3 1374.51 1353401
3 1374.51 1349599
3 1375.61 1345063
3 1377.51 1344240
3 1377.51 1342636
3 1377.51 1342079
3 1377.51 1333801
3 1378.71 1328967
3 1378.71 1328087
3 1378.71 1325926
3 1378.71 1324081
3 1383.48 1321602
3 1384.67 1320413
3 1384.67 1320134
3 1386.79 1457886
3 1386.79 1428898
3 1386.79 1425164
3 1386.79 1410319
3 1386.79 1397396
3 1386.79 1396874
3 1386.79 1382235
3 1386.79 1369435
3 1386.79 1362440
3 1388.14 1354360
3 1388.14 1352708
3 1388.14 1338813
3 1389.31 1331258
3 1389.31 1329946
3 1389.31 1328686
3 1389.31 1327848
3 1389.31 1327389
3 1390.53 1319380
3 1390.53 1314289
3 1390.53 1311810
3 1391.63 1311266
3 1391.63 1309577
3 1391.63 1305173
3 1393.74 1298178
3 1393.74 1295437
3 1393.74 1288296
3 1394.87 1288295
3 1394.87 1283350
3 1395.9 1280632
3 1395.9 1277240
3 1395.9 1276624
3 1399.09 1272583
3 1400.14 1422583
3 1400.14 1392939
3 1400.14 1387001
3 1400.14 1382360
3 1400.14 1363862
3 1400.14 1359596
3 1400.14 1349820
3 1400.14 1349469
3 1400.14 1342825
3 1400.14 1340304
3 1400.14 1322963
3 1400.14 1316207
3 1401.61 1306660
3 1401.61 1303974
3 1401.61 1303962
3 1401.61 1300176
3 1401.61 1297334
3 1401.61 1296088
3 1402.84 1291143
3 1403.86 1289715
3 1405.86 1289584
3 1405.86 1285782
3 1406.91 1283969
3 1407.9 1283922
3 1408.94 1280123
3 1408.94 1272340
3 1414.03 1497756
3 1414.03 1490756
3 1414.03 1485677
3 1414.03 1471793
3 1414.03 1468579
3 1414.03 1463634
3 1414.03 1437893
3 1414.03 1429226
3 1415.37 1420827
3 1415.37 1416303
3 1415.37 1408996
3 1416.44 1404728
3 1416.44 1398084
3 1416.44 1365884
3 1416.44 1352344
3 1417.55 1343632
3 1417.55 1334611
3 1417.55 1313170
3 1417.55 1307195
3 1418.66 1306799
3 1418.66 1300582
3 1418.66 1298127
3 1418.66 1298103
3 1419.74 1297642
3 1419.74 1291477
3 1420.75 1275775
3 1420.75 1275090
3 1421.77 1265686
3 1421.77 1264276
3 1423.73 1257281
3 1426.68 1256235
3 1427.64 1253978
3 1427.64 1252104
3 1428.68 1568650
3 1428.68 1535928
3 1428.68 1512271
3 1428.68 1457178
3 1428.68 1443802
3 1428.68 1413355
3 1428.68 1391692
3 1428.68 1388513
3 1428.68 1383839
3 1428.68 1376535
3 1430 1372118
1 1430 1360923
3 1431.08 1357166
3 1431.08 1356811
3 1431.08 1354009
3 1431.08 1337856
3 1431.08 1326567
3 1431.08 1318279
3 1431.08 1311153
3 1431.08 1306208
3 1432.32 1304783
3 1432.32 1299024
3 1433.33 1298746
3 1433.33 1298196
3 1434.37 1296145
3 1435.36 1291232
3 1436.35 1290458
3 1438.29 1289904
3 1438.29 1280837
3 1438.29 1278291
3 1438.29 1274984
3 1438.29 1274090
3 1439.54 1271343
3 1442.46 1433395
3 1442.46 1422238
3 1442.46 1421570
3 1442.46 1419109
3 1442.46 1411443
3 1443.66 1378838
3 1443.66 1341839
3 1443.66 1336916
3 1443.66 1320763
3 1443.66 1297997
3 1444.85 1297672
3 1444.85 1296394
3 1444.85 1296384
3 1444.85 1293637
3 1444.85 1293120
3 1444.85 1280645
3 1447.98 1280579
3 1447.98 1276283
3 1449.02 1274199
3 1449.02 1272633
3 1450.98 1269700
3 1450.98 1268628
3 1451.98 1266709
3 1454.07 1263719
3 1456.04 1410853
3 1456.04 1394960
3 1456.04 1389382
3 1456.04 1388549
3 1456.04 1382761
3 1456.04 1361531
3 1456.04 1359480
3 1456.04 1351374
3 1456.04 1345305
3 1456.04 1336252
3 1456.04 1333613
3 1456.04 1330677
3 1457.47 1318672
3 1457.47 1310468
3 1458.5 1306666
3 1459.51 1287936
3 1461.44 1284610
3 1462.45 1280271
3 1463.44 1279079
3 1470.48 1361019
3 1470.48 1346816
3 1470.48 1334529
3 1470.48 1332970
3 1470.48 1332965
3 1471.7 1327154
3 1471.7 1326818
3 1471.7 1326213
3 1472.77 1319287
3 1472.77 1315942
3 1472.77 1309536
3 1473.84 1303412
3 1473.84 1298897
3 1473.84 1298269
3 1473.84 1297973
3 1475.13 1297837
3 1476.21 1297017
3 1478.16 1294683
3 1478.16 1294658
3 1478.16 1293734
3 1479.34 1289008
3 1480.67 1288944
3 1480.67 1288456
3 1480.67 1285546
3 1480.67 1284914
3 1483.49 1283144
3 1483.49 1278670
3 1484.98 1427958
3 1484.98 1402632
3 1484.98 1400153
3 1484.98 1392636
3 1486.04 1355711
3 1486.04 1355044
3 1486.04 1352317
3 1486.04 1351571
3 1486.04 1343788
3 1487.77 1330959
3 1487.77 1327635
3 1488.85 1325811
3 1488.85 1323897
3 1488.85 1321659
3 1488.85 1320217
3 1489.69 1317740
3 1489.69 1317470
3 1490.6 1313469
3 1490.6 1310752
3 1491.7 1309203
3 1492.86 1299919
3 1492.86 1298392
3 1494.05 1293447
3 1494.05 1291174
3 1498.3 1442333
3 1498.3 1393063
3 1498.3 1383661
3 1498.3 1381887
3 1498.3 1381182
3 1498.3 1377380
3 1498.3 1369371
3 1498.3 1369246
3 1498.3 1356199
3 1499.72 1352260
3 1499.72 1349515
3 1500.95 1348458
3 1500.95 1345616
3 1502.07 1344543
3 1504.26 1343595
3 1504.26 1341313
3 1504.26 1340848
3 1504.26 1335974
3 1504.26 1322545
3 1504.26 1318142
3 1505.59 1318054
3 1505.59 1307927
3 1507.28 1303243
3 1507.28 1302464
3 1512.08 1458513
3 1512.08 1445746
3 1512.08 1439587
3 1512.08 1429654
3 1512.08 1422219
3 1512.08 1408116
3 1512.98 1369455
3 1512.98 1360469
3 1512.98 1349837
3 1512.98 1347049
3 1512.98 1344493
3 1512.98 1334368
3 1513.88 1331719
3 1513.88 1329275
3 1514.66 1324649
3 1514.66 1321840
3 1514.66 1319325
3 1514.66 1314057
3 1514.66 1310084
3 1514.66 1303031
3 1515.5 1295186
3 1515.5 1294286
3 1515.5 1292305
3 1516.28 1286693
3 1516.28 1283729
3 1517.01 1277923
3 1517.01 1277440
3 1517.75 1277075
3 1519.09 1271811
3 1519.79 1271450
3 1520.5 1270862
3 1520.5 1269790
3 1520.5 1268647
3 1526.68 1555678
3 1526.68 1541832
3 1526.68 1531705
3 1526.68 1531043
3 1526.68 1494655
3 1526.68 1457727
3 1526.68 1452977
3 1526.68 1426684
3 1526.68 1423670
3 1526.68 1421367
3 1526.68 1408444
3 1526.68 1396685
3 1526.68 1386607
3 1526.68 1384304
3 1528.24 1371736
3 1528.24 1369925
3 1528.24 1356293
3 1528.24 1351902
3 1528.24 1348521
3 1529.49 1341526
3 1530.45 1336717
3 1530.45 1327924
3 1530.45 1327408
3 1530.45 1322258
3 1530.45 1318264
3 1530.45 1317128
3 1531.53 1315263
3 1533.27 1314649
3 1535.84 1313499
3 1537.72 1311331
3 1538.77 1302586
3 1539.77 1298378
3 1540.82 1445239
3 1540.82 1431136
3 1540.82 1425090
3 1540.82 1424042
3 1540.82 1417550
3 1540.82 1385579
3 1540.82 1381267
3 1542.19 1375789
3 1543.32 1371395
3 1543.32 1366833
3 1543.32 1365767
3 1543.32 1364047
3 1543.32 1359570
3 1544.61 1327875
3 1545.64 1325871
3 1545.64 1320964
3 1545.64 1318394
3 1546.73 1308457
3 1546.73 1306609
3 1546.73 1304130
3 1546.73 1302645
3 1547.82 1295210
3 1549.75 1286474
3 1551.65 1286194
3 1552.63 1273356
3 1552.63 1271955
3 1554.8 1496119
3 1554.8 1469289
3 1554.8 1464934
3 1554.8 1458374
3 1554.8 1450881
3 1554.8 1445076
3 1554.8 1431444
3 1554.8 1423663
3 1554.8 1422935
3 1554.8 1398851
3 1556.2 1397983
3 1556.2 1383518
3 1556.2 1375228
3 1556.2 1359425
3 1556.2 1347018
3 1556.2 1333539
3 1556.2 1333158
3 1557.44 1331021
3 1557.44 1324608
3 1557.44 1307178
3 1557.44 1300774
3 1558.57 1296198
3 1558.57 1294321
3 1558.57 1291603
3 1559.65 1287493
3 1559.65 1282862
3 1560.69 1282737
3 1560.69 1282199
3 1561.7 1273851
3 1563.61 1265296
3 1565.51 1264486
3 1565.51 1261787
3 1567.55 1258043
3 1567.55 1255564
3 1568.59 1346827
3 1568.59 1346645
3 1568.59 1343464
3 1568.59 1333789
3 1569.76 1328284
3 1569.76 1327530
3 1569.76 1325435
3 1569.76 1323313
3 1569.76 1321856
3 1570.92 1319516
3 1571.95 1312923
3 1571.95 1309072
3 1571.95 1308363
3 1573.07 1302720
3 1574.09 1300241
3 1576.99 1292780
3 1578.03 1286374
3 1582.02 1386946
3 1582.02 1352602
3 1582.02 1339872
3 1582.02 1338354
3 1582.02 1334016
3 1582.02 1327714
3 1583.18 1326465
3 1583.18 1326244
3 1584.03 1318474
3 1584.91 1318416
3 1584.91 1315940
3 1584.91 1313385
3 1584.91 1306920
3 1585.92 1306654
3 1585.92 1306223
3 1585.92 1305628
3 1586.91 1298633
3 1588.57 1296102
3 1589.28 1291856
3 1589.28 1284073
3 1589.28 1282893
3 1589.28 1280704
3 1590.69 1280411
3 1591.4 1280112
3 1591.4 1279242
3 1594.06 1279230
3 1594.06 1272291
3 1594.8 1271887
3 1596.11 1396416
3 1596.11 1378007
3 1596.11 1373717
3 1596.11 1362118
3 1596.11 1357742
3 1596.11 1354858
3 1596.11 1340419
3 1596.11 1334531
3 1597.03 1333629
3 1597.72 1328895
3 1598.45 1326416
3 1599.14 1320498
3 1599.86 1319421
3 1599.86 1306526
3 1603.93 1306171
3 1604.65 1304803
3 1605.96 1298717
3 1605.96 1297376
3 1605.96 1296399
3 1610.55 1416297
3 1610.55 1415919
3 1610.55 1413603
3 1610.55 1379677
3 1610.55 1363524
3 1610.55 1362415
3 1611.42 1359910
3 1611.42 1356242
3 1611.42 1355133
3 1611.42 1350235
3 1611.42 1336725
3 1611.42 1330665
3 1612.26 1321261
3 1612.26 1318773
3 1612.26 1316587
3 1612.26 1303664
3 1613.03 1300745
3 1613.03 1297943
3 1613.73 1296442
3 1613.73 1291944
3 1613.73 1285970
3 1614.83 1285222
3 1617.8 1283784
3 1617.8 1275938
3 1624.52 1510816
1 1624.52 1467625
3 1624.52 1392427
3 1624.52 1388581
3 1624.52 1386889
3 1624.52 1374819
3 1624.52 1373966
3 1625.84 1370471
3 1625.84 1368796
3 1625.84 1366507
3 1625.84 1365554
3 1625.84 1363075
3 1625.84 1361471
3 1627.07 1350831
3 1627.07 1342768
3 1627.07 1339417
3 1628.14 1337239
3 1628.14 1331390
3 1628.14 1330568
3 1629.24 1316991
3 1629.24 1313479
3 1629.24 1300972
3 1629.24 1298137
3 1629.24 1288750
3 1631.3 1288469
3 1634.13 1287823
3 1634.13 1285991
3 1634.13 1281702
3 1636.36 1280428
3 1638.31 1422132
3 1638.31 1416622
3 1638.31 1412975
3 1638.31 1409049
3 1638.31 1402510
3 1638.31 1386702
3 1638.31 1372431
3 1638.31 1351786
3 1638.31 1336991
3 1640.73 1333507
3 1640.73 1332850
3 1640.73 1325558
3 1641.8 1322588
3 1641.8 1315215
3 1641.8 1313226
3 1645.74 1303809
3 1647.62 1302793
3 1648.64 1301771
3 1649.73 1299961
3 1649.73 1299550
3 1649.73 1299090
3 1650.83 1297778
3 1650.83 1297198
3 1651.87 1293530
3 1651.87 1290986
3 1651.87 1290656
3 1652.91 1453010
3 1652.91 1399828
3 1652.91 1398785
3 1652.91 1389376
3 1652.91 1359972
3 1652.91 1359124
3 1652.91 1357900
3 1652.91 1356727
3 1654.1 1337291
3 1655.08 1330450
3 1655.08 1330424
3 1656.08 1328090
3 1656.08 1327055
3 1656.08 1318767
3 1656.08 1316602
3 1656.08 1314896
3 1656.08 1313469
3 1657.19 1303039
3 1658.13 1301839
3 1658.13 1301275
3 1659.11 1300049
3 1659.11 1299428
3 1660.1 1297220
3 1660.1 1293737
3 1660.1 1292887
3 1660.1 1287131
3 1661.14 1283461
3 1661.14 1282795
3 1661.14 1280879
3 1664.13 1280623
3 1664.13 1279778
3 1664.13 1272134
3 1666.07 1480322
3 1666.07 1447875
3 1666.07 1424371
3 1666.07 1415832
3 1666.07 1380212
3 1667.18 1372777
3 1667.18 1368077
3 1667.18 1367770
3 1668.22 1338060
3 1668.22 1337330
3 1668.22 1331353
3 1668.22 1329662
3 1668.22 1326622
3 1668.22 1317843
3 1668.22 1308208
3 1669.37 1304538
3 1669.37 1303047
3 1669.37 1299958
3 1670.39 1297524
3 1671.35 1295420
3 1673.2 1293542
3 1675.93 1293527
3 1675.93 1291423
3 1677.95 1290567
3 1679.85 1287033
3 1680.77 1443731
3 1680.77 1442782
3 1680.77 1412335
3 1680.77 1398232
3 1680.77 1392835
3 1680.77 1386789
3 1680.77 1385034
3 1681.97 1372260
3 1681.97 1353156
3 1681.97 1345219
3 1681.97 1331749
3 1681.97 1331585
3 1681.97 1319986
3 1683.08 1318582
1 1683.08 1317907
3 1683.08 1304331
3 1683.08 1303267
3 1685.04 1302792
3 1685.99 1301938
3 1685.99 1300641
3 1686.99 1300622
3 1687.96 1298589
3 1687.96 1294743
3 1688.94 1290123
3 1689.88 1281547
3 1689.88 1267817
3 1689.88 1266837
3 1689.88 1264762
3 1689.88 1264571
3 1689.88 1262134
3 1691.05 1260947
3 1692.07 1259973
3 1692.07 1257220
3 1693.08 1256600
3 1694.01 1460424
3 1694.01 1454449
3 1694.01 1432224
3 1694.01 1425092
3 1694.01 1418978
3 1694.01 1416231
3 1694.01 1409810
3 1694.01 1407643
3 1694.01 1390422
3 1694.01 1387772
3 1694.01 1384849
3 1695.37 1382827
3 1695.37 1372879
3 1695.37 1359475
3 1695.37 1358016
3 1696.44 1356157
3 1696.44 1356018
3 1696.44 1353410
3 1697.46 1350863
3 1697.46 1337940
3 1698.45 1318145
3 1699.42 1305738
3 1699.42 1297693
3 1699.42 1297272
3 1699.42 1297154
3 1700.46 1296719
3 1700.46 1296238
3 1700.46 1296026
3 1704.18 1295680
3 1704.18 1295514
3 1704.18 1292767
3 1705.28 1292636
3 1705.28 1290284
3 1705.28 1285709
3 1706.34 1284274
3 1708.35 1475171
3 1708.35 1464531
3 1708.35 1420913
3 1708.35 1407123
3 1708.35 1402458
3 1708.35 1375785
3 1708.35 1373086
3 1708.35 1366539
3 1708.35 1352672
3 1708.35 1351271
3 1709.65 1349032
3 1710.61 1338217
3 1710.61 1321152
3 1710.61 1301664
3 1710.61 1300499
3 1710.61 1296950
3 1710.61 1289349
3 1710.61 1286037
3 1711.79 1284543
3 1711.79 1278574
3 1713.8 1269290
3 1714.82 1266874
3 1715.78 1266737
3 1715.78 1264426
3 1716.76 1262041
3 1716.76 1259841
3 1716.76 1257048
3 1717.81 1255642
3 1718.73 1255035
3 1719.66 1253948
3 1722.37 1380596
3 1722.37 1375665
3 1722.37 1375098
3 1722.37 1369295
3 1722.37 1367798
3 1722.37 1365471
3 1722.37 1364489
3 1722.37 1346882
3 1722.37 1340504
3 1722.37 1329809
3 1722.37 1320978
3 1724.26 1320218
3 1724.95 1312147
3 1724.95 1308371
3 1724.95 1308345
3 1725.67 1306598
3 1726.37 1301096
3 1726.37 1300721
3 1727.05 1299386
3 1730.12 1298641
3 1730.12 1294854
3 1730.12 1293026
3 1730.12 1290590
3 1730.86 1289266
3 1730.86 1288240
3 1731.52 1286418
3 1736.44 1392718
3 1736.44 1392593
3 1736.44 1386892
3 1736.44 1380105
3 1736.44 1378095
3 1736.44 1348927
3 1736.44 1347399
3 1736.44 1341152
3 1737.38 1340398
3 1737.38 1334439
3 1738.08 1332962
3 1738.08 1332422
3 1738.83 1330590
3 1738.83 1325440
3 1738.83 1322961
3 1739.56 1321886
3 1740.22 1321503
3 1740.22 1316950
3 1740.22 1316930
3 1741.6 1312940
3 1741.6 1311520
3 1741.6 1296867
3 1741.6 1296466
3 1743.01 1294112
3 1743.67 1294022
3 1744.32 1288321
3 1744.32 1287505
3 1746.29 1285904
3 1746.29 1284267
3 1746.97 1283952
3 1747.67 1282640
3 1747.67 1280727
3 1748.37 1280433
3 1748.37 1278082
3 1749.06 1274088
3 1750.33 1431456
3 1750.33 1402518
3 1750.33 1394735
3 1750.33 1392368
3 1750.33 1382252
3 1750.33 1378498
3 1750.33 1372898
3 1751.21 1364772
3 1751.21 1347530
3 1751.21 1344982
3 1751.95 1340548
3 1751.95 1338894
3 1751.95 1337918
3 1752.67 1337635
3 1752.67 1331523
3 1753.37 1331132
3 1753.37 1329126
3 1753.37 1325205
3 1753.37 1324019
3 1753.37 1324012
3 1754.23 1316760
3 1754.23 1315699
3 1754.23 1315168
3 1764.63 1415091
3 1764.63 1407626
3 1764.63 1398795
3 1764.63 1398477
3 1764.63 1394675
3 1764.63 1387923
3 1765.85 1381214
3 1765.85 1370574
3 1765.85 1367640
3 1766.89 1343669
3 1766.89 1340053
3 1766.89 1339212
3 1766.89 1336981
3 1766.89 1336663
3 1767.99 1327697
3 1767.99 1318446
3 1768.97 1314767
3 1768.97 1313655
3 1768.97 1313576
3 1768.97 1311461
3 1770.05 1306617
3 1771.01 1306265
3 1771.97 1303276
3 1771.97 1299622
3 1771.97 1290353
3 1773.09 1289807
3 1773.09 1286616
3 1773.09 1283845
3 1774.23 1281033
3 1776.21 1278644
3 1778.11 1451021
3 1778.11 1444487
3 1778.11 1427469
3 1778.11 1415022
3 1778.11 1406893
3 1778.11 1403670
3 1778.11 1395889
3 1778.11 1367678
3 1779.38 1367445
3 1779.38 1352896
3 1779.38 1349402
3 1779.38 1346224
3 1779.38 1344622
3 1780.45 1341832
3 1780.45 1337729
3 1780.45 1335618
3 1780.45 1327697
3 1780.45 1325194
3 1781.55 1318112
3 1782.5 1314811
3 1782.5 1313803
3 1782.5 1306351
3 1782.5 1304161
3 1783.62 1303950
3 1783.62 1302626
3 1783.62 1299512
3 1783.62 1291687
3 1783.62 1290834
3 1784.71 1288873
3 1786.65 1281585
3 1787.71 1280773
3 1787.71 1275831
3 1787.71 1271489
3 1787.71 1264401
3 1788.77 1255086
3 1792.5 1434755
3 1792.5 1377190
3 1792.5 1358180
3 1792.5 1357018
3 1792.5 1354510
3 1792.5 1351466
3 1792.5 1338619
3 1793.65 1331498
3 1793.65 1329874
3 1793.65 1317026
3 1793.65 1312913
3 1793.65 1311267
3 1794.76 1306553
3 1794.76 1303806
3 1795.76 1302598
3 1795.76 1299377
3 1795.76 1297580
3 1796.8 1297135
3 1796.8 1295894
3 1796.8 1292772
3 1796.8 1290595
3 1797.97 1289320
3 1797.97 1283600
3 1799.01 1281787
3 1799.95 1280328
3 1799.95 1279308
3 1801 1279199
3 1802.03 1279191
3 1802.03 1275710
3 1802.03 1272287
3 1804.01 1272156
3 1804.99 1270563
3 1805.99 1269868
3 1805.99 1267801
3 1806.97 1380267
3 1806.97 1379933
3 1806.97 1372938
3 1806.97 1370005
3 1806.97 1367258
3 1806.97 1361283
3 1806.97 1359957
3 1808.18 1358321
3 1808.18 1353634
3 1808.18 1342428
3 1809.24 1338104
3 1809.24 1336539
3 1809.24 1332148
3 1810.29 1325392
3 1810.29 1318999
3 1811.33 1312621
3 1812.3 1303790
3 1812.3 1302229
3 1813.29 1297606
3 1814.3 1294794
3 1817.11 1282911
3 1817.11 1281765
3 1819.88 1279778
3 1820.78 1388809
3 1820.78 1380486
3 1820.78 1373491
3 1820.78 1372780
3 1820.78 1371708
3 1820.78 1363347
3 1820.78 1347948
3 1820.78 1347010
3 1820.78 1344112
3 1822.08 1341705
3 1822.08 1341199
3 1822.08 1334464
3 1822.08 1329519
3 1823.18 1316808
3 1823.18 1315681
3 1823.18 1315673
3 1823.18 1308880
3 1823.18 1306513
3 1823.18 1305559
3 1824.3 1305310
3 1829.02 1303932
3 1829.02 1295653
3 1830.94 1290671
3 1834.71 1556272
3 1834.71 1508130
3 1834.71 1481089
3 1834.71 1447942
3 1834.71 1434254
3 1834.71 1417495
3 1835.83 1411460
3 1835.83 1408713
3 1835.83 1385172
3 1835.83 1381197
3 1835.83 1379514
3 1835.83 1372336
3 1835.83 1368117
3 1835.83 1354485
3 1836.99 1351437
3 1836.99 1348025
3 1838 1345252
3 1838 1337982
3 1838.96 1334627
3 1839.88 1334133
3 1840.79 1321342
3 1840.79 1318595
3 1840.79 1318384
3 1841.78 1305737
3 1841.78 1302674
3 1842.82 1299729
3 1844.7 1298257
3 1844.7 1296410
3 1848.45 1409324
3 1848.45 1402460
3 1848.45 1393629
3 1848.45 1385846
3 1848.45 1371732
3 1848.45 1367619
3 1849.62 1366307
3 1849.62 1364374
3 1849.62 1358653
3 1849.62 1351448
3 1849.62 1349291
3 1850.75 1347042
3 1850.75 1343198
3 1850.75 1342800
3 1851.79 1338917
3 1852.84 1330308
3 1852.84 1328790
3 1852.84 1323069
3 1853.95 1322841
3 1854.94 1316377
3 1855.96 1315731
3 1855.96 1314791
3 1857.04 1311112
3 1857.04 1302100
3 1858.06 1300788
3 1858.06 1299884
3 1859.61 1299864
3 1859.61 1299174
3 1860.92 1298272
3 1860.92 1297821
3 1861.62 1297244
3 1861.62 1295793
3 1862.3 1560942
3 1862.3 1528495
3 1862.3 1523935
3 1862.3 1505183
3 1862.3 1498728
1 1862.3 1491564
3 1862.3 1476925
3 1862.3 1465925
3 1862.3 1428542
3 1862.3 1415972
3 1863.27 1410834
3 1863.27 1385539
3 1863.27 1374257
3 1863.27 1360016
3 1863.27 1359749
3 1863.27 1352672
3 1863.27 1351172
3 1863.27 1346686
3 1864.78 1344665
3 1864.78 1343597
3 1864.78 1334313
3 1865.52 1333585
3 1865.52 1332985
3 1865.52 1331903
3 1865.52 1323894
3 1865.52 1322941
3 1865.52 1316895
3 1865.52 1309185
3 1865.52 1308935
3 1866.37 1304557
3 1866.37 1303076
3 1866.37 1301940
3 1866.37 1301652
3 1866.37 1297062
3 1867.72 1296103
3 1868.96 1293127
3 1869.59 1285783
3 1870.22 1285234
3 1870.88 1281464
3 1872.69 1274448
3 1873.96 1269719
3 1876.44 1386750
3 1876.44 1385085
3 1877.13 1364449
3 1877.13 1353809
3 1877.13 1353703
3 1877.13 1345669
3 1877.13 1336141
3 1877.13 1333407
3 1877.13 1333318
3 1877.13 1317746
3 1877.13 1315267
3 1877.13 1305360
3 1878.04 1305148
3 1878.75 1303101
3 1878.75 1296368
3 1878.75 1289267
3 1878.75 1288363
3 1879.5 1284962
3 1879.5 1281995
3 1879.5 1279358
3 1879.5 1270613
3 1880.89 1267593
3 1881.54 1266905
3 1882.78 1265842
3 1884.03 1265105
3 1890.11 1459001
3 1890.11 1451316
3 1890.11 1450500
3 1890.11 1439621
3 1890.11 1389759
3 1890.11 1388562
3 1890.11 1379833
3 1890.11 1374227
3 1890.11 1364823
3 1891.01 1362344
3 1891.01 1351704
3 1891.01 1350880
3 1891.74 1347113
3 1891.74 1345474
3 1891.74 1330218
3 1891.74 1329120
3 1892.49 1311143
3 1892.49 1308631
3 1892.49 1305884
3 1892.49 1303852
3 1893.25 1302406
3 1893.92 1300462
3 1893.92 1295597
3 1894.68 1293714
3 1894.68 1289917
3 1895.99 1288104
3 1895.99 1286775
3 1897.31 1280012
3 1897.31 1279215
3 1897.31 1272589
3 1904.27 1402591
3 1904.27 1394486
3 1904.27 1387897
3 1904.27 1380462
3 1904.27 1368522
3 1905.13 1345099
3 1905.13 1332608
3 1905.85 1329370
3 1905.85 1328962
3 1905.85 1328678
3 1905.85 1319948
3 1905.85 1314254
3 1905.85 1313710
3 1906.67 1312261
3 1906.67 1311464
3 1906.67 1304638
3 1907.41 1302136
3 1907.41 1298339
3 1907.41 1298058
3 1908.13 1297109
3 1908.13 1294662
3 1908.13 1289747
3 1908.84 1286889
3 1908.84 1282223
3 1908.84 1280528
3 1909.94 1279017
3 1910.92 1276091
3 1911.88 1274576
3 1914.72 1272874
3 1916.57 1272805
3 1917.52 1269756
3 1918.56 1473546
3 1918.56 1459700
3 1918.56 1458751
3 1918.56 1453287
3 1918.56 1446391
3 1918.56 1432070
3 1919.76 1424821
3 1919.76 1380662
3 1919.76 1377080
3 1919.76 1368646
3 1919.76 1368485
3 1919.76 1359654
3 1919.76 1345789
3 1919.76 1342436
3 1919.76 1341941
3 1921.01 1341385
3 1921.01 1331981
3 1921.01 1323534
3 1923.01 1322424
3 1923.01 1318285
3 1924.05 1314394
3 1924.05 1313755
3 1924.05 1306469
3 1925.07 1302780
3 1925.07 1300325
3 1925.07 1293741
3 1926.11 1290868
3 1926.11 1290200
3 1926.11 1285843
3 1926.11 1284743
3 1926.11 1282857
3 1927.23 1281928
3 1927.23 1281902
3 1927.23 1280706
3 1930.18 1273252
3 1930.18 1263978
3 1930.18 1263695
3 1930.18 1263125
3 1930.94 1262715
3 1932.21 1442762
3 1932.21 1428123
3 1932.21 1426908
3 1932.21 1422355
3 1932.21 1417524
3 1933.01 1409889
3 1933.01 1399762
3 1933.01 1394817
3 1933.01 1386815
3 1933.01 1385234
1 1933.84 1382893
3 1933.84 1376377
3 1933.84 1368594
3 1933.84 1357010
3 1933.84 1353665
3 1934.68 1351218
3 1934.68 1351078
3 1934.68 1343580
3 1935.42 1332135
3 1935.42 1320721
3 1936.12 1318187
3 1936.78 1304156
3 1936.78 1304068
3 1937.48 1302613
3 1938.12 1302033
3 1938.12 1301454
3 1938.12 1301439
3 1938.12 1297202
3 1938.86 1295216
3 1938.86 1285975
3 1938.86 1281049
3 1938.86 1280289
3 1939.59 1279917
3 1939.59 1277154
3 1940.43 1276979
3 1941.13 1275556
3 1941.79 1270483
3 1942.44 1270449
3 1942.44 1268533
3 1943.11 1265703
3 1944.37 1265492
3 1946.31 1457361
3 1946.31 1454514
3 1946.31 1426661
3 1946.31 1418544
3 1946.31 1406726
3 1946.31 1400566
3 1946.31 1398087
3 1946.31 1389256
3 1946.31 1365645
3 1946.31 1362565
3 1946.31 1348446
3 1946.31 1335533
3 1946.31 1330125
3 1948.03 1321733
3 1948.03 1313950
3 1948.03 1311997
3 1948.03 1310601
3 1948.03 1310074
3 1948.85 1300474
3 1948.85 1300390
3 1948.85 1300008
3 1949.59 1295301
3 1952.2 1283720
3 1956.85 1277324
3 1960.09 1428962
3 1960.09 1416039
3 1960.09 1383886
3 1960.09 1381245
3 1960.09 1377656
3 1960.9 1374867
3 1960.9 1362819
3 1960.9 1353172
3 1960.9 1339540
3 1960.9 1338197
3 1961.7 1334255
3 1961.7 1333494
3 1961.7 1331015
3 1962.41 1329904
3 1962.41 1323856
3 1962.41 1309998
3 1962.41 1306348
3 1962.41 1303430
3 1962.41 1292840
3 1963.26 1290885
3 1963.92 1290505
3 1963.92 1290093
3 1964.62 1287346
3 1964.62 1286726
3 1964.62 1286050
3 1964.62 1285384
3 1964.62 1285218
3 1965.36 1284694
3 1965.36 1283194
3 1965.36 1282033
3 1965.36 1281683
3 1965.36 1280252
3 1965.36 1276075
3 1974.24 1390699
3 1974.24 1369132
3 1974.24 1367878
3 1974.24 1356526
3 1974.24 1353504
3 1974.24 1347683
3 1975.49 1345352
3 1975.49 1330028
3 1975.49 1319903
3 1975.49 1314351
3 1976.59 1311872
3 1976.59 1309626
3 1977.63 1307356
3 1978.61 1304804
3 1978.61 1299322
3 1979.62 1299102
3 1980.58 1292717
3 1981.52 1290238
3 1982.48 1289193
3 1982.48 1283049
3 1984.43 1279072
3 1986.34 1276776
3 1987.15 1274116
3 1987.15 1272479
3 1987.15 1271637
3 1987.15 1263914
3 1987.15 1262354
3 1988.03 1380001
3 1988.03 1363821
3 1988.03 1356956
3 1988.03 1346829
3 1988.03 1345056
3 1988.03 1333407
3 1988.89 1331823
3 1989.6 1329439
3 1989.6 1325660
3 1989.6 1325368
3 1989.6 1320715
3 1989.6 1318373
3 1991.74 1314002
3 1991.74 1313124
3 1991.74 1307321
3 1991.74 1296334
3 1992.57 1289754
3 1994.02 1289438
3 1994.76 1280246
3 1996.87 1276888
3 2002.3 1567469
3 2002.3 1564295
3 2002.3 1533848
3 2002.3 1491418
3 2002.3 1461870
3 2002.3 1459391
3 2002.3 1435112
3 2002.3 1396849
3 2002.3 1384655
3 2002.3 1382325
3 2002.3 1377672
3 2002.3 1371024
3 2002.3 1352251
3 2003.55 1338982
3 2003.55 1334239
3 2003.55 1327706
3 2004.31 1325762
3 2004.31 1318428
3 2004.31 1316164
3 2004.31 1315949
3 2004.31 1315100
3 2005.16 1314627
3 2005.16 1305292
3 2005.16 1304572
3 2005.16 1298666
3 2005.89 1297364
3 2005.89 1294885
3 2005.89 1289338
3 2005.89 1286841
3 2005.89 1283949
3 2007.52 1283567
3 2007.52 1280506
3 2007.52 1279677
3 2008.33 1279004
3 2009.05 1277007
3 2009.05 1276525
3 2010.39 1271033
3 2010.39 1269584
3 2011.24 1267099
3 2012.7 1266841
3 2013.54 1264760
3 2016.32 1349994
3 2016.32 1340783
3 2016.32 1339993
3 2016.32 1338600
3 2016.32 1335880
3 2016.32 1327172
3 2016.32 1326790
3 2016.32 1319746
3 2017.28 1317824
3 2017.28 1314329
3 2018 1313491
3 2018 1312179
3 2018 1309585
3 2018 1307161
3 2018.87 1307106
3 2018.87 1303340
3 2018.87 1302769
3 2018.87 1299573
3 2018.87 1298378
3 2019.63 1294352
3 2019.63 1292342
3 2020.46 1290423
3 2020.46 1288590
3 2020.46 1277532
3 2022 1277303
3 2022.73 1275812
3 2024.87 1273662
3 2024.87 1272732
3 2024.87 1272306
3 2026.37 1271652
3 2027.84 1269228
3 2027.84 1267131
3 2029.31 1266913
3 2029.97 1266178
3 2030.69 1377708
3 2030.69 1365174
3 2030.69 1359669
3 2030.69 1354143
3 2031.53 1354032
3 2031.53 1347037
3 2031.53 1344558
3 2031.53 1341115
3 2031.53 1338754
3 2031.53 1338589
3 2032.43 1336296
3 2032.43 1334118
3 2032.43 1323782
3 2032.43 1318177
3 2032.43 1316768
3 2032.43 1316116
3 2032.43 1308440
3 2033.31 1302135
3 2033.31 1300364
3 2033.31 1293234
3 2035.9 1292017
3 2036.84 1291243
3 2037.79 1286150
3 2038.81 1285289
3 2038.81 1282483
3 2038.81 1282358
3 2038.81 1279759
3 2038.81 1278810
3 2039.95 1274856
3 2039.95 1271718
3 2039.95 1270511
3 2039.95 1269114
3 2039.95 1266741
3 2041.08 1265502
3 2041.08 1265339
3 2041.08 1263475
3 2041.08 1261428
3 2041.08 1260728
3 2044.03 1448807
3 2044.03 1405151
3 2044.03 1403351
3 2044.03 1402270
3 2044.03 1394422
3 2044.03 1383715
3 2044.03 1363373
3 2045.27 1358863
3 2045.27 1356384
3 2045.27 1352728
3 2045.27 1349502
3 2045.27 1336579
3 2046.43 1335326
3 2047.4 1333479
3 2047.4 1330864
3 2047.4 1327206
3 2048.43 1321880
3 2048.43 1319227
3 2051.31 1318016
3 2051.31 1314934
3 2052.34 1314256
3 2053.41 1313262
3 2054.38 1311506
3 2054.38 1306267
3 2058.24 1573896
3 2058.24 1510595
3 2058.24 1485875
3 2058.24 1479651
3 2058.24 1479583
3 2058.24 1471698
3 2058.24 1470749
3 2058.24 1448079
3 2058.24 1438027
3 2058.24 1436819
3 2058.24 1423896
3 2059.55 1405568
3 2059.55 1397605
3 2059.55 1386001
3 2059.55 1372874
3 2059.55 1366273
3 2059.55 1357551
3 2059.55 1347582
3 2059.55 1346972
3 2060.74 1340124
3 2060.74 1336595
3 2060.74 1331164
3 2060.74 1326632
3 2060.74 1317036
3 2061.82 1311488
3 2061.82 1309253
3 2063.69 1306852
3 2064.65 1306784
3 2067.55 1306120
3 2067.55 1304202
3 2067.55 1303959
3 2068.6 1299242
3 2068.6 1295022
3 2068.6 1294493
3 2068.6 1289740
3 2069.66 1287261
3 2069.66 1285179
3 2070.63 1279479
3 2070.63 1276112
3 2072.49 1556162
3 2072.49 1516440
3 2072.49 1513732
3 2072.49 1465590
3 2072.49 1436564
3 2072.49 1392946
3 2072.49 1376793
3 2073.7 1367225
3 2073.7 1360023
3 2073.7 1333285
3 2073.7 1322402
3 2073.7 1319959
3 2073.7 1312484
3 2073.7 1311252
3 2074.87 1309863
3 2074.87 1309426
3 2075.86 1307096
3 2075.86 1306534
3 2075.86 1304800
3 2076.87 1304641
3 2076.87 1303171
3 2076.87 1302592
3 2076.87 1302002
3 2083.72 1298315
3 2084.71 1298085
3 2084.71 1297328
3 2085.69 1284405
3 2085.69 1284051
3 2086.7 1627262
3 2086.7 1584832
3 2086.7 1570729
3 2086.7 1526077
3 2086.7 1512444
3 2086.7 1493231
3 2086.7 1487185
3 2086.7 1460144
3 2087.95 1439275
3 2087.95 1425408
3 2087.95 1411562
1 2087.95 1375479
3 2087.95 1371243
3 2087.95 1370570
3 2090.01 1370373
3 2090.01 1368038
3 2090.01 1365598
3 2090.01 1363119
3 2090.01 1362644
3 2091.1 1360603
3 2091.1 1335202
3 2093.01 1332258
3 2093.01 1327944
3 2093.01 1324207
3 2093.01 1311748
3 2093.01 1311682
3 2093.01 1309060
3 2093.01 1307988
3 2094.16 1305057
3 2095.21 1299695
3 2095.21 1290817
3 2095.21 1290573
3 2096.32 1289768
3 2096.32 1283364
3 2096.32 1282773
3 2097.33 1282687
3 2097.33 1280438
3 2100.2 1459851
3 2100.2 1450987
3 2100.2 1441666
3 2100.2 1424816
3 2100.2 1399839
3 2100.2 1392645
3 2100.2 1388283
3 2100.2 1373679
3 2100.2 1365896
3 2100.2 1361005
3 2100.2 1358708
3 2100.2 1345306
3 2101.56 1343296
3 2101.56 1341635
3 2102.56 1326930
3 2102.56 1322329
3 2102.56 1321985
3 2103.61 1321922
3 2103.61 1320853
3 2103.61 1320175
3 2104.68 1319519
3 2104.68 1315931
3 2104.68 1315910
3 2104.68 1313431
3 2106.69 1310866
3 2106.69 1310756
3 2107.67 1310709
3 2108.74 1306772
3 2108.74 1302593
3 2108.74 1296849
3 2109.82 1293140
3 2109.82 1291150
3 2109.82 1290128
3 2110.88 1288337
3 2111.84 1284825
3 2113.79 1284391
3 2113.79 1283513
3 2114.81 1563496
3 2114.81 1502098
3 2114.81 1492905
3 2114.81 1465459
3 2114.81 1446284
3 2114.81 1408663
3 2115.97 1405920
3 2115.97 1404961
3 2115.97 1402358
3 2115.97 1392953
3 2115.97 1367376
3 2115.97 1355108
3 2115.97 1354155
3 2115.97 1350336
3 2115.97 1346350
3 2115.97 1346191
3 2117.2 1341415
3 2117.2 1337526
3 2117.2 1326567
3 2117.2 1323820
3 2118.27 1321176
3 2118.27 1321137
3 2119.23 1320399
3 2119.23 1316048
3 2119.23 1315146
3 2119.23 1314056
3 2121.18 1313100
3 2122.17 1309831
3 2122.17 1309144
3 2122.17 1307936
3 2123.22 1304220
3 2123.22 1293021
3 2124.24 1291319
3 2124.24 1289749
3 2124.24 1285548
3 2124.24 1284912
3 2125.27 1283205
3 2125.27 1280607
3 2128.12 1567960
3 2128.12 1518007
3 2128.12 1511723
3 2128.12 1510572
3 2128.12 1478125
3 2128.12 1472666
3 2128.12 1434666
3 2128.12 1430643
3 2128.12 1428622
3 2129.2 1423665
3 2129.2 1422150
3 2129.2 1421341
3 2129.2 1374034
3 2129.2 1372657
3 2129.2 1363117
3 2129.2 1358800
3 2129.2 1349271
3 2129.2 1341157
3 2130.09 1337116
3 2130.09 1333616
3 2130.78 1326989
3 2130.78 1326591
3 2130.78 1326085
3 2131.5 1322283
3 2131.5 1304546
3 2131.5 1300436
3 2131.5 1298983
3 2132.28 1295286
3 2132.28 1292807
3 2132.28 1291495
3 2132.99 1284440
3 2134.24 1284375
3 2134.24 1284371
3 2134.95 1279177
3 2134.95 1276389
3 2134.95 1271042
3 2134.95 1269662
3 2135.67 1269466
3 2135.67 1268859
3 2135.67 1268151
3 2136.35 1266576
3 2136.35 1266150
3 2137.05 1266077
3 2137.05 1264851
3 2137.71 1261519
3 2139.56 1261156
3 2140.79 1258875
3 2142.03 1486139
3 2142.03 1462405
3 2142.03 1446252
3 2142.03 1440374
3 2142.03 1426424
3 2142.03 1416299
3 2142.03 1414551
3 2142.03 1394668
3 2142.03 1387861
3 2142.03 1386060
3 2143.03 1371957
3 2143.03 1364174
3 2143.03 1350478
3 2143.85 1349816
3 2143.85 1343770
3 2143.85 1339862
3 2144.65 1336627
3 2144.65 1336159
3 2145.37 1335606
3 2145.37 1333225
3 2146.2 1330922
3 2146.2 1330746
3 2146.91 1328907
3 2146.91 1326048
3 2146.91 1319708
3 2147.74 1314569
3 2147.74 1308012
3 2148.45 1302089
3 2148.45 1299286
3 2148.45 1295380
3 2149.17 1291007
3 2149.17 1290796
3 2149.85 1288689
3 2149.85 1281241
3 2150.51 1280074
3 2156.12 1482959
3 2156.12 1419658
3 2156.12 1412207
3 2156.12 1409649
3 2156.12 1396480
3 2156.12 1395882
3 2156.12 1394586
3 2156.12 1389712
3 2156.12 1383152
3 2156.12 1373021
3 2156.12 1357113
3 2157.1 1340229
3 2157.1 1330427
3 2157.1 1324863
3 2157.1 1324540
3 2157.89 1323893
3 2157.89 1315057
3 2157.89 1313766
3 2158.73 1302064
3 2159.39 1298091
3 2160.1 1296373
3 2160.1 1293729
3 2161.43 1292016
3 2162.08 1291037
3 2162.81 1288906
3 2162.81 1287927
3 2163.53 1285744
3 2163.53 1283222
3 2163.53 1282644
3 2164.3 1278038
3 2165.02 1275192
3 2166.34 1275004
3 2168.86 1273981
3 2170.15 1393522
3 2170.15 1379539
3 2170.15 1379370
3 2170.15 1373222
3 2170.15 1365787
3 2170.97 1360674
3 2170.97 1358087
3 2170.97 1356256
3 2171.74 1355209
3 2172.45 1353199
3 2172.45 1347257
3 2173.17 1341258
3 2173.17 1339837
3 2173.17 1332804
3 2173.17 1326543
3 2174.01 1319808
3 2174.01 1318397
3 2177.3 1316534
3 2177.3 1308883
3 2178.03 1306519
3 2178.71 1304551
3 2181.3 1294409
3 2181.97 1280897
3 2181.97 1279885
3 2181.97 1279552
3 2182.75 1278138
3 2183.41 1277193
3 2184.07 1389592
3 2184.07 1386845
3 2184.07 1353292
3 2184.07 1350916
3 2184.07 1342137
3 2184.93 1337611
3 2184.93 1333447
3 2185.64 1328572
3 2185.64 1320086
3 2186.36 1315758
3 2186.36 1311255
3 2186.36 1311084
3 2186.36 1309138
3 2186.36 1309071
3 2186.36 1304486
3 2187.17 1301563
3 2187.17 1299184
3 2191.77 1296200
3 2198.33 1413631
3 2198.33 1412778
3 2198.33 1374196
3 2198.33 1360729
3 2198.33 1355968
3 2198.33 1355890
3 2199.51 1352715
3 2199.51 1347718
3 2199.51 1340556
3 2200.53 1335226
3 2200.53 1324333
3 2200.53 1312955
3 2200.53 1301745
3 2200.53 1299522
3 2201.61 1299228
3 2201.61 1295918
3 2201.61 1289828
3 2202.62 1285869
3 2202.62 1278198
3 2203.61 1277996
3 2207.3 1273585
3 2212.1 1383944
3 2212.1 1371955
3 2212.1 1371550
3 2212.1 1367952
3 2212.1 1357934
3 2212.1 1347919
3 2212.1 1342177
3 2212.1 1342060
3 2213.3 1326499
3 2213.3 1324912
3 2213.3 1317153
3 2213.3 1312701
3 2213.3 1302872
3 2213.3 1300928
3 2213.3 1299968
3 2214.44 1296576
3 2214.44 1290499
3 2214.44 1284126
3 2216.36 1282944
3 2226.33 1454856
3 2226.33 1450776
3 2226.33 1447094
3 2226.33 1436990
3 2226.33 1435678
3 2226.33 1419836
3 2227.51 1416757
3 2227.51 1416688
3 2227.51 1412886
3 2227.51 1397317
3 2227.51 1383471
3 2227.51 1360260
3 2228.66 1354303
3 2228.66 1347507
3 2229.67 1338676
3 2229.67 1334333
3 2230.66 1329997
3 2230.66 1325052
3 2231.63 1324068
3 2231.63 1307690
3 2233.59 1300875
3 2233.59 1298216
3 2233.59 1296212
3 2233.59 1293422
3 2233.59 1293405
3 2234.67 1283278
3 2235.6 1282112
3 2236.53 1277937
3 2237.67 1274399
3 2237.67 1271139
3 2240.53 1446289
3 2240.53 1397680
3 2240.53 1375960
3 2240.53 1371015
3 2240.53 1370008
3 2240.53 1365437
3 2241.68 1362807
3 2241.68 1359330
3 2241.68 1353540
3 2241.68 1342280
3 2242.75 1341207
3 2242.75 1340639
3 2242.75 1318460
3 2242.75 1318280
3 2242.75 1308155
3 2243.83 1304828
3 2247.46 1302153
3 2249.29 1291137
3 2250.2 1284181
3 2250.2 1282913
3 2250.2 1275745
3 2250.2 1273725
3 2251.38 1270988
3 2251.38 1270571
3 2254.28 1420017
3 2254.28 1408140
3 2254.28 1398700
3 2254.28 1394026
3 2254.28 1390945
3 2254.28 1380405
3 2254.28 1375556
3 2254.28 1372082
3 2254.28 1369448
3 2254.28 1368926
3 2254.28 1368415
3 2254.28 1357731
3 2255.31 1356085
3 2255.31 1353606
3 2255.31 1342774
3 2255.31 1341731
3 2256.09 1341258
3 2256.09 1339642
3 2256.8 1330823
3 2257.46 1317956
3 2257.46 1312621
3 2258.15 1308477
3 2258.15 1306358
3 2258.15 1306080
3 2258.87 1303019
3 2258.87 1302278
3 2260.2 1297225
3 2260.2 1295290
3 2260.9 1294289
3 2260.9 1293383
3 2261.6 1289419
3 2262.24 1286672
3 2262.89 1286506
3 2268.51 1482773
3 2268.51 1436392
3 2268.51 1425040
3 2268.51 1414915
3 2268.51 1394041
3 2268.51 1389090
3 2268.51 1385825
3 2268.51 1381263
3 2268.51 1366001
3 2268.51 1361594
3 2269.49 1355963
3 2269.49 1346049
3 2269.49 1345230
3 2270.23 1335534
3 2270.23 1335334
3 2270.94 1331773
3 2270.94 1330109
3 2272.87 1324052
3 2273.59 1318793
3 2273.59 1318506
3 2274.29 1317397
3 2274.29 1315208
3 2274.29 1307430
3 2275.05 1306485
3 2275.7 1304006
3 2275.7 1298335
3 2275.7 1293643
3 2276.41 1292892
3 2276.41 1289848
3 2277.09 1289714
3 2277.09 1285446
3 2277.77 1284011
3 2278.42 1279621
3 2279.13 1271526
3 2279.13 1270347
3 2281.01 1270308
3 2281.01 1261525
3 2282.32 1581230
3 2282.32 1537612
3 2282.32 1520258
3 2282.32 1514148
3 2282.32 1507153
3 2282.32 1443825
3 2282.32 1438283
3 2282.32 1428156
3 2282.32 1420812
3 2283.29 1404768
3 2283.29 1376991
3 2283.29 1338295
3 2284.04 1337796
3 2284.04 1328711
3 2284.04 1319589
3 2284.04 1309203
3 2284.82 1300356
3 2285.49 1297920
3 2286.15 1292940
3 2286.15 1287808
3 2286.15 1284344
3 2286.87 1283400
3 2286.87 1280025
3 2286.87 1278486
3 2287.57 1273894
3 2288.22 1270523
3 2288.88 1269891
3 2289.55 1267347
3 2289.55 1266620
3 2290.23 1265798
3 2292.09 1264878
3 2292.74 1263882
3 2292.74 1263768
3 2293.42 1261460
3 2294.12 1261381
3 2294.12 1261301
3 2294.8 1254306
3 2295.42 1253807
3 2296.06 1510503
3 2296.06 1482916
3 2296.06 1472512
3 2296.06 1470491
3 2296.06 1461435
3 2296.06 1455555
3 2296.06 1449509
3 2296.06 1443671
3 2296.06 1442829
3 2296.06 1436735
3 2296.06 1414839
3 2296.06 1407549
3 2296.06 1397751
3 2297.11 1397422
3 2297.11 1383319
3 2297.11 1355562
3 2297.11 1353083
3 2297.11 1352197
1 2297.91 1346083
3 2297.91 1331486
3 2297.91 1316869
3 2297.91 1313067
3 2297.91 1312616
3 2297.91 1308112
3 2297.91 1295816
3 2300.11 1293404
3 2300.11 1288930
3 2300.11 1285954
3 2300.11 1285360
3 2300.11 1279554
3 2300.11 1278803
3 2300.89 1274777
3 2302.16 1272663
3 2303.44 1270801
3 2310.3 1547886
3 2310.3 1513561
3 2310.3 1506923
3 2310.3 1505778
3 2310.3 1493750
3 2310.3 1466129
3 2310.3 1456109
3 2310.3 1447364
3 2310.3 1433261
3 2310.3 1428733
3 2310.3 1422830
3 2310.3 1402371
3 2311.37 1395087
3 2311.37 1393133
3 2311.37 1392055
3 2311.37 1389064
3 2311.37 1377646
3 2311.37 1373303
3 2311.37 1371660
3 2312.21 1370824
3 2312.21 1364240
3 2312.21 1333070
3 2312.21 1331810
3 2312.97 1327017
3 2312.97 1323198
3 2312.97 1312936
3 2312.97 1309320
3 2312.97 1308895
3 2312.97 1299591
3 2313.86 1285806
3 2313.86 1283913
3 2314.81 1281718
3 2316.2 1274468
3 2316.2 1271010
3 2316.91 1268008
3 2318.18 1267507
3 2318.85 1266873
3 2318.85 1266444
3 2319.56 1260553
3 2319.56 1259449
3 2324.64 1468206
3 2324.64 1454574
3 2324.64 1447579
3 2324.64 1443945
3 2324.64 1443486
3 2324.64 1434293
3 2324.64 1418745
3 2324.64 1403912
3 2324.64 1371465
3 2325.56 1365678
3 2325.56 1339522
3 2325.56 1322442
3 2326.31 1319843
3 2326.97 1315469
3 2326.97 1312073
3 2326.97 1308252
3 2326.97 1303097
3 2327.72 1297514
3 2327.72 1297046
3 2328.41 1295644
3 2328.41 1295356
3 2328.41 1294040
3 2329.11 1293143
3 2329.11 1288858
3 2329.11 1283913
3 2329.88 1283241
3 2329.88 1280981
3 2331.19 1280253
3 2331.19 1279077
3 2331.19 1278234
3 2332.53 1275603
3 2335.1 1275484
3 2335.1 1272737
3 2335.8 1272075
3 2338.45 1454657
3 2338.45 1425954
3 2338.45 1419871
3 2338.45 1419660
3 2338.45 1375546
3 2338.45 1348345
3 2339.31 1333751
3 2339.31 1329952
3 2339.31 1329432
3 2339.31 1328795
3 2339.31 1316760
3 2340.09 1304373
3 2340.09 1303533
3 2340.09 1303180
3 2340.09 1300638
3 2343.37 1300377
3 2351.14 1296788
3 2351.14 1294862
3 2351.14 1291017
3 2351.91 1289915
3 2351.91 1289284
3 2351.91 1287216
3 2352.63 1487158
3 2352.63 1476790
3 2352.63 1428648
3 2352.63 1417388
3 2352.63 1414498
3 2352.63 1405442
3 2353.51 1398816
3 2353.51 1391048
3 2353.51 1390837
3 2353.51 1380840
3 2354.3 1378572
3 2354.3 1374213
3 2354.3 1369268
3 2355.12 1360722
3 2355.12 1355388
3 2355.12 1349763
3 2355.12 1349565
3 2356.07 1345674
3 2356.07 1331818
3 2356.07 1331777
3 2356.07 1331094
3 2357.34 1327110
3 2357.34 1324631
3 2357.34 1318764
3 2358.26 1314228
3 2358.26 1311749
3 2358.26 1306804
3 2359.71 1302317
3 2359.71 1301565
3 2359.71 1300494
3 2360.52 1300311
3 2360.52 1293219
3 2360.52 1290651
3 2366.22 1419003
3 2366.22 1409910
3 2366.22 1380951
3 2366.22 1374212
3 2366.22 1366203
3 2366.22 1365947
3 2366.22 1354516
3 2366.22 1354224
3 2367.16 1345319
3 2367.16 1340609
3 2367.16 1335667
3 2368.62 1332239
3 2368.62 1324549
3 2369.35 1321802
3 2373.31 1320628
3 2374.01 1318803
3 2374.01 1318189
3 2374.01 1317840
3 2374.85 1316165
3 2374.85 1315712
3 2375.59 1310767
3 2375.59 1308588
3 2375.59 1303038
3 2375.59 1301616
3 2375.59 1299658
3 2375.59 1299168
3 2377.6 1298999
3 2377.6 1295153
3 2378.64 1294216
3 2380.68 1424895
3 2380.68 1424368
3 2380.68 1400080
3 2380.68 1393643
3 2380.68 1390671
3 2380.68 1376593
3 2380.68 1371901
3 2380.68 1367466
3 2381.98 1358326
3 2381.98 1355807
3 2381.98 1339654
3 2381.98 1332405
3 2381.98 1327385
3 2381.98 1326827
3 2381.98 1325783
3 2381.98 1312266
3 2382.93 1311710
3 2382.93 1310232
3 2383.61 1308840
3 2383.61 1305943
3 2383.61 1303882
3 2383.61 1303671
3 2383.61 1297412
3 2384.43 1295368
3 2385.11 1294710
3 2386.39 1294237
3 2387.04 1292465
3 2387.04 1287520
3 2387.04 1285664
3 2387.78 1281976
3 2387.78 1279633
3 2387.78 1278365
3 2388.5 1277860
3 2388.5 1276981
3 2389.18 1276880
3 2389.83 1274307
3 2389.83 1273732
3 2389.83 1272171
3 2390.54 1271874
3 2392.47 1265876
3 2392.47 1262074
3 2392.47 1260619
3 2393.17 1260049
3 2394.43 1489809
3 2394.43 1454422
3 2394.43 1433153
3 2394.43 1425128
3 2394.43 1417955
3 2394.43 1401054
3 2395.33 1379137
3 2395.33 1376390
3 2395.33 1358829
3 2395.33 1344966
3 2396.09 1343251
3 2396.09 1336957
3 2396.09 1332012
3 2396.09 1326705
3 2396.09 1326599
3 2396.09 1323248
3 2396.91 1316227
3 2396.91 1306943
3 2396.91 1303979
3 2396.91 1284529
3 2396.91 1283576
3 2397.69 1283061
3 2397.69 1281759
3 2397.69 1277857
3 2397.69 1275163
3 2398.67 1275127
3 2398.67 1274447
3 2398.67 1273109
3 2399.64 1271436
3 2400.51 1270567
3 2408.36 1514503
3 2408.36 1501675
3 2408.36 1453533
3 2408.36 1441025
3 2408.36 1413592
3 2408.36 1400117
3 2408.36 1392334
3 2408.36 1380620
3 2409.26 1379691
3 2409.26 1379556
3 2409.26 1352490
3 2409.99 1348028
3 2409.99 1346280
3 2409.99 1345491
3 2409.99 1340267
3 2409.99 1339285
3 2410.86 1332076
3 2410.86 1321555
3 2410.86 1317653
3 2410.86 1311954
3 2410.86 1307242
3 2410.86 1306701
3 2410.86 1304888
3 2411.85 1303720
3 2412.55 1300901
3 2413.3 1300433
3 2413.3 1299650
3 2414.2 1297525
3 2414.2 1295712
3 2416.29 1293466
3 2417.06 1290922
3 2417.94 1290867
3 2421.37 1289416
3 2422.05 1535351
3 2422.05 1527864
3 2422.05 1524711
3 2422.05 1521818
3 2422.05 1493828
3 2422.05 1480196
3 2422.05 1467212
3 2422.05 1464580
3 2422.05 1463131
3 2423.13 1460199
3 2423.13 1452416
3 2423.13 1442677
3 2423.13 1437487
3 2423.13 1410446
3 2423.13 1396579
3 2423.13 1379707
3 2423.13 1378597
3 2423.13 1373660
1 2424.06 1363086
3 2424.06 1346264
3 2424.06 1341873
3 2424.06 1334090
3 2424.06 1333268
3 2424.06 1326074
3 2424.93 1325891
3 2425.61 1325281
3 2425.61 1323058
3 2425.61 1319097
3 2425.61 1310693
3 2426.43 1306825
3 2427.32 1304346
3 2433.7 1302169
3 2434.46 1296387
3 2434.46 1288537
3 2434.46 1287103
3 2434.46 1284702
3 2436.09 1398796
3 2436.09 1397191
3 2436.09 1397070
3 2436.09 1372949
3 2436.09 1366682
3 2436.09 1363182
3 2436.09 1360450
3 2436.09 1341775
3 2436.09 1327910
3 2436.09 1327150
3 2437.13 1323933
3 2437.13 1321867
3 2437.13 1315568
3 2437.89 1313293
3 2437.89 1310623
3 2438.79 1308524
3 2438.79 1308319
3 2439.87 1305491
3 2439.87 1296334
3 2443.65 1294940
3 2447.58 1294180
3 2448.66 1287177
3 2448.66 1277759
3 2450.62 1461289
3 2450.62 1455518
3 2450.62 1452784
3 2450.62 1445465
3 2450.62 1440124
3 2450.62 1437316
3 2450.62 1399695
3 2450.62 1388751
3 2450.62 1387893
3 2451.91 1367068
3 2451.91 1352745
3 2451.91 1352534
3 2451.91 1347557
3 2451.91 1346608
3 2451.91 1345136
3 2451.91 1343638
3 2454.03 1338732
3 2454.03 1325572
3 2455.06 1312555
3 2455.06 1311362
3 2455.06 1307303
3 2457.06 1307092
3 2460.96 1304403
3 2460.96 1304027
3 2462.05 1302757
3 2462.05 1297456
3 2462.05 1295712
3 2463.16 1293152
3 2463.16 1290946
3 2463.16 1283021
3 2464.25 1404340
3 2464.25 1397946
3 2464.25 1389434
3 2464.25 1379876
3 2464.25 1379436
3 2464.25 1371563
3 2464.25 1365160
3 2464.25 1352811
3 2465.54 1350064
3 2465.54 1338239
3 2468.52 1337092
3 2468.52 1327192
3 2468.52 1325278
3 2468.52 1325200
3 2469.62 1324460
1 2469.62 1318761
3 2470.67 1316346
3 2470.67 1314415
3 2470.67 1306471
3 2471.87 1304447
3 2472.91 1298952
3 2472.91 1296616
3 2472.91 1296543
1 2472.91 1295644
3 2474.03 1294569
3 2474.03 1293165
3 2475.08 1292724
3 2476.05 1290435
3 2476.05 1290083
3 2478.15 1418376
3 2478.15 1397646
3 2478.15 1381005
3 2478.15 1371974
3 2478.15 1371241
3 2479.31 1370878
3 2479.31 1360151
3 2479.31 1357979
3 2479.31 1345056
3 2479.31 1342108
3 2479.31 1340757
3 2479.31 1324604
3 2479.31 1315783
3 2479.31 1310838
3 2480.59 1305223
3 2481.6 1302302
3 2481.6 1289431
3 2481.6 1287577
3 2481.6 1285428
3 2481.6 1282412
3 2481.6 1281203
3 2482.73 1279627
3 2482.73 1277169
3 2482.73 1275631
3 2482.73 1273093
3 2484.66 1271337
3 2485.62 1269107
3 2485.62 1268359
3 2488.5 1267121
3 2492.19 1481445
3 2492.19 1478401
3 2492.19 1470618
3 2492.19 1468139
3 2492.19 1453500
3 2492.19 1427301
3 2492.19 1425467
3 2492.19 1420831
3 2492.19 1390537
3 2492.19 1376449
3 2494.59 1366776
3 2494.59 1359101
3 2494.59 1358494
3 2494.59 1348479
3 2495.72 1338657
3 2495.72 1338126
3 2496.79 1337262
3 2496.79 1337078
3 2496.79 1332262
3 2496.79 1321961
3 2497.9 1318998
3 2497.9 1309968
3 2498.92 1308983
3 2498.92 1301829
3 2499.94 1301675
3 2499.94 1301390
3 2499.94 1300982
3 2501.93 1293986
3 2506.92 1448599
3 2506.92 1407363
3 2506.92 1371254
3 2506.92 1358244
3 2506.92 1350235
3 2506.92 1346097
3 2506.92 1344502
3 2508.2 1335970
3 2508.2 1322338
3 2508.2 1317523
3 2509.28 1317012
3 2509.28 1307766
3 2509.28 1298457
3 2510.37 1293627
3 2510.37 1293145
3 2511.37 1291022
3 2512.35 1288953
3 2512.35 1288810
3 2512.35 1286363
3 2513.39 1274637
3 2516.25 1268063
3 2517.19 1265781
3 2520.34 1445409
3 2520.34 1430792
3 2520.34 1390329
3 2520.34 1345236
3 2520.34 1317886
3 2520.34 1315139
3 2521.57 1314353
3 2521.57 1308360
3 2521.57 1300890
3 2521.57 1299766
3 2521.57 1291526
3 2522.75 1288328
3 2522.75 1287834
3 2522.75 1286125
3 2522.75 1283145
3 2522.75 1282288
3 2523.92 1280839
3 2523.92 1279809
3 2526.75 1279710
3 2526.75 1270841
3 2528.72 1267867
3 2531.59 1266459
3 2532.58 1265170
3 2534.95 1398844
3 2534.95 1377389
3 2534.95 1377041
3 2534.95 1374562
3 2534.95 1369740
3 2534.95 1360716
3 2537.02 1355205
3 2537.02 1352524
3 2537.02 1345548
3 2537.02 1343205
3 2538.21 1336351
3 2538.21 1326652
3 2541.2 1323056
3 2541.2 1315954
3 2541.2 1312991
3 2543.21 1308233
3 2543.21 1303435
3 2543.21 1300798
3 2544.28 1298500
3 2544.28 1294477
3 2545.31 1293310
3 2548.4 1407387
3 2548.4 1404478
3 2548.4 1396977
3 2548.4 1389977
3 2548.4 1353753
3 2548.4 1342670
3 2548.4 1312705
3 2548.4 1306460
3 2549.7 1297723
3 2550.76 1296919
3 2550.76 1295258
3 2550.76 1291186
3 2550.76 1288185
3 2551.92 1287884
3 2551.92 1287487
3 2551.92 1283303
3 2553.07 1282534
3 2553.07 1282155
3 2561.88 1281501
3 2561.88 1280511
3 2562.94 1598443
3 2562.94 1569551
3 2562.94 1525933
3 2562.94 1524873
3 2562.94 1498006
3 2562.94 1487888
3 2562.94 1459292
3 2562.94 1448691
3 2562.94 1442639
3 2562.94 1440640
3 2562.94 1411640
3 2562.94 1397001
3 2564.42 1361282
3 2564.42 1348678
3 2564.42 1342859
3 2564.42 1334123
3 2565.64 1329024
3 2565.64 1328675
3 2565.64 1306692
3 2565.64 1305707
3 2566.83 1299329
3 2566.83 1299324
3 2566.83 1299140
3 2566.83 1296580
3 2566.83 1288439
3 2566.83 1287883
3 2566.83 1283886
3 2568.18 1280800
3 2569.24 1278604
3 2569.24 1274491
3 2569.24 1271602
3 2569.24 1271483
3 2570.46 1270563
3 2570.46 1269612
3 2570.46 1268743
3 2570.46 1267185
3 2570.46 1263502
3 2571.65 1263043
3 2572.69 1261925
3 2574.71 1260487
3 2575.76 1259657
3 2576.8 1431473
3 2576.8 1399648
3 2576.8 1372061
3 2576.8 1363344
3 2576.8 1361831
3 2576.8 1358694
3 2576.8 1349219
3 2576.8 1344829
3 2576.8 1341023
3 2578.17 1336106
3 2578.17 1328626
3 2578.17 1320843
3 2578.17 1312091
3 2578.17 1308436
3 2579.39 1305957
3 2579.39 1304662
3 2580.52 1300058
3 2580.52 1295456
3 2581.89 1286252
3 2582.91 1272149
3 2582.91 1264481
3 2584.14 1260976
3 2585.81 1260130
3 2588.81 1257772
3 2590.3 1506432
3 2590.3 1496450
3 2590.3 1484865
3 2590.3 1473605
3 2590.3 1470263
1 2590.3 1435049
3 2590.3 1430104
3 2590.3 1381962
3 2590.3 1376043
3 2591.4 1348053
3 2591.4 1342216
3 2591.4 1335639
3 2591.4 1326894
3 2591.4 1321184
3 2591.4 1318853
3 2592.33 1316916
3 2592.33 1315144
3 2592.33 1311035
3 2592.33 1308935
3 2595.05 1307887
3 2596.22 1305772
3 2596.22 1293061
3 2596.22 1290825
3 2597.23 1288724
3 2602.93 1286965
3 2604.97 1379671
3 2604.97 1369957
3 2604.97 1356083
3 2604.97 1353489
3 2604.97 1349855
3 2604.97 1349047
3 2604.97 1346568
3 2604.97 1337737
3 2604.97 1325741
3 2606.4 1324785
3 2606.4 1324198
3 2607.51 1301464
3 2607.51 1301241
3 2609.76 1297056
3 2609.76 1296157
3 2611.89 1294079
3 2612.97 1293843
3 2613.88 1293030
3 2613.88 1289162
3 2618.14 1387486
3 2618.14 1378198
3 2618.14 1375719
3 2618.14 1374117
3 2619.01 1365887
3 2619.01 1360801
3 2619.01 1358322
3 2619.01 1354022
3 2619.01 1352710
3 2619.89 1343639
3 2621.94 1331092
3 2622.65 1327486
3 2622.65 1313621
3 2625.44 1311872
3 2625.44 1307185
3 2625.44 1305562
3 2625.44 1303942
3 2625.44 1302864
3 2625.44 1302405
3 2625.44 1302359
3 2626.35 1299024
3 2626.35 1297908
3 2627.31 1295348
3 2627.31 1289118
3 2627.31 1285986
3 2627.31 1281989
3 2627.31 1279633
3 2632.4 1378878
3 2632.4 1352002
3 2632.4 1346878
3 2632.4 1343574
3 2633.31 1342085
3 2633.31 1330603
3 2633.31 1328007
3 2634.08 1326764
3 2634.08 1323139
3 2634.08 1320782
3 2634.91 1315560
3 2634.91 1313111
3 2637.3 1310632
3 2638.9 1305957
3 2639.61 1294541
3 2641.29 1293808
3 2643.03 1291481
3 2643.86 1290169
3 2643.86 1288955
3 2645.65 1285765
3 2646.43 1412194
3 2646.43 1400934
3 2646.43 1396831
3 2646.43 1382549
3 2646.43 1370076
3 2646.43 1368398
3 2646.43 1363944
3 2646.43 1353304
3 2647.55 1347786
3 2647.55 1345459
3 2647.55 1338410
3 2648.41 1328678
3 2648.41 1328034
3 2649.17 1309657
3 2649.17 1307232
3 2649.17 1306944
3 2650.1 1304753
3 2651.11 1304749
3 2651.11 1293247
3 2652.19 1292883
3 2652.19 1287611
3 2653.24 1286773
3 2654.08 1284769
3 2654.08 1283123
3 2655.18 1279711
3 2655.18 1278469
3 2655.18 1275952
3 2656.45 1274038
3 2660.14 1372555
3 2660.14 1368496
3 2660.14 1354418
3 2660.14 1327217
3 2661.88 1318040
3 2661.88 1315151
3 2661.88 1313523
3 2662.84 1311712
3 2662.84 1305247
3 2663.89 1302459
3 2664.96 1287530
3 2668.43 1286701
3 2668.43 1282369
3 2668.43 1280535
3 2674.35 1411507
3 2674.35 1399746
3 2674.35 1392311
3 2674.35 1372509
3 2674.35 1369302
3 2674.35 1364535
3 2674.35 1348668
3 2674.35 1344210
3 2674.35 1342274
3 2674.35 1332536
3 2674.35 1320466
3 2675.99 1320241
3 2675.99 1319313
3 2675.99 1311451
3 2675.99 1309632
3 2677.36 1308859
3 2677.36 1302287
3 2677.36 1298963
3 2678.66 1298178
3 2678.66 1296438
3 2678.66 1293169
3 2679.8 1292270
3 2681.65 1289838
3 2681.65 1288630
3 2681.65 1285610
3 2684.58 1283370
3 2685.61 1280554
3 2688.44 1383674
3 2688.44 1376578
3 2688.44 1367441
3 2688.44 1364606
3 2688.44 1348646
3 2688.44 1348155
3 2688.44 1340720
3 2688.44 1337343
3 2688.44 1318638
3 2688.44 1315906
3 2689.83 1313441
3 2689.83 1311930
3 2690.83 1307666
3 2690.83 1305674
3 2692.77 1305300
3 2692.77 1304540
3 2693.86 1293274
3 2693.86 1285686
3 2693.86 1282709
3 2694.96 1281326
3 2694.96 1278883
3 2695.89 1278613
3 2696.78 1278500
3 2696.78 1277657
3 2698.97 1276126
3 2700.47 1273571
3 2702.01 1408078
3 2702.01 1405599
3 2702.01 1399248
3 2702.01 1391128
3 2702.01 1383633
3 2702.01 1377860
3 2702.01 1375707
3 2702.01 1372762
3 2702.01 1367200
3 2702.01 1345902
3 2702.01 1340976
3 2703.27 1340790
3 2703.27 1338168
3 2703.27 1331657
3 2703.27 1331341
3 2703.27 1330214
3 2703.27 1324947
3 2704.28 1323820
3 2704.28 1313695
3 2705.21 1313320
3 2706.13 1312820
3 2707.12 1311406
3 2707.12 1304411
3 2707.12 1303984
3 2715.07 1302430
3 2715.07 1300808
3 2716.54 1385195
3 2716.54 1378985
3 2716.54 1377735
3 2716.54 1375947
3 2716.54 1375186
3 2716.54 1370776
3 2716.54 1369735
3 2716.54 1361867
3 2716.54 1355870
3 2716.54 1349914
3 2717.74 1347923
3 2718.56 1340593
3 2719.4 1332915
3 2719.4 1329009
3 2720.38 1321574
3 2720.38 1313700
3 2721.33 1312938
3 2721.33 1300838
3 2721.33 1290512
3 2722.25 1286815
3 2726.8 1286731
3 2726.8 1284878
3 2727.83 1283132
3 2730.16 1440544
3 2730.16 1417750
3 2730.16 1403391
3 2730.16 1401942
3 2730.16 1395867
3 2730.16 1395828
3 2730.16 1390565
3 2730.16 1388086
3 2731.28 1382317
3 2731.28 1366894
3 2731.28 1361004
3 2731.28 1358858
3 2731.28 1349500
3 2731.28 1347684
3 2731.28 1347094
3 2732.27 1347021
3 2732.27 1336924
3 2732.27 1336891
3 2732.27 1311013
3 2733.14 1304013
3 2733.96 1302931
3 2735.1 1302509
3 2735.1 1300627
3 2736.12 1300228
3 2736.12 1294725
3 2736.12 1291474
3 2743.32 1291358
3 2744.25 1423828
3 2744.25 1419625
3 2744.25 1415004
3 2744.25 1407352
3 2744.25 1397227
3 2744.25 1396711
3 2744.25 1394699
3 2744.25 1387966
3 2744.25 1380627
3 2744.25 1373632
3 2745.81 1373536
3 2745.81 1370970
3 2745.81 1369172
3 2745.81 1356605
3 2745.81 1354677
3 2745.81 1351672
3 2745.81 1335779
3 2747.11 1334595
3 2747.11 1334142
3 2747.11 1328144
3 2750.2 1310596
3 2750.2 1307066
3 2750.2 1306194
3 2750.2 1303171
3 2750.2 1301463
3 2750.2 1300315
3 2752.37 1300156
3 2753.36 1299204
3 2753.36 1298321
3 2754.39 1292270
3 2758.46 1361763
3 2758.46 1352479
3 2758.46 1338532
3 2758.46 1329810
3 2758.46 1329685
3 2758.46 1328169
3 2758.46 1327862
3 2759.71 1323749
3 2759.71 1316754
3 2759.71 1316154
3 2759.71 1312352
3 2762.8 1311109
3 2762.8 1310804
3 2762.8 1306235
3 2763.88 1305135
3 2763.88 1302371
3 2768.95 1293272
3 2769.66 1292243
3 2770.34 1289814
3 2770.34 1286549
3 2770.34 1284854
3 2770.34 1284808
3 2771.77 1284322
3 2771.77 1284297
3 2771.77 1280472
3 2772.52 1437021
3 2772.52 1434472
3 2772.52 1429942
3 2772.52 1406372
3 2772.52 1402203
3 2772.52 1399870
3 2772.52 1391153
3 2772.52 1386358
3 2772.52 1375133
3 2772.52 1361147
3 2772.52 1351859
3 2772.52 1344978
3 2772.52 1340661
3 2772.52 1337543
3 2773.67 1331338
3 2774.37 1326485
3 2774.37 1326349
3 2774.37 1320720
3 2774.37 1318908
3 2775.88 1318097
3 2776.56 1314686
3 2777.25 1312837
3 2777.25 1310358
3 2777.25 1310061
3 2778 1306167
3 2778 1299915
3 2778 1299114
3 2778.74 1294318
3 2779.42 1286883
3 2779.42 1283652
3 2779.42 1280721
3 2780.17 1275214
3 2780.86 1273286
3 2780.86 1270935
3 2781.76 1268919
3 2781.76 1268829
3 2786.81 1434394
3 2786.81 1429197
3 2786.81 1419777
3 2786.81 1411907
3 2786.81 1392151
3 2786.81 1392150
3 2786.81 1388988
3 2786.81 1386934
3 2788.07 1386629
3 2789.09 1364841
3 2789.09 1353581
1 2789.09 1337756
3 2789.09 1336568
3 2790.2 1330288
3 2790.2 1320884
3 2791.22 1306893
3 2791.22 1296726
3 2791.22 1296335
3 2791.22 1280527
3 2792.34 1276859
3 2792.34 1268184
3 2793.37 1258950
3 2793.37 1255790
3 2795.33 1253204
3 2795.33 1250457
3 2795.33 1249585
Score = 1258832
