    Blocking waiting for file lock on package cache
    Blocking waiting for file lock on package cache
    Blocking waiting for file lock on package cache
    Finished release [optimized] target(s) in 0.03s
     Running `target/release/tester ../a.out 0068`
3 0.026 1045761
3 0.026 1026624
3 0.026 1014363
3 0.026 990786
3 0.715 988726
3 0.715 985068
3 0.715 981316
3 1.642 966228
3 2.347 959016
3 2.347 955437
3 2.347 952996
3 3.617 951726
3 3.617 950360
3 3.617 950002
3 3.95 949201
3 4.288 947442
3 6.929 940248
3 6.929 939544
3 7.449 938585
3 7.449 937725
3 7.449 934435
3 7.449 932388
3 7.449 929994
3 14.319 1096692
3 14.319 1090495
3 14.319 1058601
3 14.319 1055527
3 14.319 1055436
3 14.913 1034647
3 14.913 1025768
3 14.913 1024051
3 14.913 1005929
3 14.913 1005883
3 14.913 985255
3 15.804 979017
3 15.804 974931
3 15.804 968576
1 16.885 962845
3 17.182 960054
3 17.182 959308
3 17.485 958435
3 17.773 958080
3 18.057 957843
3 18.057 957049
3 18.397 950275
3 19.955 950177
3 20.247 949314
3 20.604 943303
3 22.545 942652
3 28.164 1083540
3 28.164 1075437
3 28.164 1051720
3 28.508 1016129
3 28.508 1012258
3 28.508 1005077
3 28.508 984915
3 28.508 963710
3 28.508 954868
3 28.508 954577
3 28.508 947934
3 28.917 942311
3 29.202 942265
3 31.938 937222
3 32.859 935881
3 32.859 931703
3 42.261 1101187
3 42.261 1099115
3 42.261 1090451
3 42.261 1055561
3 42.261 1052532
3 42.261 1038031
3 42.261 1037868
3 42.261 1034560
3 42.261 1028035
3 42.261 1016390
3 42.261 1012795
3 42.261 1007276
3 42.733 1001670
3 42.733 988077
3 43.06 973457
3 43.41 973124
3 43.41 965640
3 43.717 959273
3 43.717 950500
3 43.717 949880
3 45.021 940970
3 45.021 940584
3 50.218 937719
3 52.166 934321
3 52.672 933054
3 52.672 931858
3 53.181 928770
3 55.121 928313
3 56.072 1001497
3 56.072 999291
3 56.072 990923
3 56.072 976045
3 56.072 973112
3 56.072 971450
3 56.072 970790
3 56.072 969740
3 56.729 956337
3 56.729 955903
3 56.729 955573
3 56.729 955474
3 56.729 954207
3 57.271 940675
3 58.236 939522
3 58.236 938255
3 70.337 990974
3 70.337 977674
3 70.337 973341
3 70.337 973025
3 70.337 961431
3 70.337 945495
3 70.337 945297
3 70.337 936022
3 70.337 935662
3 70.858 929825
3 72.399 927911
3 72.399 927689
3 72.694 923356
3 72.694 922692
3 72.694 921891
3 84.193 1044133
3 84.193 1033853
3 84.193 1027079
3 84.193 992111
3 84.193 990346
3 84.193 986101
3 84.193 984839
3 84.193 981804
3 84.868 980384
3 84.868 979583
3 84.868 974813
3 85.462 970060
3 85.462 967115
3 85.462 966314
3 86.499 947528
3 92.342 947442
3 93.438 946271
3 97.171 944523
3 97.464 941823
3 97.464 941282
3 97.464 937749
3 98.032 1154784
3 98.032 1124112
3 98.032 1113788
3 98.032 1110701
3 98.032 1086371
3 98.032 1064791
3 98.032 1063531
3 98.032 1057628
3 98.032 1052779
3 98.032 1029929
3 98.032 1017962
3 98.548 1017889
3 98.548 1011765
3 98.548 989318
3 98.548 988787
3 98.548 984454
3 98.892 983084
3 98.892 973067
3 98.892 972266
3 98.892 969309
3 98.892 968533
3 99.91 963050
3 99.91 962610
3 99.91 962318
3 99.91 959937
3 100.242 957609
3 101.103 953163
3 112.353 1010736
3 112.353 992829
3 112.353 982428
3 112.353 973924
3 112.353 969154
3 112.353 967316
3 112.83 963147
3 112.83 959382
3 112.83 958581
3 112.83 951907
3 112.83 942852
3 112.83 938800
3 119.954 938519
3 119.954 938480
3 123.486 937744
3 126.012 1048660
3 126.012 1047393
3 126.012 1036131
3 126.012 1023862
3 126.012 1012268
3 126.012 1011886
3 126.012 1010520
3 126.012 1003882
3 126.012 995409
3 126.647 985085
3 126.647 978311
3 126.647 973518
3 127.153 972890
3 127.153 971623
3 127.673 965603
3 128.146 963162
3 128.146 962519
3 128.146 956050
3 128.7 955631
1 133.203 952477
3 133.938 947528
3 134.427 945554
3 140.034 1051928
3 140.034 1048286
3 140.034 1030593
3 140.034 1018948
3 140.421 1008938
3 140.421 1004605
3 140.421 992937
3 140.751 989933
3 140.751 980321
3 140.751 979159
3 140.751 976775
3 141.308 972385
3 141.308 967133
3 141.308 964373
3 141.801 963594
3 141.801 959261
3 142.935 957994
3 150.963 947670
3 154.112 1074685
3 154.112 1066432
3 154.112 1049254
3 154.112 1031464
3 154.112 1023871
3 154.112 1003709
3 154.112 983080
3 154.112 973037
3 154.112 967554
3 154.754 966669
3 154.754 964049
3 154.754 963963
3 155.205 954270
3 155.205 948073
3 157.564 938001
3 168.406 1010531
3 168.406 1002010
3 168.406 1000743
3 168.406 985670
3 168.406 982336
3 168.406 980656
3 168.406 978077
3 168.406 970877
3 169.08 948844
3 169.08 944323
3 169.08 944138
3 169.08 942313
3 169.611 938029
3 170.158 934271
3 170.158 934193
3 170.158 933628
3 170.158 932975
3 170.158 932827
3 170.158 929395
3 171.69 929233
3 173.108 929027
3 173.108 928323
3 173.108 927624
3 182.172 1034944
3 182.172 1031789
3 182.172 1030174
3 182.172 1013508
3 182.172 1005501
3 182.172 1002125
3 182.172 998763
3 182.172 991989
3 182.172 990722
3 182.172 983944
3 182.597 977262
3 182.597 969222
3 182.597 966221
3 182.597 961376
3 182.597 954900
3 182.597 953379
3 182.597 952578
3 182.597 950761
3 182.597 948871
3 182.597 942047
3 182.987 940228
3 183.546 938707
3 183.546 937906
3 188.252 937082
3 188.252 936951
3 188.252 935094
3 191.647 934591
3 191.647 934244
3 192.149 926310
3 193.174 925943
3 195.648 912253
3 195.938 911782
3 196.3 1018982
3 196.3 1018181
3 196.603 1013113
3 196.603 992951
3 196.603 992147
3 196.603 984023
3 196.603 979583
3 196.934 978615
3 196.934 977869
3 196.934 977353
3 197.306 976552
3 197.602 957766
3 198.78 956595
3 199.452 954847
3 199.833 951093
3 199.833 950865
3 200.556 948073
3 210.304 1086530
3 210.304 1073218
3 210.304 1062698
3 210.304 1056074
3 210.304 1044429
3 210.304 1028871
3 210.304 1023572
3 210.304 1016240
3 210.304 1009466
3 210.304 1003315
3 210.304 982365
3 210.967 980926
3 210.967 980914
3 211.476 975480
3 211.975 972015
3 211.975 964109
3 211.975 963912
3 211.975 961684
3 211.975 958978
3 211.975 956033
3 211.975 955507
3 211.975 955054
3 211.975 947426
3 211.975 942736
3 211.975 941980
3 212.6 936201
3 213.568 935752
3 214.053 934485
3 215.023 928288
3 215.985 926361
3 224.222 1079209
3 224.222 1077461
3 224.222 1067682
3 224.222 1032193
3 224.222 1018514
3 224.677 1017161
3 224.677 1010387
3 224.677 1004190
3 224.677 973069
3 224.677 971802
3 225.118 969222
3 225.118 968421
3 225.419 962219
3 225.706 957929
3 225.706 955867
3 226.045 951534
3 226.045 946271
3 238.344 1079047
3 238.344 1068151
3 238.344 1056506
3 238.344 1031537
3 238.344 1026528
3 238.344 1017130
3 238.997 1015189
3 238.997 1013705
3 238.997 986490
3 238.997 977637
3 238.997 973684
3 238.997 972026
3 239.436 966479
3 239.436 964119
3 239.436 950971
3 240.045 949419
3 240.345 941901
3 240.345 938683
3 240.966 937853
3 240.966 936247
3 241.263 935959
3 241.557 933683
3 241.557 929762
3 243.011 929531
3 243.303 926057
3 244.154 923904
3 244.439 923041
3 252.259 969029
3 252.259 966752
3 252.259 966195
3 252.259 964399
3 252.259 961964
3 252.259 957699
3 252.259 951541
3 252.671 949751
3 252.671 947508
3 252.671 941712
3 252.671 939791
3 253.11 939072
3 253.11 936525
3 253.11 934982
3 256.845 932192
3 263.477 932169
3 263.477 927844
3 263.477 927604
3 264.002 926577
3 264.002 926317
3 264.49 921585
3 264.49 919629
3 266.285 972129
3 266.285 959532
3 266.285 959480
3 266.732 958213
3 267.093 957412
3 267.984 954428
3 267.984 954200
3 275.392 953099
3 275.767 949734
3 275.767 947132
3 276.137 946507
3 276.832 946331
3 280.313 1098444
3 280.313 1090774
3 280.313 1084000
3 280.313 1075811
3 280.313 1074640
3 280.963 1061333
3 280.963 1056191
3 280.963 1041171
3 280.963 1030321
3 280.963 1023771
3 280.963 1022672
3 280.963 1020493
3 280.963 1002426
3 280.963 984902
3 281.416 972662
3 281.416 971240
3 282.012 970983
3 282.012 967536
1 283.006 966203
3 283.006 959200
3 283.623 951051
3 283.623 948817
3 285.339 944065
3 286.814 939930
3 286.814 939732
3 294.425 1188552
3 294.425 1158445
3 294.425 1107123
3 294.425 1069397
3 294.425 1064602
3 294.425 1060875
3 294.425 1060789
3 294.425 1059282
3 294.425 1028610
3 294.969 1027439
3 294.969 1021426
3 294.969 1009457
3 294.969 1000041
3 294.969 998301
3 294.969 986656
3 294.969 982323
3 294.969 968729
3 295.409 966981
3 295.409 966180
3 295.409 959406
3 298.817 954897
3 299.386 954109
3 299.386 953855
3 300.223 952996
3 300.71 951021
3 300.71 947442
3 304.518 946287
3 304.518 946271
3 307.313 941661
3 308.131 1072101
3 308.131 1037276
3 308.131 1033034
3 308.131 1032103
3 308.131 1021510
3 308.131 1013108
3 308.131 1012245
3 308.131 1005471
3 308.131 997161
3 308.557 991642
3 308.557 985825
3 308.557 969664
3 308.929 962890
3 308.929 960151
3 308.929 954368
3 309.456 951373
3 309.456 949421
3 309.456 941801
3 309.456 941411
3 309.456 939642
3 309.456 938191
3 310.022 937031
3 310.334 936628
3 310.334 936230
1 316.307 923328
3 316.307 918321
3 316.689 914821
3 322.128 1038214
3 322.128 1008903
3 322.128 1005832
3 322.128 1002524
3 322.128 996654
3 322.128 994017
3 322.128 992750
3 322.713 986827
3 323.259 986016
3 324.238 982038
3 324.238 970790
3 324.238 969590
3 336.592 1107370
3 336.592 1074378
3 336.592 1055891
3 336.592 1018290
3 336.592 1011573
3 337.226 1011473
3 337.226 1010476
3 337.226 1010023
3 337.544 1005690
3 337.544 993988
3 337.544 964980
3 337.871 958469
3 337.871 953386
3 337.871 952967
3 341.004 948577
3 341.004 945797
3 341.004 943617
3 341.684 942327
3 341.684 938537
3 350.339 1091066
3 350.339 1082813
3 350.339 1053727
3 350.339 1047222
3 350.339 1017747
3 350.339 1013164
3 350.339 1002130
3 350.339 996072
3 350.339 995271
3 350.968 994386
3 350.968 978252
3 350.968 977965
3 350.968 973589
1 351.396 964087
3 351.396 962876
3 351.396 958730
3 351.712 957844
3 351.712 957043
3 351.712 956672
3 351.712 955878
3 354.66 946769
3 354.66 945554
3 359.246 944863
3 360.117 942206
3 360.117 941828
3 361.739 940600
3 362.314 940556
3 364.026 990350
3 364.026 979664
3 364.026 978758
3 364.026 978535
3 364.026 977049
3 364.026 960873
3 364.026 959606
3 365.068 954571
3 365.365 954351
3 365.648 950447
3 366.109 946937
3 366.109 942573
3 366.109 939327
3 366.109 937562
3 366.109 933493
3 366.591 932776
3 366.591 929769
3 366.591 929206
3 366.975 928887
3 366.975 928006
3 369.9 927559
3 369.9 909938
3 370.207 909044
3 370.207 908181
3 370.547 907916
3 378.221 1125767
3 378.221 1084043
3 378.221 1059936
3 378.221 1024345
3 378.221 1009673
3 378.221 1000075
3 378.221 992956
3 378.221 977890
1 378.602 966479
3 378.602 957574
3 378.602 952851
3 378.602 952468
3 379.391 946271
1 384.511 945554
3 392.087 1082325
3 392.087 1079177
3 392.087 1062163
3 392.087 1040506
3 392.087 1014180
3 392.087 1009847
3 392.087 975152
3 392.087 975139
3 392.087 974958
3 392.087 967024
3 392.506 966727
3 392.506 964238
3 392.506 961853
3 392.506 957520
3 392.84 953444
3 392.84 952177
3 392.84 947982
3 393.208 947181
3 393.756 947155
3 393.756 945954
3 393.756 944783
3 394.577 943310
3 395.794 942878
3 397.704 941313
3 397.704 941130
3 398.255 940079
3 399.465 937699
3 400.193 936454
3 400.672 935653
3 406.286 1020782
3 406.286 1016449
1 406.286 1003421
3 406.286 968596
3 406.286 968432
3 406.286 966462
3 407.985 962205
3 407.985 951018
3 408.394 948501
3 408.394 943260
3 408.394 941545
3 408.394 928764
3 408.917 926721
3 409.413 925702
3 410.367 922478
3 410.85 921249
3 411.782 920971
3 416.783 915713
3 417.265 914595
3 420.452 1122658
3 420.452 1109877
3 420.452 1075592
1 420.452 1065142
3 420.452 1054137
3 420.452 1048618
3 420.452 1009141
3 420.452 1007393
3 420.452 1006207
3 420.452 997296
3 420.452 988794
3 420.983 985059
3 420.983 982597
3 420.983 973755
3 421.585 973299
3 421.585 966320
3 421.585 962021
3 422.135 954464
3 422.632 953670
3 422.632 951227
3 422.632 944441
3 422.632 943319
3 423.148 942076
3 423.148 932380
3 423.148 930483
3 423.664 930327
3 423.664 929060
3 424.147 928704
3 424.654 925989
3 424.654 924988
3 424.654 922278
3 424.654 918114
3 425.097 916735
3 425.446 916492
3 425.446 914344
3 434.038 1004711
3 434.038 996209
3 434.038 984549
3 434.038 979337
3 434.038 973140
3 434.038 972339
3 434.038 971498
3 434.444 965420
3 434.444 958323
3 434.444 954396
3 434.444 944154
3 434.904 940444
3 434.904 940185
3 435.41 938724
3 435.41 934504
3 435.41 929224
3 435.877 924454
3 438.064 923446
3 448.29 1097433
3 448.29 1095234
3 448.29 1041556
3 448.29 1032515
3 448.29 1032377
3 448.29 1028044
3 448.29 993154
3 448.908 989676
3 448.908 980919
3 448.908 980118
3 449.896 978476
3 450.419 974143
3 450.954 971909
3 450.954 969781
3 450.954 962130
3 450.954 956975
3 451.955 955789
3 453.423 954233
3 453.715 951856
3 454.581 950178
3 454.581 945867
3 454.581 944286
3 454.886 943344
3 456.301 943078
3 456.582 942569
3 456.93 939787
3 462.082 1099823
3 462.082 1085151
3 462.082 1073286
3 462.082 1064764
3 462.082 1036498
3 462.082 1024479
3 462.082 1011816
3 462.082 1007483
3 462.082 995017
3 462.082 988243
3 462.679 988034
3 462.679 970305
3 462.679 961684
3 462.679 954996
3 463.637 952515
3 464.134 942541
3 464.61 941274
3 464.61 936283
3 465.099 935218
3 465.099 930885
3 465.099 930084
3 474.585 929021
3 476.026 1022609
3 476.026 1015835
3 476.026 991488
3 476.026 987772
3 476.026 969010
3 476.026 949596
3 476.531 947541
3 476.531 946740
3 477.146 945501
3 477.146 942141
3 477.146 937749
3 478.51 935453
3 481.593 933063
3 481.593 931329
3 490.197 1028810
3 490.197 1021058
3 490.197 1014072
3 490.197 999003
3 490.197 998912
3 490.197 979453
3 490.784 976212
3 490.784 971493
3 490.784 971442
3 491.781 961227
3 491.781 959797
3 494.304 955947
3 494.304 945736
3 494.626 944083
3 494.953 942302
3 494.953 939957
3 494.953 939436
3 495.273 939123
3 495.273 938864
3 495.579 938601
3 495.579 935678
3 495.579 935246
3 495.579 934651
3 495.904 934501
3 496.478 933586
3 496.478 932989
3 498.107 931204
3 498.107 929683
3 504.079 1034496
3 504.079 1032424
3 504.079 1025795
3 504.079 1017824
3 504.079 997924
3 504.079 988162
3 504.079 986759
3 504.68 984426
3 504.68 982217
3 504.68 980071
3 505.235 977441
3 505.235 973933
3 505.657 965086
3 505.657 957710
3 505.657 956572
3 507.728 948607
3 507.728 947248
3 509.673 944781
3 509.673 944639
3 510.838 943791
3 518.039 1047299
3 518.039 1032346
3 518.039 1031558
3 518.039 995095
3 518.747 994549
3 518.747 990791
3 519.421 982761
3 519.421 981988
3 519.421 971373
3 519.421 969289
3 519.421 966563
3 519.421 963540
3 519.421 957644
3 520.159 953623
3 520.159 950315
3 524.485 944520
3 524.994 942687
3 524.994 942338
3 525.491 940113
3 525.491 938670
3 532.233 1094412
3 532.233 1026470
3 532.233 1025991
3 532.233 1025666
3 532.233 1025379
3 532.233 1005707
3 532.233 1004440
3 532.233 1004394
3 532.686 990535
3 532.686 989487
3 532.686 989100
3 532.686 984946
3 533.056 982240
3 533.056 977869
3 533.056 972568
3 533.056 972350
3 533.378 969542
3 533.378 969312
3 533.378 964780
3 533.378 961345
3 535.021 960174
3 535.021 958426
3 535.527 955648
3 536.039 955530
3 536.039 954847
3 536.985 948842
3 536.985 948073
3 546.044 1137750
3 546.044 1102860
3 546.044 1056617
3 546.044 1035500
3 546.044 1027876
3 546.044 1024587
3 546.044 1019164
3 546.044 1013669
3 546.492 1009874
3 546.492 1005116
3 546.492 1001782
3 546.812 997383
3 546.812 992195
3 546.812 991434
3 547.256 989335
3 547.814 986821
3 548.321 985688
3 548.321 984092
3 548.784 983682
3 548.784 980334
3 548.784 973560
3 549.408 972799
3 549.748 967382
3 549.748 961440
3 550.942 957073
3 551.234 957005
3 551.535 953247
3 551.535 950837
3 552.118 947728
3 553.306 946768
3 560.091 1103504
3 560.091 1068536
3 560.091 1060283
3 560.091 1039922
3 560.091 1039760
3 560.091 1015451
3 560.091 1009088
3 560.574 998764
3 560.574 990976
3 560.574 962403
3 560.574 959139
3 560.99 958797
3 565.001 958638
3 565.001 956890
3 565.408 956114
3 565.408 950720
3 565.408 949426
3 565.777 949238
3 565.777 948437
3 566.091 945206
3 566.437 942652
3 574.56 1032501
3 574.56 1031554
3 574.56 1031109
3 574.56 1030947
3 574.56 1025428
3 574.56 1022485
3 574.56 1013771
3 574.56 1010096
3 574.56 1009438
3 574.56 1002697
3 574.56 1000557
3 574.56 995751
3 575.247 977930
3 575.247 977305
3 575.247 971704
3 575.247 959542
3 575.247 958900
3 575.247 957030
3 575.247 956390
3 576.036 956018
3 576.036 955304
3 576.036 950270
3 576.649 949628
3 576.649 946530
3 577.151 939537
3 579.747 938596
3 588.195 1055947
3 588.195 1051614
3 588.195 1045417
3 588.195 1039626
3 588.195 1036707
3 588.195 1024438
3 588.195 1013167
3 588.675 1012366
3 588.675 1009045
3 588.675 1003908
3 588.675 1000792
3 588.675 998910
3 588.675 983839
3 588.675 981248
3 589.259 978243
3 589.259 972727
3 589.259 969922
3 589.671 969121
3 589.671 961944
3 589.671 956595
3 590.018 954847
3 590.018 948073
3 602.307 1024132
3 602.307 1015611
3 602.307 1000939
3 602.651 1000138
3 602.651 990681
3 602.651 986348
3 602.99 982256
3 602.99 964907
3 602.99 961400
3 603.3 960599
3 608.024 959634
3 608.024 954623
3 608.024 953582
3 608.41 952252
3 608.41 950275
3 616.458 1045591
3 616.458 1017041
3 616.458 1005698
3 616.458 998705
3 616.458 991998
3 616.458 989157
3 616.458 986163
3 616.458 979966
1 617.111 975530
3 617.111 973858
3 617.643 969636
3 617.643 964601
3 617.643 961942
3 618.059 959963
3 618.059 959566
3 618.059 958996
3 618.059 958754
3 619.454 958670
3 619.454 954337
3 619.963 953070
3 620.905 952112
3 624.67 950753
3 624.67 946323
3 624.67 943327
3 624.67 939635
3 625.22 939624
3 625.22 937898
3 626.191 937119
3 630.369 1135856
3 630.369 1105184
3 630.369 1066638
3 630.369 1056725
3 630.369 1048170
3 630.369 1040236
3 630.369 1037285
3 630.369 1025691
3 630.369 1020285
3 630.369 1007504
3 630.369 994682
3 630.895 986579
3 630.895 980441
3 630.895 978499
3 630.895 974922
3 631.216 971811
3 632.024 968917
3 632.024 968720
3 632.709 964531
3 632.709 957843
3 644.113 1073536
3 644.113 1041640
3 644.113 1037882
3 644.113 1032598
3 644.113 1031797
3 644.113 1023275
3 644.113 1019949
3 644.113 1013752
3 644.113 1002722
3 644.113 998389
3 644.113 996269
3 644.761 990041
3 644.761 989975
3 644.761 989335
3 644.761 981662
3 645.302 971113
3 645.302 969697
3 645.302 962144
3 645.302 960877
3 645.829 958052
3 646.291 954384
3 650.738 951427
3 650.738 951402
3 658.165 1078422
3 658.165 1058260
3 658.165 1052184
3 658.165 1042212
3 658.165 1031619
3 658.165 1021840
3 658.165 1021039
3 658.165 998592
3 658.165 964331
3 658.165 960309
3 658.165 952686
3 658.647 945912
3 658.973 944645
3 672.081 1134773
3 672.081 1121992
3 672.081 1119876
3 672.081 1090150
3 672.081 1086884
3 672.081 1045880
3 672.081 1041863
3 672.081 1024593
3 672.081 1023108
3 672.081 1016334
3 672.081 1006555
3 672.081 999847
3 672.78 985256
3 672.78 983373
3 672.78 977176
3 672.78 972843
3 672.78 970531
3 672.78 969952
3 672.78 969730
3 673.396 967987
3 673.396 964131
3 673.396 959406
3 673.925 956965
3 673.925 951534
3 676.58 946271
3 686.171 1112994
3 686.171 1098235
3 686.171 1087911
3 686.171 1087112
3 686.171 1083354
3 686.171 1070942
3 686.171 1054059
3 686.171 1039933
3 686.171 1036987
3 686.675 1023493
3 687.318 1019818
3 687.318 1008277
3 687.318 1007284
3 687.318 1000121
3 687.318 985970
3 687.318 972880
3 688.88 964866
3 696.282 963715
3 696.282 957173
3 696.792 956932
3 700.124 1045209
3 700.124 1038435
3 700.124 1036841
3 700.124 1024564
3 700.124 1023763
3 700.124 1018433
3 700.124 1006839
3 700.124 1003656
3 700.73 995559
3 700.73 973217
3 701.712 971372
3 701.712 967875
3 701.712 961678
3 701.712 961198
3 701.712 954510
3 702.087 953100
3 702.087 946903
3 702.087 943969
3 702.087 930610
3 714.036 1029309
3 714.036 993718
3 714.036 980542
3 714.036 978589
3 714.036 976324
3 714.036 972080
3 714.427 969134
3 714.732 959036
3 714.732 950587
3 714.732 946661
3 714.732 935067
3 714.732 933482
3 715.141 932215
3 715.141 931777
3 715.987 931565
3 716.47 931095
3 716.47 925576
3 716.999 923063
3 728.209 1066910
3 728.209 1066109
3 728.209 1056749
3 728.209 1005427
3 728.209 981375
3 728.209 975564
3 728.619 975219
3 728.619 974755
3 729.32 964290
3 729.32 960750
3 729.32 959949
3 729.32 959222
3 729.769 959173
3 730.066 957842
3 730.066 955260
3 730.066 951910
3 730.066 950159
3 732.178 947577
3 734.757 944726
3 734.757 940803
3 742.139 1165583
3 742.139 1137019
3 742.139 1106912
3 742.139 1081462
3 742.139 1081170
3 742.139 1069576
3 742.619 1050525
3 742.619 1036001
3 742.619 1027810
3 742.619 988100
3 742.619 987734
3 742.619 985433
3 742.619 985302
3 743.004 975557
3 743.317 972931
3 743.317 970918
3 743.317 967897
3 743.317 967510
3 743.317 966265
3 743.681 966243
3 743.681 959242
3 743.681 958302
3 743.681 956670
3 743.681 954620
3 748.113 951694
3 749.069 950473
3 756.108 1076388
3 756.108 1072721
3 756.108 1067505
3 756.108 1063238
3 756.108 1045206
3 756.108 1026420
3 756.108 1016750
3 756.108 1014414
3 756.108 1010081
3 756.736 1003884
3 756.736 998813
3 756.736 985445
3 757.267 982162
3 757.267 979137
3 757.599 978336
3 757.599 977069
3 758.768 976205
3 758.768 971004
3 758.768 966745
3 759.393 963895
3 759.974 961632
3 759.974 959562
3 759.974 959147
3 760.284 957587
3 770.014 972305
3 770.014 955210
3 770.014 940538
3 770.014 937476
3 770.38 933682
3 770.666 924722
3 770.666 923903
3 770.666 923102
3 772.016 922314
3 772.494 921740
3 772.968 921396
3 784.175 1089423
3 784.175 1077829
3 784.175 1057667
3 784.175 1033099
3 784.175 1029103
3 784.175 990307
3 784.175 978500
3 784.175 978038
3 784.562 976562
3 784.562 971264
3 784.562 968628
3 784.562 967350
3 784.562 966931
3 784.886 962590
3 784.886 961054
3 784.886 959788
3 785.392 957548
3 785.392 952790
3 785.392 948457
3 785.392 939097
3 785.392 938047
3 785.392 932528
3 790.491 928275
3 790.491 925821
3 791.02 923692
3 798.21 1096402
3 798.21 1060811
3 798.21 1048135
3 798.21 1041361
3 798.21 1039031
3 798.21 1031582
3 798.21 1021258
3 798.21 999601
3 798.666 999114
3 798.982 992772
3 798.982 989071
3 800.819 986070
3 800.819 984553
3 800.819 963056
3 801.196 960181
3 801.496 959749
3 801.796 953552
3 812.171 1172881
3 812.171 1142209
3 812.171 1131885
3 812.171 1077389
3 812.171 1074079
3 812.171 1052422
3 812.171 1046365
3 812.171 1044247
3 812.171 1043296
3 812.171 1042029
3 812.171 1010334
3 812.171 1009042
3 812.171 1003437
3 812.622 1002140
3 812.622 972372
3 812.622 966337
3 812.622 949332
3 812.622 943152
3 812.622 931898
3 812.622 930069
3 813.345 927350
3 813.835 926537
3 813.835 921018
3 814.757 920662
3 826.2 1070845
3 826.2 1039908
3 826.2 1027738
3 826.2 1027325
3 826.2 1011296
3 826.2 1004522
3 826.2 1003235
3 826.759 995029
3 826.759 977530
3 826.759 972560
3 827.153 971234
3 828.347 971065
3 828.347 966754
3 828.347 965713
3 828.347 959589
3 828.894 951704
3 828.894 950903
3 840.133 1046574
3 840.133 1028078
3 840.133 1022083
3 840.133 1011749
3 840.133 954363
3 840.133 949927
3 840.133 948619
3 840.133 944708
3 840.726 944530
3 840.726 943527
3 841.033 940589
3 841.033 939949
3 841.351 935042
3 841.923 932313
3 841.923 924202
3 843.189 922031
3 854.118 1066410
3 854.118 1064138
3 854.118 1041572
3 854.118 1028198
3 854.118 1009412
3 854.589 1001478
3 854.589 1000087
3 855.324 998565
3 855.324 997900
3 855.324 994906
3 855.87 993355
3 855.87 986581
3 855.87 985474
3 855.87 983484
3 855.87 979151
3 857.423 974856
3 857.423 973384
3 859.364 969905
3 859.364 966372
3 859.364 966147
3 859.364 957829
3 859.863 953683
3 859.863 950867
3 859.863 947505
3 868.356 984630
3 868.356 974890
3 868.356 973802
3 868.356 967547
3 868.949 959613
3 871.934 956488
3 872.432 953631
3 872.432 950966
3 872.941 948958
3 872.941 948020
3 872.941 947376
3 873.942 947344
1 881.969 937597
3 882.288 1048086
3 882.288 1041598
3 882.288 1038892
3 882.288 1022113
3 882.288 1008745
3 882.288 1002696
3 882.288 987158
3 882.288 980090
3 882.669 977812
3 882.669 970299
3 882.669 961829
3 882.669 958622
3 882.669 958375
3 882.669 953494
3 883.014 947632
3 883.014 943535
3 883.014 942470
3 883.493 940817
3 896.24 1026422
3 896.24 998761
3 896.24 996333
3 896.24 988594
3 896.24 984969
3 896.24 978195
3 896.24 975580
3 896.24 969914
3 896.24 952529
3 896.24 952303
3 896.687 947728
3 896.687 946874
3 896.687 941473
3 896.687 935658
3 896.687 929303
3 897.038 925538
3 897.038 924491
3 897.628 922954
3 910.129 1030928
3 910.129 1015390
3 910.129 996604
3 910.129 991662
3 910.129 989697
3 910.129 985364
3 910.129 980819
3 911.062 974824
3 911.062 974538
3 911.062 966890
3 912.066 960144
3 912.066 958290
3 912.066 954771
3 912.583 954626
3 912.583 953097
3 913.068 950392
3 916.312 950293
3 918.868 947374
3 919.16 946837
3 924.187 1012732
3 924.187 1009305
3 924.187 1007140
3 924.187 1002664
3 924.187 1001926
3 924.187 1000784
3 924.187 996871
3 924.187 996451
3 924.596 996077
3 924.596 995191
3 924.596 978891
3 924.979 965406
3 924.979 963746
3 924.979 962787
3 925.316 958718
3 925.917 956180
3 925.917 951809
3 925.917 950857
3 926.955 950058
3 927.489 948791
3 927.489 947229
3 927.489 944244
3 928.016 944151
3 928.538 943350
3 929.094 942447
3 929.639 938689
3 929.639 932537
3 938.013 1078498
3 938.013 1059712
3 938.013 1058696
3 938.013 1028293
3 938.013 1014995
3 938.013 1012362
3 938.013 1008914
3 938.013 1008029
3 938.651 1006858
3 938.651 1004490
3 938.651 996534
3 938.651 988012
3 939.186 987851
3 939.186 981054
3 939.186 973340
3 939.697 956126
3 939.697 954897
3 940.219 954859
3 940.713 949340
3 942.488 942652
3 952.098 1156994
3 952.098 1126057
3 952.098 1095950
3 952.098 1088053
3 952.098 1080658
3 952.098 1055120
3 952.098 1047698
3 952.098 1007536
3 952.098 999679
3 952.098 995010
3 952.51 994209
3 952.51 989692
3 952.51 988034
3 952.826 973340
3 952.826 965114
3 953.13 961470
3 953.13 957478
3 953.13 956472
3 953.45 954583
3 953.735 950275
3 966.029 1016823
3 966.029 1015728
3 966.029 1013591
3 966.029 1009531
3 966.029 993993
3 966.029 979949
3 966.029 979368
3 966.461 979148
3 966.461 973042
3 966.461 966268
3 966.461 952262
3 966.461 951461
3 966.461 943485
3 966.461 938925
3 966.931 938124
3 966.931 936445
3 967.44 931206
3 967.927 930190
3 971.919 927664
3 974.513 927580
3 977.766 925058
3 979.911 924880
3 980.212 1066435
3 980.212 1054790
3 980.212 1028991
3 980.212 999778
3 980.212 998625
3 980.212 991851
3 980.212 983137
3 980.808 981410
3 980.808 979379
3 981.321 975046
3 981.812 974734
3 981.812 967366
3 981.812 966568
3 981.812 966314
3 982.344 964657
3 982.344 964157
3 982.344 960655
3 982.344 960547
3 982.344 960293
3 983.367 956535
3 984.98 954502
3 984.98 945020
3 985.286 944520
3 994.289 1162496
3 994.289 1144803
3 994.289 1126719
3 994.289 1119945
3 994.289 1111756
3 994.289 1076788
3 994.289 1055131
3 994.289 1035157
3 994.289 1027223
3 995.044 1022055
3 995.044 1021893
3 995.044 1017245
3 995.044 1012670
3 995.044 1008581
3 995.714 1000712
3 995.714 998964
3 995.714 995046
3 995.714 980789
3 996.06 963828
3 996.06 959141
3 996.06 951209
3 996.06 945875
3 996.06 944490
3 996.06 943490
3 996.453 942271
3 996.788 934711
3 997.069 934359
3 997.344 932867
3 997.344 932655
3 1001.95 932493
3 1008.35 1134254
3 1008.35 1111240
3 1008.35 1091078
3 1008.35 1060406
3 1008.35 1043519
3 1008.35 1041620
3 1008.35 1040819
3 1008.35 1038113
3 1008.35 1031920
3 1008.35 1030473
3 1008.35 1028838
3 1008.35 1021077
3 1008.35 1021031
3 1008.35 1019666
3 1009.03 1004994
3 1009.03 998797
3 1009.03 992186
3 1009.42 987816
3 1009.42 981862
3 1009.42 973340
3 1009.96 969611
3 1009.96 965807
3 1009.96 964540
3 1010.46 960682
3 1010.46 960250
3 1010.46 958361
3 1011.01 954583
3 1011.63 951076
3 1011.63 950275
3 1022.16 1045429
3 1022.16 1042483
3 1022.16 1042126
3 1022.16 1040824
3 1022.16 1032885
3 1022.16 1020616
3 1022.16 1012230
3 1022.76 1003709
3 1022.76 996541
3 1022.76 992208
3 1022.76 982052
3 1022.76 981760
3 1022.76 980959
3 1022.76 967178
3 1022.76 966019
3 1022.76 957766
3 1024.71 956595
3 1025.07 954847
3 1025.07 948073
3 1036.35 1012723
3 1036.35 995019
3 1036.35 984466
3 1036.35 975549
3 1036.35 967356
3 1036.35 967128
3 1036.35 963820
3 1037.44 955262
3 1037.44 953082
3 1037.44 952403
3 1037.99 950929
3 1038.5 948749
3 1039.49 942146
3 1039.49 938388
3 1045.1 935728
3 1045.1 932440
3 1045.1 931352
3 1045.42 930361
3 1045.42 921298
3 1045.72 918915
3 1046.35 918779
3 1046.97 917896
3 1050.14 1045000
3 1050.14 1011562
3 1050.14 1003628
3 1050.14 1001867
3 1050.14 994996
3 1050.14 992477
3 1050.14 978954
3 1050.14 964622
3 1050.14 958276
3 1050.14 956568
3 1050.65 954858
3 1050.99 948684
3 1050.99 948356
3 1051.29 947555
3 1051.29 945965
3 1051.87 943605
3 1052.15 940038
3 1064.05 1093711
3 1064.05 1072054
3 1064.05 1067306
3 1064.05 1047860
3 1064.05 1044589
3 1064.05 1010714
3 1064.05 999235
3 1064.05 998220
3 1064.05 997419
3 1064.65 985836
3 1064.65 974582
3 1064.65 973315
3 1064.65 961828
3 1066.13 960477
3 1066.62 959210
3 1067.76 958423
3 1069.23 955631
3 1078.13 1077015
3 1078.13 1073860
3 1078.13 1055367
3 1078.13 1026803
3 1078.13 1018640
3 1078.13 1012131
3 1078.13 1005970
3 1078.56 1005444
3 1078.87 1004581
3 1078.87 993189
3 1078.87 979870
3 1078.87 968225
3 1078.87 967734
3 1079.36 967617
3 1079.68 966754
3 1079.68 964318
3 1080.01 962652
3 1080.32 957965
3 1080.32 956698
3 1080.65 955409
3 1092.11 1035688
3 1092.11 1035642
3 1092.11 1032130
3 1092.11 1027436
3 1092.11 1012208
3 1092.11 1008450
3 1092.11 1008444
3 1092.11 1005776
3 1092.11 1002855
3 1092.75 1001588
3 1092.75 991809
3 1093.27 989009
3 1093.27 984784
3 1093.27 972003
3 1093.27 959127
3 1093.27 951193
3 1093.82 950200
3 1093.82 949428
3 1093.82 948404
3 1093.82 947137
3 1098.58 941265
3 1098.58 938473
3 1106.29 1002215
3 1106.29 990488
3 1106.29 980348
3 1106.29 974854
3 1106.29 967513
3 1106.29 966920
3 1106.29 965866
3 1106.65 965316
3 1106.65 949272
3 1106.95 946980
3 1106.95 938727
3 1107.28 938700
1 1107.57 938585
3 1107.57 934905
3 1107.86 934394
3 1108.13 934376
3 1108.13 933246
3 1108.42 928982
3 1108.42 925312
3 1108.77 923813
3 1120.15 1067347
3 1120.15 1064039
3 1120.15 1047859
3 1120.15 1031314
3 1120.15 1026981
3 1120.15 1016742
3 1120.15 1008803
3 1120.15 1006799
3 1120.15 990810
3 1120.15 988266
3 1120.86 982657
3 1120.86 977138
3 1120.86 974657
3 1120.86 966459
3 1121.25 964770
3 1121.25 962179
3 1121.25 943393
3 1121.63 939787
3 1134.1 1100496
3 1134.1 1053003
3 1134.1 1004746
3 1134.1 988582
3 1134.1 981323
3 1134.1 969678
3 1134.66 964159
3 1134.66 961919
3 1134.66 961118
3 1135.87 960906
3 1136.18 956278
3 1136.18 955666
3 1136.5 953639
3 1136.78 947944
3 1136.78 947856
3 1137.16 943309
3 1137.73 942130
3 1148.23 1099766
3 1148.23 1095454
3 1148.23 1094653
3 1148.23 1076402
3 1148.23 1041434
3 1148.23 1035237
3 1148.23 1028293
3 1148.23 1020657
3 1148.71 1019444
3 1148.71 1015895
3 1148.71 1014628
3 1148.71 1007504
3 1148.71 1001650
3 1149.04 1001307
3 1149.04 999248
3 1149.04 989469
3 1149.34 988370
3 1149.34 976776
3 1150.28 972627
3 1150.28 969443
3 1150.87 968176
3 1151.41 965795
3 1151.69 962964
3 1152.01 959598
3 1152.01 958797
3 1154.25 958638
3 1154.58 958394
3 1155.45 955160
3 1155.45 950295
3 1155.45 944805
3 1155.78 943607
3 1156.07 940458
3 1156.37 933770
3 1156.37 932024
3 1162.31 1008861
3 1162.31 986185
3 1162.31 974036
3 1162.31 966137
3 1162.31 965756
3 1162.77 952975
3 1162.77 937809
3 1162.77 936542
3 1163.43 935532
3 1166.36 930160
3 1166.36 926824
3 1166.69 926636
3 1167.35 926164
3 1167.63 924897
3 1176.1 1104847
3 1176.1 1098760
3 1176.1 1097847
3 1176.1 1087523
3 1176.1 1087166
3 1176.1 1084536
3 1176.1 1034536
3 1176.1 1026525
3 1176.1 1003527
3 1176.53 1002050
3 1176.87 999916
3 1176.87 994984
3 1176.87 992334
3 1176.87 986815
3 1176.87 986596
3 1176.87 984071
3 1177.44 982482
3 1178.9 969406
3 1179.67 968235
3 1181.16 966487
3 1181.16 960210
3 1181.79 959713
3 1188.19 957624
3 1188.19 951427
3 1188.19 951402
3 1190.2 1129375
3 1190.2 1122687
3 1190.2 1091454
3 1190.2 1085935
3 1190.2 1075246
3 1190.2 1071488
3 1190.2 1068334
3 1190.59 1050514
3 1190.59 1050452
3 1190.59 1029749
3 1190.59 1019403
3 1190.59 1011469
3 1190.59 1011005
3 1190.59 1010654
3 1190.59 1004528
3 1190.59 1003191
3 1190.96 1000814
3 1190.96 995532
3 1190.96 992066
3 1190.96 990013
3 1190.96 985680
3 1190.96 980420
3 1190.96 976662
3 1190.96 975305
3 1190.96 973194
3 1191.37 963823
3 1191.37 963022
3 1191.37 962827
3 1191.67 959420
3 1191.67 957726
3 1191.67 955361
3 1191.99 954384
3 1191.99 954359
3 1191.99 945620
3 1191.99 943049
3 1191.99 942248
3 1193.91 940359
3 1193.91 939049
3 1204.32 1126581
3 1204.32 1119001
3 1204.32 1102053
3 1204.32 1057641
3 1204.32 1042175
3 1204.32 1042086
3 1204.32 1033286
3 1204.32 1028953
3 1204.94 1027142
3 1204.94 1025776
3 1204.94 1024975
3 1204.94 1020144
3 1204.94 1010303
3 1204.94 1002369
3 1204.94 997425
3 1205.38 993092
3 1205.38 989113
3 1205.38 984610
3 1205.38 980852
3 1205.7 978475
3 1205.7 974655
3 1210.44 971799
3 1211.05 970532
3 1218.24 1063052
3 1218.24 1031824
3 1218.24 1031733
3 1218.24 1027279
3 1218.24 1009397
3 1218.24 1005719
3 1218.24 1004452
3 1218.24 978552
3 1218.24 977689
3 1218.24 975246
3 1218.24 968651
3 1218.78 959461
3 1218.78 950934
3 1219.28 950133
3 1222.64 949151
3 1224.92 948850
3 1225.78 948535
3 1226.07 947081
3 1226.07 943761
3 1228.87 942874
3 1232.22 1009570
3 1232.22 1005700
3 1232.22 983189
3 1232.22 975778
3 1232.22 974911
3 1232.22 973569
3 1232.22 972656
3 1232.22 962874
3 1232.84 955196
3 1233.32 952006
3 1234.75 951769
3 1234.75 936893
3 1234.75 933135
3 1234.75 926010
3 1246.12 1184536
3 1246.12 1176015
3 1246.12 1143023
3 1246.12 1117562
3 1246.12 1099486
3 1246.12 1091233
3 1246.12 1061445
3 1246.12 1054757
3 1246.12 1052051
3 1246.12 1032826
3 1246.12 1019750
3 1246.12 1009485
3 1246.12 1006492
3 1246.12 999833
3 1246.12 997971
3 1246.86 992750
3 1246.86 991878
3 1246.86 971093
3 1246.86 970088
3 1246.86 962900
3 1246.86 961729
3 1247.43 961598
3 1247.43 959560
3 1248.38 948392
3 1248.38 947593
3 1248.68 942507
3 1248.95 940347
3 1249.23 939659
3 1249.51 939444
3 1249.85 937676
3 1250.19 936988
3 1252.99 932997
3 1255.3 932529
3 1256.92 932085
3 1260.34 1033754
3 1260.34 1011353
3 1260.34 1009128
3 1260.34 1008327
3 1260.34 997457
3 1260.34 996281
3 1260.34 990391
3 1260.96 973874
3 1260.96 964730
3 1260.96 963463
3 1261.5 960699
3 1261.5 958999
3 1261.5 953515
3 1261.5 952306
3 1261.5 951622
3 1261.5 944342
3 1262.08 943326
3 1262.08 941858
3 1262.08 941662
3 1262.6 940995
3 1274.14 1038630
3 1274.14 1034669
3 1274.14 1029899
3 1274.14 1021764
3 1274.14 1013396
3 1274.14 1011107
3 1274.14 1010187
3 1274.14 990276
3 1274.14 982959
3 1274.14 981912
3 1274.59 979872
3 1274.59 978172
3 1274.59 976992
3 1274.59 976560
3 1275.99 975449
3 1275.99 961647
3 1275.99 960588
3 1276.85 959349
3 1276.85 958082
3 1276.85 947296
3 1277.17 941334
3 1277.17 940425
3 1277.47 939624
3 1278.62 939581
3 1280.17 933452
3 1288.25 1071968
3 1288.25 1060374
3 1288.25 1060322
3 1288.25 1056493
3 1288.25 1025484
3 1288.25 1015781
3 1288.25 1003920
3 1288.25 992749
3 1288.25 983534
3 1288.25 972434
3 1288.25 960089
3 1288.25 950365
3 1288.92 945903
3 1288.92 938489
3 1289.41 938131
3 1289.41 937222
3 1289.76 931733
3 1290.04 931703
3 1293.48 927593
3 1293.95 922789
3 1297.09 922343
3 1302.45 1086226
3 1302.45 1063825
3 1302.45 1034187
3 1302.45 1032463
3 1302.45 1014770
3 1302.45 1010437
3 1302.45 1008463
1 1302.45 990384
3 1302.45 989734
3 1302.45 988293
3 1302.94 978115
3 1302.94 966521
3 1302.94 958716
3 1303.8 952456
3 1303.8 950467
3 1316.25 1033923
3 1316.25 1021906
3 1316.25 1021654
3 1316.25 1011818
3 1316.25 1002868
3 1316.25 998787
3 1316.25 993195
3 1316.25 992513
3 1316.25 985682
3 1317.4 982758
3 1317.9 980163
3 1319.38 973847
3 1319.38 973605
3 1319.38 973039
3 1319.38 963285
3 1319.93 953535
3 1319.93 953506
3 1319.93 950754
3 1327.29 946960
3 1328.46 942232
3 1330.03 1114341
3 1330.03 1099236
3 1330.03 1081354
3 1330.03 1079723
3 1330.03 1061206
3 1330.03 1042836
3 1330.03 1031375
3 1330.03 1030246
3 1330.03 1022422
3 1330.44 1012729
3 1330.44 1012637
3 1330.44 1007118
3 1330.44 1001135
3 1330.79 989944
3 1331.35 988340
3 1331.35 986733
3 1331.35 977839
3 1331.35 976695
3 1331.68 972571
3 1332.54 968434
1 1332.54 959425
3 1332.54 944668
3 1332.54 942962
3 1333.43 942864
3 1335.61 941458
3 1337.46 939884
3 1344.29 1046642
3 1344.29 1011752
3 1344.29 1011666
3 1344.83 1010495
3 1344.83 1010058
3 1344.83 1004670
3 1344.83 1003162
3 1344.83 999854
1 1344.83 999823
3 1345.46 991355
3 1345.46 989537
3 1345.46 983102
3 1345.46 977376
3 1345.46 957134
3 1346.01 953376
3 1346.96 949290
3 1346.96 947055
3 1346.96 946563
3 1347.42 944957
3 1358.27 998974
3 1358.27 989195
3 1358.27 979038
3 1358.27 978803
3 1358.27 972758
3 1358.27 970143
3 1358.27 966327
3 1358.27 964930
3 1358.75 961564
3 1358.75 960115
3 1358.75 957834
3 1358.75 957488
3 1358.75 956221
3 1359.14 939843
3 1359.14 936117
3 1359.58 932696
3 1359.58 930880
3 1371.58 928906
3 1371.58 922333
3 1372.01 1057568
3 1372.01 1056492
3 1372.01 1053235
3 1372.01 1053036
3 1372.01 1033093
3 1372.01 1027875
3 1372.38 1021678
3 1372.38 1020824
3 1372.68 1011485
3 1372.68 981776
3 1372.68 979491
3 1373 975832
3 1373 969504
3 1373 962136
3 1373.33 960719
3 1373.33 957859
3 1373.92 948472
3 1373.92 947740
3 1376.25 945984
3 1376.76 942221
3 1386.34 1001089
3 1386.34 998761
3 1386.34 983265
3 1386.34 978590
3 1386.34 977727
3 1386.34 973942
3 1386.82 973083
3 1386.82 963741
3 1386.82 962149
3 1387.19 961463
3 1387.19 961331
3 1387.48 960588
3 1387.48 960522
3 1387.48 959721
3 1387.84 955027
3 1387.84 954951
3 1388.19 954265
3 1388.5 954192
3 1388.5 951805
3 1388.5 949298
3 1388.81 948227
3 1388.81 945702
3 1389.37 943069
3 1389.37 942708
3 1389.37 942040
3 1400.2 1025019
3 1400.2 1024218
3 1400.2 1005377
3 1400.2 1003740
3 1400.2 995026
3 1400.2 991268
3 1400.2 979623
3 1400.65 976982
3 1400.65 975894
3 1400.65 963625
3 1400.99 960225
3 1400.99 955336
3 1401.3 954535
3 1401.59 951222
3 1401.59 947904
3 1401.59 947892
3 1401.59 947545
3 1414.49 1151615
3 1414.49 1128931
3 1414.49 1108751
3 1414.49 1099579
3 1414.49 1088397
3 1414.49 1080941
3 1414.49 1068428
3 1414.49 1062231
3 1414.49 1046439
3 1414.49 1043109
3 1414.49 1041987
3 1415.28 1017595
3 1415.28 1014945
3 1415.28 1011822
3 1415.28 1009537
3 1415.28 1006463
3 1415.28 977061
3 1415.28 974714
3 1415.85 965059
3 1415.85 956050
3 1416.35 951402
1 1418.85 949512
3 1419.2 948570
3 1419.2 946945
3 1419.77 944027
3 1420.28 943293
3 1420.28 942612
3 1428.41 1086527
3 1428.41 1081982
3 1428.41 1068834
3 1428.41 1068033
3 1428.41 1054061
3 1428.41 1039389
3 1428.41 1033331
3 1428.41 1026799
3 1428.41 1023588
3 1428.41 1008773
3 1428.41 1005230
3 1429.54 993902
3 1429.54 993591
3 1429.54 986817
3 1429.54 986310
3 1429.54 985135
3 1429.54 980802
3 1430.33 977802
3 1430.33 972866
3 1430.33 971605
3 1430.33 970804
3 1430.33 968533
3 1431.96 964620
3 1431.96 963819
3 1433.9 956571
3 1433.9 952238
3 1434.61 949147
3 1442.15 1112123
3 1442.15 1105473
3 1442.15 1055045
3 1442.15 1044002
3 1442.15 1008589
3 1442.15 1006173
3 1442.15 1002683
3 1442.15 993256
3 1442.79 986116
3 1442.79 983698
3 1442.79 981772
3 1442.79 980940
3 1443.35 976170
3 1443.85 975141
3 1444.35 974317
3 1444.35 969771
3 1444.87 967739
3 1444.87 959348
3 1444.87 957960
3 1447.84 951914
3 1447.84 947783
3 1448.37 947014
3 1448.37 941902
3 1448.37 937235
3 1448.88 936533
3 1449.35 930336
3 1456.23 1066190
3 1456.23 1047882
3 1456.23 1037215
3 1456.23 1031696
3 1456.23 1027363
3 1456.23 1025407
3 1456.81 1024236
3 1456.81 1013912
3 1456.81 1007796
3 1456.81 999512
3 1456.81 992551
3 1456.81 982049
3 1456.81 981444
3 1457.42 980467
3 1457.42 976741
3 1457.42 974270
3 1457.95 969799
3 1457.95 959598
3 1458.5 958797
3 1460.59 958600
3 1460.9 957185
3 1460.9 950295
3 1460.9 950261
3 1461.29 946072
3 1461.29 943607
3 1461.91 942939
3 1461.91 941916
3 1464.31 939024
3 1464.31 938810
3 1464.31 937543
3 1464.63 937099
3 1464.63 932922
3 1464.95 932524
3 1466.41 932121
3 1466.41 929787
3 1470.17 1063579
3 1470.17 1045030
3 1470.17 1033527
3 1470.17 1025375
3 1470.17 1012717
3 1470.17 998589
3 1470.17 998543
3 1470.17 986798
3 1470.17 976919
3 1470.17 976500
3 1470.17 961828
3 1470.82 955631
3 1475.49 946271
3 1477.39 945554
3 1484.27 1122141
3 1484.27 1070819
3 1484.27 1058850
3 1484.27 1051037
3 1484.27 1050236
3 1484.27 1041715
3 1484.27 1029189
3 1484.27 1012913
3 1484.77 1011895
3 1484.77 1002901
3 1484.77 992535
1 1484.77 984432
3 1484.77 973312
3 1484.77 962988
3 1485.22 960911
3 1485.54 954656
3 1485.54 952951
3 1485.86 951556
3 1485.86 944798
3 1485.86 944566
3 1486.21 943126
3 1486.52 942892
3 1486.82 942327
1 1488.09 936233
3 1488.09 934217
3 1488.59 933750
3 1488.59 932743
3 1488.59 931942
3 1498.2 1005172
3 1498.2 992922
3 1498.2 983638
3 1498.2 978257
3 1498.2 978195
3 1498.2 969919
3 1498.2 960370
3 1498.82 959555
3 1498.82 954754
3 1498.82 945130
3 1499.35 944047
3 1499.35 939615
3 1499.35 931412
3 1499.35 930665
3 1499.89 930102
3 1500.38 929089
3 1500.38 923976
3 1500.38 923138
3 1500.38 923102
3 1500.91 922680
3 1501.38 922672
3 1501.87 921871
3 1503.7 918951
3 1503.99 916566
3 1512.12 983746
3 1512.12 981955
3 1512.12 964073
3 1512.12 963285
3 1512.12 960345
3 1513.65 957134
3 1513.65 956333
3 1514.15 952421
3 1515.07 952333
3 1516.58 951534
3 1517.73 944523
3 1517.73 940541
3 1518.06 937749
3 1526.12 1082534
3 1526.12 1062372
3 1526.12 1024406
3 1526.12 1016472
3 1526.12 1015878
3 1526.12 1006693
3 1526.12 1005830
3 1526.74 1004561
3 1526.74 1000172
3 1526.74 999042
3 1526.74 992354
3 1526.74 992331
3 1526.74 990858
3 1526.74 990057
3 1527.1 978528
3 1527.1 975975
3 1527.1 967872
3 1527.41 967680
3 1527.41 967265
3 1527.41 962513
3 1527.41 962406
3 1527.41 958648
3 1527.76 956142
3 1527.76 954875
3 1528.15 943083
3 1528.66 941038
3 1528.66 937502
3 1528.66 934490
3 1529.1 932215
3 1529.1 931214
3 1529.63 929412
3 1540.44 1055422
3 1540.44 1049829
3 1540.44 1040902
3 1540.44 1040851
3 1540.44 1040052
3 1540.44 1035289
3 1540.44 1018771
3 1540.44 992653
3 1540.44 984719
3 1540.44 968622
3 1540.44 960665
3 1541.1 954468
3 1541.1 953667
3 1541.65 952790
3 1541.97 952189
3 1542.27 949231
3 1542.27 947298
3 1542.27 942965
3 1542.27 942579
3 1542.68 940332
3 1542.68 939522
3 1542.68 939493
3 1544.2 932070
3 1544.95 931269
3 1554.4 1024942
3 1554.4 1012342
3 1554.4 1007136
3 1554.4 995986
3 1554.4 977571
3 1554.4 975803
3 1554.4 969372
3 1554.4 967792
3 1554.4 957100
3 1555.08 957009
3 1555.08 949388
3 1555.08 945971
3 1555.62 944740
3 1556.14 944218
3 1557.08 935048
3 1557.08 933781
3 1558.59 933592
3 1559.08 933388
3 1563.45 930152
3 1563.93 926700
3 1568.34 1033175
3 1568.34 1024922
3 1568.34 1024121
3 1568.34 1023893
3 1568.34 1018806
3 1568.34 1001157
3 1568.34 1000665
3 1568.34 996907
3 1568.34 993425
3 1568.34 989188
3 1568.98 977152
3 1568.98 967373
3 1569.48 960599
3 1572.81 950275
1 1575.53 945940
3 1576.03 945915
3 1582.26 989723
3 1582.26 968616
3 1582.26 967307
3 1582.26 958181
3 1582.26 953939
3 1582.6 949335
3 1582.6 934817
3 1596.39 1115089
3 1596.39 1102308
3 1596.39 1051428
3 1596.39 1047357
3 1596.39 1039161
3 1596.39 1008489
3 1596.39 1002933
3 1596.39 977848
3 1596.39 975874
3 1597.04 971743
3 1597.04 971299
3 1597.04 964421
3 1597.04 963905
3 1597.62 960663
3 1597.62 960371
3 1597.62 959654
3 1598.24 959469
3 1600.17 958174
3 1600.17 950640
3 1609.4 939492
3 1609.4 939307
3 1610.4 997378
3 1610.4 996420
3 1610.4 992931
3 1610.4 986157
3 1610.4 980413
3 1610.4 976645
3 1610.4 974815
3 1610.4 966067
3 1611.01 964021
3 1611.01 959893
3 1611.52 957966
3 1611.52 952368
3 1611.52 951101
3 1615.23 951038
3 1615.23 936486
3 1615.23 933345
3 1624.33 1010111
3 1624.33 1005778
3 1624.33 1004851
3 1624.86 1003965
3 1624.86 1003958
3 1624.86 1001481
3 1624.86 992788
3 1624.86 980762
3 1625.42 980617
3 1625.42 978714
3 1625.42 976267
3 1625.42 974482
3 1625.95 973851
3 1625.95 971229
1 1626.45 970116
3 1626.45 966358
3 1626.45 952815
3 1626.45 948761
3 1628.39 945959
3 1629.1 939185
3 1629.1 934683
3 1629.46 933437
3 1629.46 927918
3 1629.46 927803
3 1630.4 927347
3 1638.35 1024081
3 1638.35 1019490
3 1638.35 1003289
3 1638.35 991644
3 1638.35 987338
3 1638.35 984600
3 1639 964438
3 1639 960068
3 1639 955496
3 1639 955442
3 1639 954419
3 1639 953925
3 1640.05 951620
3 1641 949483
3 1642.42 946218
3 1642.42 945355
3 1642.42 942357
3 1642.94 941090
1 1650.51 932174
3 1652.47 1043645
3 1652.47 1034666
3 1652.47 1017009
3 1652.47 1014504
3 1652.47 1002912
3 1652.47 997643
3 1652.47 993885
3 1652.92 990273
3 1652.92 979890
3 1652.92 966304
3 1652.92 961971
3 1652.92 960137
3 1652.92 956250
3 1653.28 953216
3 1653.28 951102
3 1653.75 947551
3 1653.75 945720
3 1653.75 944880
3 1654.74 944289
3 1654.74 943613
3 1655.15 939506
3 1655.15 936925
3 1666.05 1130279
3 1666.05 1129478
3 1666.05 1123696
3 1666.05 1092759
3 1666.05 1077361
3 1666.05 1067869
3 1666.05 1051811
3 1666.05 1046767
3 1666.05 1042331
3 1666.05 1026217
3 1666.05 1005427
3 1666.05 999915
3 1666.05 992646
3 1666.73 964947
3 1666.73 962343
3 1667.26 961895
3 1667.26 956472
3 1667.72 954511
3 1667.72 950275
3 1680.37 1074170
3 1680.37 1070751
3 1680.37 1041579
3 1680.37 1027542
3 1680.37 1023094
3 1680.37 1014841
3 1680.37 1007521
3 1680.37 978349
3 1680.37 974998
3 1680.37 967358
3 1681.05 961161
3 1681.05 960867
3 1681.44 952203
3 1682.31 950754
3 1684.97 950076
3 1684.97 949735
3 1684.97 949678
3 1685.48 948169
3 1694.25 1092993
3 1694.25 1089210
3 1694.25 1078496
3 1694.25 1074283
3 1694.25 1062638
3 1694.25 1059215
3 1694.25 1058414
3 1694.25 1039628
3 1694.25 1036388
3 1694.25 1022359
3 1694.25 1007289
3 1694.25 1006022
3 1694.68 983621
3 1694.68 979876
3 1695.02 975059
3 1695.61 974464
3 1695.61 960373
3 1695.95 960034
3 1695.95 959925
3 1695.95 954406
3 1695.95 953161
3 1696.29 948832
3 1697.16 941598
3 1697.16 938955
3 1708.34 1053550
3 1708.34 1044559
3 1708.34 1008632
3 1708.34 1005208
3 1708.34 1003665
3 1708.34 975574
3 1708.93 974044
3 1708.93 970627
3 1708.93 967116
3 1708.93 963737
3 1709.46 954547
3 1709.46 954240
3 1709.97 953865
3 1709.97 950880
3 1709.97 949068
3 1709.97 942871
3 1710.53 942692
3 1710.53 941790
3 1710.53 937960
3 1711.05 937781
3 1711.05 932590
3 1711.05 924295
3 1712.1 920787
3 1722.35 995379
3 1722.35 991346
3 1722.35 989675
3 1722.35 984921
3 1722.35 982767
3 1722.35 977308
3 1722.81 973003
3 1722.81 971736
3 1722.81 971626
3 1723.23 967306
3 1723.93 964976
3 1724.43 947456
3 1724.43 946655
3 1724.94 944998
1 1725.42 939665
3 1736.1 1094102
3 1736.1 1087414
3 1736.1 1059970
3 1736.1 1028313
3 1736.1 1020379
3 1736.1 1013487
3 1736.1 993765
3 1736.1 993459
3 1736.1 983462
3 1736.51 980345
3 1736.51 977211
3 1736.51 973657
3 1736.51 969558
3 1736.51 964395
3 1736.51 954458
3 1736.51 950304
3 1736.51 950012
3 1740.48 945034
3 1740.77 943476
3 1741.06 942536
3 1744.69 942082
3 1745.05 937630
3 1750.39 1043568
3 1750.39 1040420
3 1750.39 1038049
3 1750.39 1035418
3 1750.39 1016632
3 1750.39 1002643
3 1750.39 992895
3 1750.39 992793
3 1750.39 987826
3 1751.13 986294
3 1751.13 985449
3 1751.13 985252
3 1751.13 980919
3 1751.13 974722
3 1751.13 965492
3 1751.47 960985
3 1751.47 959542
3 1752.06 958794
3 1752.06 955824
3 1752.06 952612
3 1752.06 952373
3 1752.38 948615
3 1752.38 947587
3 1752.38 945809
3 1752.38 944179
3 1752.38 944172
3 1752.38 942759
3 1752.73 942111
3 1753.01 941829
3 1764.37 1048467
3 1764.37 1045308
3 1764.37 1037834
3 1764.37 1037527
3 1764.37 1029120
3 1764.37 1020754
3 1764.37 1017365
3 1764.37 1007041
3 1764.98 1005774
3 1764.98 1003704
3 1764.98 1002029
3 1764.98 998185
3 1764.98 979850
3 1765.53 973653
3 1765.53 967484
3 1765.53 967393
3 1765.53 960311
3 1766.01 958402
3 1766.01 956682
3 1766.01 955415
3 1766.97 950841
3 1766.97 950697
3 1766.97 949752
3 1768.02 938107
3 1778.8 1109010
3 1778.8 1095151
3 1778.8 1072704
3 1778.8 1064770
3 1778.8 1035374
3 1778.8 1027625
3 1778.8 1022888
3 1778.8 1015968
3 1778.8 1015186
3 1779.5 1014056
3 1779.5 1008738
3 1779.5 1003541
3 1779.5 1003185
3 1780.08 1002411
3 1780.08 972176
3 1780.08 967950
3 1780.08 967246
3 1780.68 966116
3 1780.68 965300
3 1780.68 953809
3 1781.2 950008
3 1781.2 945121
3 1781.73 941734
3 1792.35 1024551
3 1792.35 1010515
3 1792.35 1009248
3 1792.35 988769
3 1792.35 987968
3 1792.35 984927
3 1792.93 979943
3 1792.93 977695
3 1792.93 977293
3 1792.93 971718
3 1792.93 969953
3 1793.49 966195
3 1793.97 963846
3 1793.97 963770
3 1794.96 962245
3 1794.96 962192
3 1794.96 958303
3 1794.96 957036
3 1806.32 1165636
3 1806.32 1134265
3 1806.32 1076324
3 1806.32 1066135
3 1806.32 1060112
3 1806.32 1050203
3 1806.32 1037934
3 1806.32 1028925
3 1806.32 1026348
3 1806.32 1018811
3 1806.32 1012556
3 1806.99 983992
3 1806.99 981046
3 1807.49 968327
3 1808.92 964081
3 1809.39 961695
3 1809.39 955575
3 1809.39 954308
3 1809.39 949533
3 1809.39 948556
3 1809.39 946742
3 1809.39 946407
3 1809.99 945941
3 1809.99 944306
3 1811.72 939493
3 1812.19 938537
3 1813.08 938423
3 1814.91 929450
3 1814.91 927236
3 1820.36 1030069
3 1820.36 1020430
3 1820.36 1018793
3 1820.36 1018495
3 1820.36 981809
3 1820.36 967521
3 1821.46 966213
3 1821.46 964946
3 1821.99 954622
3 1822.51 950657
3 1822.51 950385
3 1822.51 948801
3 1822.51 945800
3 1823.05 944999
3 1823.05 941241
3 1823.58 941214
3 1824.64 940039
3 1834.02 1043420
3 1834.02 1013313
3 1834.02 1011974
3 1834.02 1011915
3 1834.02 980978
3 1834.02 974916
3 1834.02 969397
3 1834.02 963852
3 1834.61 952258
3 1834.61 947650
3 1835.19 941453
3 1837.03 938699
3 1837.03 937898
3 1837.45 936788
3 1837.45 936388
3 1837.45 935121
3 1837.75 934689
3 1837.75 931269
3 1848.18 1052491
3 1848.18 1045728
3 1848.18 1039550
3 1848.18 1035217
3 1848.18 1034107
3 1848.18 1001115
3 1848.79 987197
3 1848.79 983146
3 1849.3 976949
3 1849.3 973987
3 1849.64 972590
3 1850.45 970182
3 1851.05 968810
3 1851.05 963271
3 1851.05 955337
3 1851.58 941594
3 1851.58 941267
3 1862.21 1011513
3 1862.21 1002809
3 1862.21 993818
3 1862.21 992556
3 1862.21 989458
3 1862.21 983939
3 1862.62 971119
3 1862.62 968959
3 1862.62 963254
3 1863.02 960411
3 1863.02 958678
3 1863.48 956480
3 1864.93 956078
3 1865.45 954811
3 1866.96 954509
3 1866.96 951680
3 1876.12 1085067
3 1876.12 1079548
3 1876.12 1078747
3 1876.12 1064490
3 1876.12 1063330
3 1876.12 1055799
3 1876.12 1054628
3 1876.12 1033487
3 1876.12 1032220
3 1876.12 1028840
3 1876.66 1023419
3 1876.66 1015485
3 1876.66 1011152
3 1876.66 1011147
3 1876.66 1009399
3 1876.66 1002625
3 1876.66 1001824
3 1877.09 999130
3 1877.09 995511
3 1877.09 989314
3 1877.62 988513
3 1877.62 983523
3 1877.62 982724
3 1877.62 969698
3 1877.62 967657
3 1877.62 967380
3 1877.62 966694
3 1878.2 963047
3 1878.2 956977
3 1878.2 953723
3 1878.74 953256
3 1878.74 952922
3 1879.06 951402
3 1890.25 1065093
3 1890.25 1056379
3 1890.25 1055236
3 1890.25 1053927
3 1890.25 1025268
3 1890.25 1005106
3 1890.25 1004305
3 1890.88 998174
3 1890.88 991702
3 1890.88 988192
3 1890.88 983768
3 1891.46 975923
3 1891.46 974415
3 1891.46 971216
3 1891.46 970433
3 1893.23 969325
3 1893.69 964329
3 1896.75 956544
1 1898.21 948077
3 1898.21 945956
3 1898.21 940143
3 1898.21 933884
3 1904.39 1032618
3 1904.39 1032426
3 1904.39 1031625
3 1904.39 1025780
3 1904.39 1006694
3 1904.39 1002806
3 1904.39 990975
3 1904.39 985655
3 1904.39 982780
3 1905.03 981240
3 1905.03 971935
3 1905.03 966416
3 1906.18 963841
3 1906.57 963547
3 1906.89 962746
3 1907.19 959786
3 1907.49 955453
3 1907.49 952247
3 1910.27 951453
3 1910.27 950652
3 1910.27 948765
3 1918.1 1062412
3 1918.1 1060076
3 1918.1 1052982
3 1918.1 1027522
3 1918.1 1023771
3 1918.1 1022504
3 1918.1 1017257
3 1918.1 1011951
3 1918.1 1000306
3 1918.74 997970
3 1918.74 992815
3 1918.74 984965
3 1918.74 982884
3 1919.28 974621
3 1919.28 968548
3 1919.77 963928
3 1919.77 954088
3 1920.39 953938
3 1920.68 951948
3 1920.68 950799
3 1921.04 947041
3 1930.27 944782
3 1932.16 1043524
3 1932.16 1013002
3 1932.16 1008371
3 1932.16 1007546
3 1932.16 1001686
3 1932.16 1001485
3 1932.75 992771
3 1932.75 985302
3 1933.43 984501
3 1933.43 984214
3 1933.43 974331
3 1933.43 967462
3 1933.43 966100
3 1934.12 960581
3 1934.12 956248
1 1944.01 952295
3 1944.01 948886
3 1944.01 947135
1 1945.36 944361
3 1945.36 933409
3 1945.36 927207
3 1945.36 926575
3 1945.68 925774
3 1945.68 925220
3 1945.68 921163
3 1946 919062
3 1946 918965
3 1946.35 1084896
3 1946.35 1076962
3 1946.35 1070765
3 1946.35 1057488
3 1946.35 1038702
3 1946.35 1035967
3 1946.35 1031865
3 1946.73 1031310
3 1947.03 1030599
3 1947.03 1018954
3 1947.03 997297
3 1947.74 993961
3 1947.74 988849
3 1948.05 984516
3 1960.01 1068047
3 1960.01 1049261
3 1960.01 1048703
3 1960.01 1043064
3 1960.58 1031594
3 1960.58 1021270
3 1960.58 1021004
3 1960.58 1018068
3 1960.58 1016801
3 1961.15 1004020
3 1963.2 1000364
3 1963.2 994025
3 1963.51 992758
3 1963.51 981113
3 1964.11 974425
3 1974.19 1063519
3 1974.19 1048847
3 1974.19 1013537
3 1974.19 1005043
3 1974.19 991294
3 1974.19 974371
3 1974.19 973570
3 1974.19 967373
3 1974.79 965426
3 1974.79 964330
3 1974.79 963836
3 1974.79 960599
3 1975.32 959878
3 1975.81 958603
3 1975.81 958438
3 1975.81 952919
3 1975.81 948073
3 1988.18 976256
3 1988.18 974012
3 1988.18 965171
3 1988.18 962981
3 1988.18 961021
3 1988.18 958496
3 1988.18 955836
3 1988.18 954003
3 1988.57 952598
3 1988.57 950027
3 1988.57 944515
3 1988.57 940248
3 1997.19 936581
3 2002.18 1124706
3 2002.18 1078372
3 2002.18 1069851
3 2002.18 1027462
3 2002.18 1022404
3 2002.18 1021541
3 2002.18 1021109
3 2002.57 1016052
3 2002.57 1009855
3 2002.57 1008612
3 2002.57 1005522
3 2002.97 1004721
3 2002.97 1000540
3 2003.28 988895
3 2003.28 988745
3 2003.28 983599
3 2003.28 982057
3 2003.28 980961
3 2003.62 978977
3 2003.62 978829
3 2003.93 977203
3 2004.86 970932
3 2004.86 966879
3 2008.53 966231
3 2009.04 965371
3 2009.04 954573
3 2009.56 954185
3 2010.75 953384
3 2010.75 949803
3 2016.02 1083368
3 2016.02 1071774
3 2016.02 1069564
3 2016.02 1056723
3 2016.02 1051967
3 2016.02 1051953
3 2016.02 1034997
3 2016.48 1021703
3 2016.48 1005850
3 2016.48 1001541
3 2016.8 994613
3 2016.8 987859
3 2016.8 982518
3 2016.8 979993
3 2016.8 977718
3 2016.8 974410
3 2017.49 959738
3 2017.49 958937
3 2019.87 950059
3 2019.87 942125
3 2019.87 940897
3 2019.87 940151
3 2020.82 938083
3 2020.82 936606
3 2025.18 929827
3 2030.12 1021818
3 2030.12 1017273
3 2030.12 1007494
3 2030.12 988710
3 2030.51 986834
3 2030.51 980613
3 2030.51 978396
3 2030.86 976179
3 2030.86 972727
3 2030.86 972254
3 2031.48 964206
3 2031.48 963856
3 2031.91 963692
3 2032.4 958066
3 2032.4 941818
3 2032.4 941245
3 2044.01 1021371
3 2044.01 1009019
3 2044.01 1002987
3 2044.01 993508
3 2044.01 983243
3 2044.01 977406
3 2044.01 975513
3 2044.37 973324
3 2044.37 968258
3 2044.37 964502
3 2044.73 961326
3 2044.73 957728
3 2044.73 956099
3 2044.73 953076
3 2045.34 952743
3 2045.34 951334
3 2045.34 948649
3 2045.34 946005
3 2045.34 945672
3 2045.69 941914
3 2045.69 941604
3 2058.32 1054254
3 2058.32 1049699
3 2058.32 1049433
3 2058.32 1040443
3 2058.32 1028798
3 2058.32 1013366
3 2058.95 1009079
3 2058.95 1004746
3 2059.48 991379
3 2059.48 989665
3 2059.48 972978
3 2059.48 968250
3 2059.48 966983
3 2060.07 960728
3 2060.07 952852
3 2060.07 950637
3 2060.59 946304
3 2060.59 943643
3 2061.09 939376
3 2061.09 937345
3 2061.59 936078
3 2067.32 933953
3 2072.26 1079063
3 2072.26 1057406
3 2072.26 1049099
3 2072.26 1030291
3 2072.26 1029024
3 2072.26 1021090
3 2072.26 1014402
3 2072.26 1000868
3 2072.26 996472
3 2072.26 992229
3 2072.91 979960
3 2073.58 977637
3 2073.87 972026
3 2086.1 1014955
3 2086.1 987096
3 2086.1 983302
3 2086.1 981790
3 2086.1 976185
3 2086.1 973365
3 2086.68 971614
3 2087.29 961894
3 2087.29 959919
3 2087.29 955703
3 2087.72 955403
3 2088.45 951070
3 2088.82 948690
3 2090.09 946530
3 2090.09 944186
3 2090.09 937816
3 2091.14 937096
3 2100.02 1011166
3 2100.02 1004576
3 2100.02 987907
3 2100.02 986209
3 2100.02 982193
3 2100.02 978275
3 2100.02 971995
3 2100.02 965250
3 2100.98 963338
3 2100.98 962537
3 2102.21 962312
3 2102.52 950977
3 2102.93 949893
3 2102.93 949684
3 2102.93 948647
3 2103.4 942443
3 2103.7 941642
3 2103.99 940512
3 2114.47 1146308
1 2114.47 1132615
3 2114.47 1124979
3 2114.47 1118291
3 2114.47 1104925
3 2114.47 1095298
3 2114.47 1059006
3 2114.47 1052809
3 2114.47 1044556
3 2114.47 1044239
3 2114.47 1035262
3 2114.47 1033887
3 2115.16 1031630
3 2115.16 1023431
3 2115.16 1005790
3 2115.16 1001142
3 2115.16 995659
3 2115.16 994516
3 2115.16 990101
3 2115.16 985674
3 2115.16 971602
3 2115.77 971002
3 2115.77 956022
3 2115.77 949825
3 2116.75 945492
3 2116.75 942077
3 2116.75 938572
3 2117.07 934814
3 2128.31 1039198
3 2128.31 1027229
3 2128.31 1017597
3 2128.31 1005952
3 2128.31 994900
3 2128.31 984519
3 2128.99 963863
3 2128.99 963789
3 2129.3 963686
3 2129.3 960723
3 2129.63 942372
3 2129.63 940119
3 2129.63 936117
3 2129.63 929105
3 2129.63 926110
3 2130.1 923860
3 2130.71 921171
3 2142.18 1053240
3 2142.18 1039394
3 2142.18 1023316
3 2142.18 1022989
3 2142.66 1002827
3 2142.66 990183
3 2142.99 989072
3 2142.99 986111
3 2142.99 985849
3 2143.31 981214
3 2143.31 974398
3 2143.31 962702
3 2143.31 958944
3 2143.31 955550
3 2143.64 954784
3 2144.21 946850
3 2156.07 1054605
3 2156.07 1041979
3 2156.07 1038162
3 2156.07 1036719
3 2156.07 1029945
3 2156.07 1026416
3 2156.07 1014147
3 2156.07 984040
3 2156.48 981639
3 2156.48 969680
3 2156.48 964071
3 2156.48 959982
3 2170.08 1014151
3 2170.08 1006272
3 2170.08 1000783
3 2170.08 995436
3 2170.08 993491
3 2170.08 985975
3 2170.62 983803
3 2171.11 978041
3 2171.6 964221
3 2171.6 963343
3 2171.6 959649
3 2172.08 959092
3 2172.08 958382
3 2172.08 955776
3 2172.4 954606
3 2172.4 953686
3 2172.4 953497
3 2172.7 948968
3 2172.7 947261
3 2172.7 945082
3 2177.68 943718
3 2177.68 941656
3 2177.68 940389
3 2178.55 939378
3 2178.55 937088
3 2184.07 1008663
3 2184.07 997561
3 2184.07 990571
3 2184.07 984374
3 2184.07 963497
3 2185.33 962186
3 2185.33 954560
3 2185.63 954252
3 2185.63 944262
3 2187.94 937917
3 2188.25 932911
3 2188.25 931904
3 2192.48 928440
3 2198.2 999354
3 2198.2 997934
3 2198.2 967437
3 2198.2 963268
3 2198.2 956402
3 2198.2 948468
3 2198.2 948304
3 2198.81 937295
3 2198.81 921107
3 2199.31 920828
3 2199.31 914569
3 2200.09 911185
3 2212.22 1092429
3 2212.22 1066222
3 2212.22 1062914
3 2212.22 1027323
3 2212.22 1022927
3 2212.22 1011282
3 2212.22 1009343
3 2212.22 1002353
3 2212.22 996879
3 2212.22 975728
3 2212.78 975608
3 2212.78 971455
3 2212.78 955000
3 2212.78 947798
3 2213.32 931384
3 2213.32 926992
3 2226.44 1085113
3 2226.44 1064468
3 2226.44 1042067
3 2226.44 1013287
3 2226.44 1010437
1 2227.01 1008437
3 2227.01 1002801
3 2227.01 998468
3 2227.01 987453
3 2227.01 986199
3 2227.51 977842
3 2227.51 975172
3 2227.51 962973
3 2227.51 961804
3 2227.51 957034
3 2227.51 951217
3 2227.51 949950
3 2227.87 949576
3 2227.87 946010
3 2228.36 938076
3 2228.87 936574
3 2228.87 936102
3 2230.36 935307
3 2230.36 931701
3 2231.75 931416
3 2233.2 929788
3 2240.13 1040802
3 2240.13 1008322
3 2240.13 1000035
3 2240.13 998768
3 2240.13 998016
3 2240.13 991788
3 2240.13 980851
3 2240.13 976277
3 2240.7 974077
3 2241.03 972424
3 2241.03 971862
3 2241.03 968916
3 2241.37 968735
3 2241.37 967356
3 2241.77 963110
3 2241.77 962575
3 2241.77 961308
3 2241.77 958538
3 2242.34 953532
3 2242.34 953008
3 2242.34 949704
3 2243.11 949667
3 2244.24 946758
3 2244.24 942979
3 2244.24 941346
3 2244.24 936414
3 2245.38 932655
3 2254.4 1034347
3 2254.4 1030589
3 2254.4 1020810
3 2254.4 1014056
3 2254.4 1013864
3 2254.4 1013193
3 2254.4 993550
3 2254.4 992132
3 2255.02 985142
3 2255.02 974820
3 2255.02 956346
3 2255.54 950933
3 2255.54 933579
3 2255.54 928060
3 2255.54 927826
3 2256.79 927298
3 2268.18 1077379
3 2268.18 1064394
3 2268.18 1038166
3 2268.18 1032346
3 2268.18 1026244
3 2268.18 1026135
3 2268.18 1016900
3 2268.18 1005837
3 2268.83 1003083
3 2268.83 996395
3 2268.83 995128
3 2268.83 982347
3 2269.55 978014
3 2269.55 968235
3 2270.04 966618
3 2270.52 962245
3 2270.52 961444
3 2272.8 959428
3 2273.78 959173
3 2274.74 954557
3 2274.74 947783
3 2282.2 985531
3 2282.2 981198
3 2282.2 977665
3 2282.2 975138
3 2282.78 970368
3 2282.78 965396
3 2283.3 965239
3 2283.3 957367
3 2283.3 940348
3 2283.3 939547
3 2283.3 936832
3 2296.09 1024343
3 2296.09 1023456
3 2296.09 997332
3 2296.09 973302
3 2296.09 969241
3 2296.09 968281
3 2296.09 965028
3 2296.09 959509
3 2296.51 952417
3 2296.51 950131
3 2296.51 949450
3 2297.1 949344
3 2297.1 948804
3 2297.1 948544
3 2297.57 948183
3 2300.04 940384
3 2310.44 1057346
3 2310.44 1026164
3 2310.44 1026118
3 2310.44 1016539
3 2310.44 1009604
3 2310.44 983276
3 2310.44 978623
3 2310.44 976766
3 2310.44 973383
3 2310.44 971707
3 2311.08 970906
3 2311.08 969474
3 2311.08 966573
3 2311.59 964108
3 2311.59 960376
3 2312.08 955631
3 2319.29 955437
3 2319.59 952882
3 2319.97 951204
3 2319.97 946271
3 2324.29 1059552
3 2324.29 1029445
3 2324.29 1009283
3 2324.29 987112
3 2324.29 968312
3 2324.29 967302
3 2324.87 956211
3 2324.87 956120
3 2325.4 954853
3 2325.92 951478
3 2325.92 947684
3 2325.92 946885
3 2325.92 941602
3 2325.92 938559
3 2325.92 937068
3 2326.49 935165
3 2326.49 930832
3 2326.49 926255
3 2327.01 924400
3 2327.01 919433
3 2327.01 915891
3 2338.35 1028709
3 2338.35 987571
3 2338.35 986304
3 2338.35 983769
3 2338.35 971862
3 2338.35 960217
3 2338.35 959416
3 2339.39 958149
3 2345.84 956820
3 2346.81 956732
3 2347.31 955410
3 2347.31 954093
3 2347.31 952601
3 2347.31 950372
3 2347.31 947374
3 2347.86 943058
3 2347.86 942195
3 2347.86 938659
3 2348.37 936124
3 2350.21 935528
3 2350.21 934261
3 2352.11 1030927
3 2352.11 1027375
3 2352.11 1016481
3 2352.11 1003878
3 2352.11 999496
3 2352.11 998695
3 2352.11 994630
3 2352.11 981364
3 2352.11 966150
3 2352.11 959895
3 2352.73 957790
3 2352.73 956901
3 2352.73 956598
3 2352.73 952418
3 2353.26 949459
3 2353.26 948158
3 2353.26 947512
3 2353.77 941384
3 2354.25 933281
3 2354.72 933195
1 2366.29 1080209
3 2366.29 1062516
3 2366.29 1049735
3 2366.29 1014910
3 2366.29 1000616
3 2366.29 976651
3 2366.29 974656
3 2366.29 973990
3 2366.29 967216
3 2366.8 962742
3 2367.42 962541
3 2367.42 961893
3 2367.74 955696
3 2368.02 950189
3 2368.37 946820
3 2368.65 941878
3 2368.65 939764
3 2368.65 938149
3 2368.65 937286
3 2368.96 935910
3 2368.96 935664
3 2368.96 934817
3 2368.96 934397
3 2380.14 1032950
3 2380.14 1031849
3 2380.14 1019178
3 2380.14 1014633
3 2380.14 1013675
3 2380.99 1009318
3 2380.99 1009185
3 2381.5 1006309
3 2381.5 1002555
3 2381.5 1001234
3 2381.5 999486
3 2381.5 998528
3 2381.5 997847
3 2381.5 992539
3 2381.5 988012
3 2381.86 987331
3 2381.86 987020
3 2381.86 979357
3 2381.86 978040
3 2382.47 975426
3 2382.47 973498
3 2382.78 963719
3 2387.14 962731
3 2390.02 960467
3 2390.52 959324
3 2391.01 955393
3 2394.37 1023450
3 2394.37 1018382
3 2394.37 1005306
3 2394.37 1003179
3 2394.37 986645
3 2394.37 967859
3 2394.37 965993
3 2395.62 961660
3 2397.04 960718
3 2397.04 959117
3 2397.04 952313
3 2397.04 950592
3 2397.63 950277
1 2398.18 947444
3 2400.57 942183
3 2400.57 935698
3 2401.07 925919
3 2401.9 919449
3 2408.15 948126
3 2408.15 942246
3 2408.15 941022
3 2408.15 930065
3 2408.15 929422
3 2408.51 928892
3 2408.51 928234
3 2408.51 923409
3 2408.51 921220
3 2408.51 920357
3 2408.51 919587
3 2409.51 917107
3 2409.51 916610
3 2411.41 916224
3 2411.41 911737
3 2411.91 909985
3 2422.25 1071515
3 2422.25 1069048
3 2422.25 1063146
3 2422.25 1044360
3 2422.25 1042720
3 2422.25 1035188
3 2422.25 1031560
3 2422.85 995849
3 2422.85 991198
3 2422.85 984204
3 2423.37 976733
3 2423.86 976343
3 2423.86 975246
3 2423.86 970754
3 2423.86 969487
3 2424.87 968328
3 2424.87 966159
3 2425.52 956629
3 2425.52 956159
3 2425.52 955295
3 2425.52 952589
3 2425.52 948517
3 2425.9 945048
3 2426.27 944759
3 2426.76 941431
3 2427.24 938501
3 2427.24 937234
3 2428.2 936494
3 2436.09 1179996
3 2436.09 1179111
3 2436.09 1168787
3 2436.09 1130642
3 2436.09 1126030
3 2436.09 1122453
3 2436.09 1083296
3 2436.09 1081415
3 2436.55 1055875
3 2436.55 1043606
3 2436.55 1029883
3 2436.55 1026038
3 2436.55 1025970
3 2436.9 1023264
3 2436.9 1018931
3 2436.9 989371
3 2436.9 987093
3 2437.22 986292
3 2437.22 985644
3 2437.53 971180
3 2437.53 965039
3 2437.83 964166
3 2438.14 958842
3 2441.54 956607
3 2442.16 956216
3 2442.16 955974
3 2442.52 947132
3 2442.52 942355
3 2442.52 941554
3 2442.52 939668
3 2450.14 1114021
3 2450.14 1078430
3 2450.14 1043605
3 2450.14 1003931
3 2450.14 998049
3 2450.14 995762
3 2450.14 986972
3 2450.14 986171
3 2450.14 965655
3 2450.14 960306
3 2450.77 954564
3 2450.77 952772
3 2450.77 946116
3 2450.77 943751
3 2451.21 942327
3 2451.5 942295
3 2451.79 939222
3 2451.79 937175
3 2451.79 935064
3 2452.1 933797
3 2464.09 1006305
3 2464.09 1002422
3 2464.09 1000808
3 2464.09 992094
3 2464.09 989957
3 2464.09 978834
3 2464.94 978533
3 2464.94 975124
3 2465.25 963530
3 2466.43 962937
3 2466.43 954129
3 2466.43 952651
3 2466.75 950230
3 2466.75 946668
3 2468.99 943585
3 2468.99 934958
3 2478.36 1084301
3 2478.36 1061932
3 2478.36 1056749
3 2478.36 1050490
3 2478.36 1043146
3 2478.36 1018179
3 2478.36 1006754
3 2478.36 1004312
3 2478.36 1001333
3 2478.36 992364
3 2478.77 970707
3 2478.77 961165
3 2478.77 960928
3 2478.77 959180
3 2478.77 955530
3 2478.77 954847
3 2479.12 948073
3 2492.35 1062071
3 2492.35 1055297
3 2492.35 1049525
3 2492.35 1036966
3 2492.35 1027314
3 2492.35 1018792
3 2492.35 1014230
3 2492.35 1006424
3 2492.35 999513
3 2493 996873
3 2493 981816
3 2493 978975
3 2493 975561
3 2493 974294
3 2493.55 956108
3 2493.85 939160
3 2493.85 933110
3 2494.26 931552
3 2494.26 927199
3 2494.78 926336
3 2506.23 1107820
3 2506.23 1087658
3 2506.23 1057551
3 2506.23 1051502
3 2506.23 1019919
3 2506.23 1015586
3 2506.23 1003941
3 2506.23 996007
3 2506.23 982702
3 2506.86 976661
3 2506.86 975394
3 2506.86 972771
3 2507.39 972151
3 2508.97 969761
3 2510.18 965967
3 2511.89 961443
3 2511.89 959973
3 2511.89 959279
3 2520.47 1053061
3 2520.47 1046287
3 2520.47 995817
3 2520.47 985979
3 2520.47 981026
3 2521.05 976716
3 2521.05 973416
3 2521.05 968002
3 2521.05 967041
3 2521.05 962805
3 2521.6 958568
3 2521.6 957301
3 2522.1 956768
3 2522.1 956438
3 2522.57 953505
3 2522.57 948170
3 2522.88 947179
3 2523.16 946659
1 2534.28 1036128
3 2534.28 1017016
3 2534.28 1006760
3 2534.28 1005422
3 2534.28 991728
3 2534.28 985315
3 2534.28 980545
3 2534.28 980351
3 2534.77 979744
3 2534.77 976597
3 2534.77 964952
3 2535.24 963887
3 2535.24 961716
3 2535.62 960739
3 2535.62 958378
3 2535.62 956566
3 2535.62 956095
3 2535.62 955844
3 2537.1 952625
3 2538.59 951762
3 2538.59 951031
3 2540.94 948597
3 2541.95 947796
3 2544.85 946160
3 2545.4 944590
3 2548.37 1003791
3 2548.37 1003104
3 2548.37 988383
3 2548.37 987520
3 2548.37 985005
3 2548.93 984402
3 2549.43 981752
3 2549.43 976728
3 2550.43 968674
3 2550.43 968185
3 2562.25 1097821
3 2562.25 1092659
3 2562.25 1086770
3 2562.25 1085785
3 2562.25 1069170
3 2562.25 1049818
3 2562.25 1043939
3 2562.25 1009963
3 2562.25 1000783
3 2562.25 999035
3 2562.25 978873
3 2562.94 974235
3 2562.94 972676
3 2562.94 970939
3 2562.94 965902
3 2563.95 961322
3 2564.46 956518
1 2565.9 952401
3 2565.9 952231
3 2566.42 943511
3 2566.9 942710
3 2566.9 940717
3 2566.9 939450
3 2576.24 1026911
3 2576.24 1015266
3 2576.24 1005865
3 2576.24 1001532
3 2576.6 998426
3 2576.6 997533
3 2576.6 977371
3 2576.6 972014
3 2576.94 963515
3 2576.94 957496
3 2578.18 957457
3 2578.18 951260
3 2578.7 950803
3 2584.62 950671
3 2584.62 947619
3 2590.26 1048624
3 2590.26 1013166
3 2590.26 1000086
3 2590.26 995874
3 2590.26 984229
3 2590.26 970113
3 2590.26 968806
3 2590.64 968578
3 2590.64 967449
3 2591.03 964245
3 2593.64 960466
3 2593.64 959355
3 2594.16 957477
3 2594.16 954032
3 2594.16 952181
3 2594.69 948763
3 2594.69 946538
3 2594.69 946310
3 2597.83 945271
3 2597.83 943927
3 2597.83 943126
3 2598.19 938583
3 2598.53 935256
3 2604.23 1087830
3 2604.23 1086563
3 2604.23 1065784
3 2604.23 1024780
3 2604.23 1019813
3 2604.23 1015544
3 2604.81 998051
3 2604.81 996396
3 2604.81 967963
3 2604.81 955694
3 2605.37 946267
3 2605.37 942327
3 2606 941779
3 2606.31 940512
3 2606.61 939493
3 2606.9 939397
3 2606.9 938131
3 2607.21 937131
3 2607.52 936330
3 2607.52 931747
3 2607.82 930133
3 2618.3 989272
3 2618.3 966951
3 2618.3 964889
3 2618.3 962181
3 2618.3 961380
3 2619.32 955110
3 2619.81 950637
3 2619.81 950292
3 2620.37 947991
3 2621.33 946653
3 2624.23 945747
3 2624.23 944827
3 2625.73 942901
3 2628.85 941121
3 2628.85 939953
3 2628.85 939090
3 2632.13 1021314
3 2632.13 1009723
3 2632.13 999591
3 2632.13 994072
3 2632.13 988659
3 2632.13 982381
3 2632.62 978398
3 2632.62 977084
3 2632.62 973133
3 2632.62 969678
3 2639.48 968215
3 2639.48 966418
3 2639.48 966098
3 2639.81 965295
3 2641.57 963317
3 2641.57 962229
3 2641.95 961699
3 2643.29 960505
3 2643.29 954601
3 2643.95 943007
3 2646.29 1057159
3 2646.29 1051640
3 2646.29 1044408
3 2646.29 1037634
3 2646.29 1031292
3 2646.29 1029700
3 2646.29 1021555
3 2646.9 1006771
3 2646.9 991233
3 2646.9 990664
3 2646.9 985087
3 2646.9 980824
3 2646.9 979961
3 2647.53 971332
3 2647.53 971015
3 2647.53 966730
3 2648.06 966345
3 2648.06 964397
3 2648.06 962930
3 2648.06 957268
3 2648.06 956951
3 2649.61 955531
3 2649.61 954421
3 2649.61 953620
3 2650.13 950197
3 2650.13 949803
3 2650.13 949334
1 2654.06 948782
3 2654.06 945645
3 2654.57 944296
3 2654.57 940928
3 2655.03 930683
3 2655.03 929846
3 2655.03 926701
3 2655.03 924486
3 2655.56 922007
3 2656.03 921130
3 2657.93 920557
3 2660.19 1031800
3 2660.19 1015552
3 2660.19 984370
3 2660.19 974884
3 2660.19 966950
3 2660.19 966416
3 2660.19 962768
3 2660.7 960753
3 2660.7 955234
3 2660.7 952916
3 2669.69 949463
3 2669.69 949050
3 2672.04 948249
3 2673.72 947284
3 2673.72 941889
3 2673.72 940575
3 2673.72 939833
3 2674.16 1028994
3 2674.16 1026908
3 2674.16 1017263
3 2674.16 1014042
3 2674.63 1013228
3 2674.63 1009599
3 2674.63 1001346
3 2674.63 999456
3 2674.63 982773
3 2674.63 970320
3 2675.13 935430
3 2675.13 934163
3 2675.13 933344
3 2675.13 925439
3 2688.25 1056540
3 2688.25 1045240
3 2688.25 1039050
3 2688.25 1010486
3 2688.25 1009685
3 2688.25 999385
3 2688.25 996660
3 2688.25 994018
3 2688.25 992902
3 2688.79 991495
3 2688.79 972880
3 2688.79 971333
3 2688.79 968794
3 2688.79 966348
3 2688.79 959493
3 2689.18 959365
3 2689.18 958153
3 2689.18 958151
3 2689.18 955426
3 2689.18 938542
3 2694.13 938206
3 2694.47 936639
3 2695.07 932381
3 2695.07 931028
3 2695.41 930726
3 2695.41 917578
3 2695.41 915654
3 2695.41 914853
3 2702.09 1123783
3 2702.09 1103621
3 2702.09 1098090
3 2702.09 1080746
3 2702.09 1064825
3 2702.09 1060492
3 2702.09 1046768
3 2702.09 1038834
3 2702.09 1012452
3 2702.09 1008727
3 2702.09 1002077
3 2702.09 1001759
3 2702.78 993795
3 2702.78 991075
3 2702.78 976102
3 2702.78 969905
3 2702.78 962265
3 2702.78 960998
3 2702.78 958004
3 2703.37 955137
3 2703.37 952421
3 2703.37 952002
3 2703.88 951762
3 2704.82 946606
3 2704.82 945805
3 2705.85 939493
3 2705.85 939037
3 2706.36 938537
3 2709.25 932910
3 2709.54 930133
3 2716.07 991388
3 2716.07 978607
3 2716.07 977987
3 2716.07 976720
3 2716.07 972387
3 2716.07 962559
3 2716.07 962244
3 2716.07 955488
3 2716.45 954394
3 2716.45 953168
3 2716.45 951881
3 2716.79 951617
3 2716.79 949170
3 2716.79 943836
3 2716.79 943572
3 2716.79 940370
3 2716.79 939370
3 2716.79 938172
3 2716.79 934851
3 2717.83 934236
3 2730.39 1062862
3 2730.39 1048190
3 2730.39 1043857
3 2730.39 1041779
3 2730.39 1040978
3 2730.39 1036368
3 2730.39 1029508
3 2730.39 1026207
3 2730.39 1025036
3 2730.39 1014324
3 2730.39 1012337
3 2730.9 997252
3 2730.9 986458
3 2730.9 986225
3 2730.9 961661
3 2730.9 960197
3 2730.9 957180
3 2730.9 954599
3 2730.9 948473
3 2730.9 948374
3 2731.28 948080
3 2731.56 947728
3 2731.83 945535
3 2735.78 943573
3 2736.09 943395
3 2736.44 941626
3 2736.98 940479
3 2741.05 940080
3 2742 933712
3 2744.34 1024908
3 2744.34 1021879
3 2744.34 1013945
3 2744.34 1009857
3 2744.34 1008260
3 2744.34 1005312
3 2744.34 993667
3 2744.34 985070
3 2744.95 982845
3 2744.95 974800
3 2744.95 969477
3 2744.95 968026
3 2744.95 967163
3 2744.95 958904
3 2744.95 957097
3 2744.95 950968
3 2745.51 950599
3 2745.51 948605
3 2745.51 946937
3 2745.99 945363
3 2746.46 944650
3 2747.63 943363
3 2747.63 940821
3 2748.06 936628
3 2748.43 933259
3 2749.34 932396
3 2749.98 931108
3 2758.14 1018476
3 2758.14 1014151
3 2758.14 1012957
3 2758.14 1005279
3 2758.53 1000322
3 2758.53 994681
3 2758.53 988338
3 2758.53 987537
3 2758.53 984202
3 2758.53 974612
3 2758.53 973747
3 2758.98 973701
3 2758.98 972423
3 2758.98 960778
3 2759.92 959511
3 2760.22 953154
3 2760.53 948507
3 2760.53 946634
3 2762.91 945762
3 2772.11 1086682
3 2772.11 1076358
3 2772.11 1073439
3 2772.11 1060143
3 2772.11 1044326
3 2772.11 1008735
3 2772.11 1003293
3 2772.11 994746
3 2772.11 989946
3 2772.11 985709
3 2772.11 971674
3 2772.8 969165
3 2772.8 964319
3 2772.8 957697
3 2772.8 957049
3 2772.8 950275
3 2786.15 993128
3 2786.15 989222
3 2786.15 987767
3 2786.15 984889
3 2786.83 977501
3 2787.12 972620
3 2787.12 964628
3 2787.12 963361
3 2787.12 957846
3 2787.12 953852
3 2787.48 952843
3 2787.76 947844
3 2787.76 946771
3 2787.76 944234
3 2788.95 943444
3 2789.24 938993
3 2789.24 936408
query_times: 34
Score = 950031
