    Blocking waiting for file lock on package cache
    Blocking waiting for file lock on package cache
    Blocking waiting for file lock on package cache
    Finished `release` profile [optimized] target(s) in 0.05s
     Running `target/release/tester ../a.out 0068`
3 0.018 1045761
3 0.018 1025599
3 0.018 1014363
3 0.018 1013562
3 0.018 995748
3 0.018 982967
3 0.577 975557
3 0.577 974386
3 0.577 965858
3 0.958 965057
3 1.285 954805
3 1.285 953538
3 1.285 951174
1 1.941 942652
3 14.244 1010269
3 14.244 1006511
3 14.244 1003046
3 14.244 994410
3 14.244 981389
3 14.244 981248
3 14.244 975682
3 14.806 969411
3 14.806 967144
3 14.806 957869
3 14.806 956041
3 15.253 950522
3 18.173 944325
3 25.493 936365
3 25.846 933573
3 26.483 933518
3 28.139 1106266
3 28.139 1100925
3 28.139 1056037
3 28.139 1044392
3 28.139 1032470
3 28.139 1023050
3 28.139 1019325
3 28.139 1010341
3 28.139 1003829
1 28.666 993543
3 29.053 992775
3 29.053 987217
3 29.445 986087
3 29.445 982243
3 29.445 966796
3 29.445 964315
3 29.445 957325
3 29.946 954800
3 29.946 950551
3 29.946 950213
3 29.946 949412
3 29.946 949268
3 30.761 945510
3 30.761 944016
3 31.133 943215
3 42.286 1095716
3 42.286 1086448
3 42.286 1047652
3 42.286 1012061
3 42.286 998922
3 42.286 990404
3 42.286 989024
3 42.851 986569
3 42.851 985964
3 42.851 977954
3 42.851 977301
3 42.851 972703
3 42.851 968174
3 42.851 967912
3 43.382 967373
3 43.382 957329
3 43.382 955432
3 43.382 953746
3 47.453 948653
3 47.969 944396
3 47.969 934003
3 54.563 933584
3 56.244 1092418
3 56.244 1088405
3 56.244 1070761
3 56.244 1064476
3 56.244 1061696
3 56.244 1033804
3 56.244 1032633
3 56.244 999409
3 56.244 997665
3 57.038 987140
3 57.038 966066
3 57.038 962441
3 57.038 953432
3 57.038 947376
3 57.695 945968
3 57.695 939051
3 58.236 935288
3 58.74 932036
3 59.245 929033
3 70.155 1113784
3 70.155 1107341
3 70.155 1090706
3 70.155 1086142
3 70.155 1049819
3 70.155 1041626
3 70.155 1037293
3 70.155 1034233
3 70.967 1031309
3 70.967 1023206
3 70.967 1019807
3 70.967 1016628
3 71.594 1008704
3 71.594 1002324
3 71.594 999105
1 71.594 997357
3 71.594 996865
3 71.594 982787
3 71.594 979768
3 71.594 979664
3 72.363 978719
3 72.363 972028
3 72.363 969788
3 72.363 965254
3 72.363 964495
3 72.363 960162
3 73.527 959654
3 74.502 959173
3 75.032 957273
3 75.032 956472
3 75.61 955069
3 75.61 953091
3 76.228 952571
3 76.228 952228
3 84.249 1107104
3 84.249 1086942
3 84.249 1072308
3 84.249 1067975
3 84.249 1060666
3 84.249 1057747
3 84.249 1052030
3 84.249 1029183
3 84.249 1012588
3 84.249 1008769
3 84.912 1001995
3 84.912 994604
3 84.912 988154
3 84.912 979747
3 84.912 978930
3 85.475 970363
3 85.829 964540
3 96.466 963743
3 96.466 959598
3 96.466 958797
1 98.332 1133771
3 98.332 1125888
3 98.332 1117954
3 98.332 1109134
3 98.332 1078125
3 98.332 1054663
3 98.332 1041295
3 98.332 1029650
3 99.091 1025892
3 99.091 1025029
3 99.648 1022422
3 99.648 1017645
3 100.186 1017492
3 100.186 1016740
3 102.868 1010969
3 102.868 1003372
3 112.537 1101300
3 112.537 1088519
3 112.537 1086189
3 112.537 1082822
3 112.537 1069294
3 112.537 1058968
3 112.537 1048938
3 112.537 1038155
3 112.537 1018693
3 112.537 1016430
3 113.269 1012390
3 113.269 1010199
3 113.269 1000839
3 113.269 985227
3 113.748 973582
3 113.748 965055
3 113.748 961913
3 113.748 960337
3 114.225 939304
3 114.628 939218
3 114.628 935628
3 114.628 935361
3 115.088 935275
3 115.896 935030
3 115.896 934645
3 116.641 933699
3 126.467 1139420
3 126.467 1104452
3 126.467 1073515
3 126.467 1046721
1 126.467 1039343
3 126.467 1016886
3 126.467 1013631
3 126.467 1010198
3 126.467 1008890
3 126.467 1006641
3 126.467 1002883
3 127.38 991780
3 127.38 983846
3 127.38 982983
3 127.38 978993
3 127.38 978192
3 128.059 971473
3 128.059 966579
3 128.059 960800
3 128.059 959406
3 130.176 957852
3 130.737 953887
3 130.737 953544
3 131.371 952525
3 131.371 951724
3 131.371 951483
3 132.007 951076
3 132.007 950275
3 140.358 1040008
3 140.358 1039254
3 140.358 1038741
3 140.358 1006978
3 140.358 1005404
3 140.358 996957
3 140.358 973641
3 141.12 971631
3 141.12 968122
3 143.676 962067
3 144.713 958458
3 154.454 1046740
3 154.454 1031787
3 154.454 1027830
3 154.454 1016369
3 154.454 1011104
3 154.454 1004907
3 154.454 1000362
3 154.454 993855
3 154.454 971069
3 154.454 968841
3 154.454 968040
3 156.342 967455
3 156.858 961516
3 156.858 960653
3 156.858 954769
3 158.936 952099
3 158.936 945278
3 158.936 940733
3 158.936 939860
3 161.625 939441
3 162.644 934671
3 165.056 923806
3 165.056 917134
3 168.471 1119018
3 168.471 1116099
3 168.471 1115298
3 168.471 1099519
3 168.471 1061846
3 168.471 1050252
3 168.471 1043564
3 168.471 1037820
1 168.471 1022048
3 168.471 1010535
3 168.471 1009536
3 169.327 1000822
3 169.327 988337
3 169.327 987070
3 169.327 983960
3 169.949 978441
3 169.949 975521
3 169.949 968484
3 170.531 963702
3 170.531 961756
3 171.568 958246
3 171.568 957400
3 171.568 954766
3 182.177 1105032
3 182.177 1098835
3 182.177 1080463
3 182.177 1069360
3 182.177 1034351
3 182.177 1033769
3 182.902 1021855
3 182.902 1018174
3 182.902 1005393
3 182.902 1003097
3 182.902 987272
3 183.572 985406
3 183.572 984948
3 184.153 984605
3 184.153 977917
3 184.153 968880
3 184.153 963245
3 190.984 960851
3 190.984 956706
3 190.984 956394
3 190.984 941261
3 191.624 937503
3 191.624 934262
3 192.186 929207
3 192.186 927940
3 196.22 1003249
3 196.22 1001960
3 196.22 988812
3 196.22 987232
3 196.22 986918
3 196.22 985312
3 196.22 979676
3 196.22 977378
3 196.22 973626
3 196.22 972825
3 196.22 970202
3 197.058 970156
3 197.542 968832
3 197.542 968534
3 197.542 968166
3 197.542 967365
3 198.429 966870
3 198.429 952974
3 198.838 943875
3 199.233 943872
3 199.626 941395
3 200.094 934263
3 201.354 933278
3 202.194 929870
3 203.942 925086
3 206.534 923012
3 207.091 922877
3 210.205 1036932
3 210.205 1031860
3 210.205 1030593
3 210.205 1017946
3 210.205 1015289
3 210.205 999962
3 210.205 986344
3 210.205 974699
3 210.205 971974
3 211.031 968064
3 211.031 961340
3 211.542 953593
3 224.144 1024100
3 224.144 1021031
3 224.144 1017996
3 224.144 1016704
3 224.144 1009930
3 224.144 1005033
3 224.704 993439
3 224.704 987911
3 224.704 987672
3 225.16 984274
3 225.16 975543
3 225.16 971543
3 225.16 970720
3 225.747 967539
3 225.747 961458
3 226.508 952235
3 226.947 941192
3 227.67 939055
3 228.799 937874
3 238.252 1124688
3 238.252 1120355
3 238.252 1081194
3 238.252 1069225
3 238.252 1036233
3 238.252 1034492
3 238.959 1034109
3 238.959 1014684
3 238.959 1009581
3 238.959 1008320
3 238.959 1002591
3 238.959 990627
3 239.632 990232
3 239.632 989360
3 239.632 983841
3 240.143 979150
3 240.505 978420
3 240.505 977153
3 246.496 975466
3 246.496 972720
3 247.085 972160
3 247.691 971392
3 247.691 970593
3 247.691 967054
3 248.311 966191
3 250.302 963458
3 250.302 963381
3 252.308 1105559
3 252.308 1076536
3 252.308 1073871
3 252.308 1044896
3 252.308 1039660
3 252.308 1037127
3 252.308 1024858
3 252.308 1013444
3 252.308 1007888
3 252.308 1001359
3 253.167 1000310
3 253.167 996294
3 253.167 986070
3 253.167 980945
3 253.167 974171
3 254.318 967843
3 254.839 966034
3 254.839 949402
3 256.393 947789
3 256.393 945541
3 256.933 941188
3 256.933 929289
3 256.933 928594
3 257.523 928319
3 258.036 927881
3 258.036 927563
3 258.036 926764
3 266.307 1091875
3 266.307 1082458
3 266.307 1061507
3 266.307 1030498
3 266.307 1014720
3 266.307 984048
3 266.307 972703
3 266.307 964514
3 266.307 952245
3 267.11 951198
3 267.11 951040
3 267.11 946461
3 267.11 946399
3 267.732 945132
3 267.732 939050
3 267.732 938850
3 268.336 937999
3 268.336 937198
3 269.328 936473
3 280.158 1113719
3 280.158 1074668
1 280.158 1057567
3 280.158 1048005
3 280.158 1047516
3 280.158 1036729
3 280.158 1022190
3 280.158 1012626
3 280.158 1010545
3 280.967 1008506
3 280.967 1007239
3 280.967 985806
3 280.967 975115
3 281.593 971573
3 281.593 967661
3 281.593 966034
3 282.175 965376
3 282.175 962400
3 282.175 959121
3 283.248 956833
3 294.338 1045836
3 294.338 1044569
3 294.338 1032924
3 294.338 1019040
3 294.338 1015519
3 294.338 998014
3 294.338 990085
3 294.338 984171
3 294.338 982368
3 295.016 981553
3 295.016 978037
3 295.452 959686
3 295.452 959544
3 295.452 937143
3 295.913 934959
3 295.913 925831
3 295.913 923396
3 296.359 920612
3 298.64 918636
3 298.64 912324
3 299.127 910433
3 299.478 910347
3 308.273 995490
3 308.273 989847
3 308.273 989293
3 308.273 985535
3 308.273 983688
3 308.273 980573
3 308.818 974850
3 308.818 953957
3 308.818 952679
3 308.818 952241
3 309.348 950107
3 309.348 947909
3 310.414 947858
3 310.762 947808
1 314.084 946531
3 314.447 943463
3 314.447 942600
3 314.836 942554
3 315.933 940885
3 315.933 940866
3 316.411 940546
3 316.411 939745
3 316.411 937354
3 316.927 935959
3 317.332 935776
3 317.739 935532
3 317.739 934975
3 322.198 1069858
3 322.198 1058433
3 322.198 1058141
3 322.198 1047038
3 322.198 1026876
3 322.198 1024204
3 322.198 1022189
3 322.198 1021388
3 323.076 1010772
3 323.076 1007549
3 323.076 978985
3 323.732 972297
3 324.32 942190
3 332.786 938504
3 332.786 934179
3 332.786 933378
3 332.786 932307
3 333.402 932049
3 333.914 928716
3 334.418 928549
3 336.43 1036998
3 336.43 1033744
3 336.43 1016836
3 336.43 1011293
3 336.43 1004303
3 336.43 1004015
3 336.43 997529
3 336.43 997354
3 336.43 988640
3 337.246 982651
3 337.246 974863
3 337.246 973907
3 337.246 973596
3 337.246 969574
3 337.246 969362
3 338.905 968122
3 338.905 965991
3 338.905 954968
3 338.905 950783
3 339.378 948258
3 340.09 948212
3 340.09 947349
3 340.09 943795
3 340.09 942949
3 350.299 1017311
3 350.299 1005241
3 350.299 989590
3 350.299 986884
3 350.299 977932
3 350.299 957770
3 350.299 952251
3 351.199 948758
3 351.199 948616
3 351.928 942439
3 351.928 933725
3 364.343 996878
3 364.733 995611
3 364.733 988621
3 364.733 988511
3 364.733 986361
3 365.215 983436
3 365.215 964880
3 365.215 964734
3 368.457 954785
3 368.457 949392
3 368.945 948629
3 369.405 948609
3 369.786 943853
3 370.142 943090
3 378.023 961380
3 378.023 960752
3 378.023 948774
3 378.023 947660
3 378.503 947507
3 378.886 940354
3 378.886 939059
3 379.285 938037
3 379.657 934726
3 380.038 933073
3 380.038 932262
3 380.038 931389
3 380.038 918752
3 380.038 918065
3 383.872 917950
3 383.872 917076
3 383.872 916198
3 385.94 915397
3 386.647 912855
3 386.647 912160
3 392.272 1039442
3 392.272 1030731
3 392.272 1020825
3 392.272 1017879
3 392.272 999377
3 392.793 993869
3 392.793 988350
3 393.191 987065
3 393.191 973496
3 393.934 970915
3 394.639 963911
3 394.639 961299
3 394.639 959505
3 394.639 954740
3 395.077 954327
3 395.077 952018
3 395.077 943528
3 397.486 941251
1 399.474 941156
3 399.834 939761
3 399.834 939248
3 399.834 934655
3 400.306 933812
3 400.306 927733
3 400.705 926873
3 400.705 921418
3 402.401 921307
3 406.21 1118793
3 406.21 1117992
3 406.21 1109889
3 406.21 1109803
1 406.21 1094875
3 406.21 1078261
3 406.21 1068568
3 406.768 1035781
3 406.768 1033799
3 406.768 1016106
3 406.768 1015961
3 406.768 1013779
3 406.768 1013768
3 406.768 1007035
3 406.768 994254
3 406.768 987163
3 406.768 982759
3 407.383 981916
3 407.383 980801
3 407.767 979040
1 407.767 978141
3 408.157 974064
3 408.157 973132
3 408.157 967597
3 408.578 965128
3 408.578 959609
3 408.578 952882
3 408.578 952836
3 409.033 952035
3 409.717 951386
3 411.034 949412
3 412.685 944861
3 413.041 941607
3 420.156 1112006
3 420.156 1111205
3 420.156 1096533
3 420.156 1085430
3 420.156 1065268
3 420.156 1056687
3 420.156 1037901
3 420.156 1033568
1 420.901 1031820
3 420.901 1025437
3 420.901 1024170
3 420.901 1011389
3 420.901 996852
3 421.556 986758
3 421.556 985572
3 421.556 981239
3 422.121 977555
3 422.121 958720
3 422.676 947024
3 422.676 946271
3 434.368 1117429
3 434.368 1081932
3 434.368 1079118
3 434.368 1045808
3 434.368 1043092
3 434.368 1036150
3 434.368 1020645
3 434.368 1019324
3 434.368 1017460
3 434.368 1004322
3 435.187 998824
3 435.187 992053
3 435.718 992027
3 435.718 989445
1 435.718 985375
3 435.718 970703
3 435.718 965184
3 435.718 963892
3 435.718 963095
3 436.394 960054
3 436.394 958080
3 442.388 957243
3 442.388 952670
3 442.388 951724
3 442.933 950457
3 446.893 946355
3 446.893 945554
3 448.114 1075302
3 448.114 1074802
3 448.114 1070969
3 448.114 1052753
3 448.114 1032108
3 448.114 1025025
3 448.114 1014851
3 448.114 999937
3 448.114 987156
3 448.114 987045
3 448.736 986034
3 448.736 980544
3 448.736 975533
3 448.736 973485
3 448.736 962878
3 449.514 958545
3 452.142 949931
3 452.489 947442
3 462.142 987927
3 462.142 979283
3 462.142 976933
3 462.142 967664
3 462.142 965331
3 462.142 961437
3 462.941 960912
3 462.941 960687
3 462.941 957679
3 462.941 956753
3 462.941 952288
3 464.836 945635
3 465.213 944709
3 465.598 944634
3 468.415 943568
3 468.771 943364
3 476.361 1075818
3 476.361 1075088
3 476.361 1075017
3 476.361 1070684
3 476.361 1057395
3 476.361 1040702
3 476.361 1026899
3 476.361 1023430
3 476.361 1011360
3 476.361 1010093
3 476.361 1002974
3 477.106 985126
3 477.106 983267
3 477.106 979057
3 477.106 972862
3 477.106 967343
3 477.106 960006
3 477.106 957864
3 477.996 952576
3 477.996 948243
3 478.54 947442
3 479.358 946271
3 490.062 1119022
3 490.062 1100222
3 490.062 1098995
1 490.062 1043311
3 490.062 1039222
3 490.062 992295
3 490.062 987622
3 490.062 984474
3 490.062 984220
3 490.701 983420
3 490.701 973869
3 490.701 971775
3 491.128 971679
3 491.128 970507
3 491.128 966749
3 491.541 960474
3 491.541 959820
3 492.567 957938
3 492.567 951209
3 492.567 946720
3 492.986 946455
3 492.986 943552
3 492.986 942385
3 492.986 941641
3 494.072 941287
3 494.445 938660
3 494.445 935913
3 494.445 935460
3 494.445 932995
3 494.934 931517
3 494.934 927526
3 504.232 1017312
3 504.232 1009051
3 504.232 1000411
1 504.232 987674
1 504.232 974484
3 504.232 970398
3 504.232 969259
3 504.772 967330
3 504.772 964938
3 504.772 963715
3 504.772 955709
3 505.239 942794
3 505.239 939680
3 505.664 939105
3 505.664 937180
3 506.43 936597
3 508.396 933840
3 508.745 933370
3 508.745 932507
3 508.745 931516
3 509.157 930082
3 509.627 924526
3 509.982 924280
3 509.982 924185
3 510.356 924046
3 510.356 923183
3 518.2 1000109
3 518.2 998970
3 518.2 998594
3 518.2 989163
3 518.2 988008
3 518.2 987840
3 518.2 985532
3 518.2 984393
3 518.2 975107
3 518.2 973084
3 518.826 973036
3 518.826 969278
3 518.826 964945
3 518.826 961531
3 519.284 960264
3 519.284 956860
3 519.284 954138
3 519.284 947227
3 519.771 947092
3 519.771 945404
3 520.148 945046
3 520.148 944137
3 520.519 942493
3 532.375 1101660
3 532.375 1086988
3 532.375 1047186
3 532.375 1041236
3 532.375 1040437
3 532.375 1032503
3 532.375 1026984
3 532.375 1021771
3 533.104 1011195
3 533.104 993222
3 533.104 986081
3 533.104 984902
3 533.665 982074
3 533.665 973700
3 533.665 971175
3 534.298 962166
3 534.298 961148
3 534.298 958696
3 534.916 955991
3 534.916 953962
3 534.916 953757
3 534.916 953216
3 534.916 944059
3 534.916 943749
3 534.916 939480
3 535.637 938714
3 536.138 933283
3 546.013 1137801
3 546.013 1120108
3 546.013 1113420
3 546.013 1107901
3 546.013 1089387
3 546.013 1046758
3 546.013 1039896
3 546.013 1036621
3 546.013 1034540
3 546.013 1033134
3 546.013 1013721
3 546.013 1009963
3 546.953 1009348
3 546.953 1007899
3 546.953 1007335
3 546.953 1006594
3 546.953 1002942
3 546.953 1001031
3 547.527 994513
3 547.527 990180
3 548.664 987623
3 548.664 987484
3 549.063 982238
3 549.063 977905
3 549.063 970995
3 549.063 964684
3 549.063 964453
3 549.063 958487
3 549.617 955428
3 550.003 955301
3 550.362 954093
3 550.362 953865
3 550.82 949863
3 560.1 1111425
3 560.1 1092997
3 560.1 1092639
3 560.1 1057671
3 560.1 1022080
3 560.1 1021732
3 560.1 1015883
3 560.708 1006104
3 560.708 1005303
3 560.708 1002281
3 560.708 999093
3 560.708 997299
3 560.708 992133
3 560.708 985412
3 561.322 985172
3 561.322 979653
3 561.322 964700
3 561.322 961804
3 561.322 959643
3 561.322 958571
3 562.007 956690
3 562.007 953957
3 562.007 953156
3 562.578 947752
3 562.578 947017
3 562.578 938409
3 574.141 1078384
3 574.141 1047202
3 574.141 1038488
3 574.141 1004741
3 574.648 1003485
3 574.648 1001200
3 574.648 1000015
3 574.648 990033
3 575.106 985772
3 575.106 984388
3 575.106 977976
3 575.642 968899
3 575.642 965141
3 575.642 959989
3 576.06 958367
3 576.06 957504
3 588.146 1132841
3 588.146 1103475
3 588.146 1091206
3 588.146 1073513
3 588.146 1069180
3 588.146 1065422
3 588.146 1060002
3 588.754 1047923
3 588.754 1046646
3 588.754 1042313
3 588.754 1027641
3 588.754 1021899
3 588.754 1010749
3 588.754 1004061
3 588.754 1003202
3 588.754 1000538
3 589.308 999271
3 589.308 974549
3 589.308 967804
3 589.765 965164
3 589.765 964077
3 590.165 961607
3 602.26 986543
3 602.26 984770
3 602.26 972064
3 602.26 961066
3 602.748 960265
3 602.748 957453
3 603.146 955201
3 603.146 953253
3 603.146 952355
3 603.146 951986
3 603.938 950792
3 603.938 945161
3 604.328 942359
3 604.686 935725
3 607.034 935376
3 607.385 934575
3 616.185 1145736
3 616.185 1117172
3 616.185 1104888
3 616.185 1095105
3 616.185 1082324
3 616.185 1053780
3 616.185 1051367
3 616.185 1033515
3 616.185 1025960
3 616.762 1019530
3 616.762 1015694
3 616.762 1010175
3 616.762 1007323
3 616.762 1006307
3 616.762 1001930
3 617.28 995733
3 617.28 994932
3 617.659 991649
3 618.004 991398
3 618.004 984915
3 618.685 967222
3 618.685 966962
3 619.062 966161
3 619.062 964111
3 619.442 963478
3 619.442 959964
3 623.492 956790
3 623.839 956508
3 625.448 954061
3 627.007 953184
3 630.249 1112122
3 630.249 1101019
3 630.249 1071744
3 630.249 1050555
3 630.249 1047556
3 630.249 1038586
1 630.249 1028148
3 630.249 1021460
3 630.249 1013674
3 630.249 1010455
3 630.249 1009378
3 630.861 988250
3 630.861 980355
3 630.861 965997
3 630.861 964749
3 630.861 954352
3 630.861 953716
3 631.336 944743
3 631.336 939500
3 631.336 937491
3 631.336 936649
3 631.755 936197
3 632.4 934930
3 636.698 930455
3 637.017 928829
3 644.12 1076007
3 644.12 1052463
3 644.12 1045335
3 644.12 1024059
3 644.12 1019726
3 644.12 1008940
3 644.12 988201
3 644.12 984202
3 644.68 982719
3 644.68 976284
3 644.68 970331
3 644.68 969596
3 644.68 967296
3 645.139 966549
3 645.139 960522
3 645.509 957720
1 645.509 947643
3 645.509 947273
3 645.509 942940
3 645.931 940650
3 645.931 940593
3 646.293 939849
3 658.276 1056109
3 658.276 1006994
3 658.276 993626
3 658.276 975665
3 658.276 969109
3 658.276 955122
3 658.276 953161
3 658.276 941516
3 659.166 936537
3 659.821 934783
3 672.131 1007810
3 672.131 975753
3 672.131 972872
3 672.131 971843
3 672.131 969878
3 672.131 965509
3 672.131 965463
3 672.131 958063
3 672.704 950164
3 673.063 948280
3 673.063 946790
3 673.063 937011
3 674.079 934110
3 674.079 933677
3 674.449 932876
3 674.449 931807
3 674.449 931228
3 679.227 928106
3 680.558 926861
3 680.558 926006
3 681.098 921909
3 686.197 1029137
3 686.197 1016611
3 686.197 1005508
3 686.197 994059
3 686.197 993196
3 686.197 992694
3 686.197 989107
3 686.197 984329
3 686.748 982915
3 686.748 981648
3 686.748 981239
3 687.148 977429
3 687.49 972684
3 687.49 972261
3 687.49 965910
3 687.49 961267
3 687.49 958797
3 688.552 955943
3 688.552 951405
3 688.552 950604
3 688.552 947903
3 688.982 947075
3 700.188 1013253
3 700.188 991596
3 700.188 988650
3 700.188 988549
3 700.188 981893
3 700.188 973721
3 700.188 970370
3 700.737 967229
3 700.737 949036
3 700.737 937613
3 701.147 936557
3 714.12 1041980
3 714.12 991831
3 714.12 989951
3 714.12 983389
3 714.12 980585
3 714.12 974399
3 714.638 973861
3 714.638 973584
3 714.638 968250
3 714.638 967463
3 715.045 957543
3 715.44 944456
3 715.44 942271
3 715.814 940123
3 715.814 939624
3 716.45 938976
3 717.382 937543
3 717.382 937026
3 717.382 932693
3 728.066 1068738
3 728.066 1048415
3 728.066 1042896
3 728.066 1033117
3 728.066 1024595
3 728.066 1016943
3 728.066 994205
3 728.677 989872
3 728.677 985025
3 729.149 972265
3 729.149 971464
3 729.149 969450
3 729.149 958041
3 729.882 956432
3 730.548 955631
3 742.136 1059577
3 742.136 1052134
3 742.136 1017175
3 742.136 1013577
3 742.136 1008040
3 742.136 993479
3 742.136 974875
3 742.136 972603
3 742.636 968588
3 742.636 961598
3 742.636 960505
3 742.636 957840
3 743.062 946929
3 743.062 946066
3 743.062 942906
3 743.497 938132
3 744.482 937387
3 753.14 935058
3 754.095 931401
3 756.041 1045230
3 756.041 1010497
3 756.041 1009639
3 756.041 1008840
3 756.041 982576
3 756.488 973675
3 756.488 971795
3 756.488 967325
3 756.488 966015
3 756.488 962934
3 756.488 961611
3 756.488 945971
3 756.488 945113
3 757.672 943397
3 757.672 940634
3 758.347 939367
3 770.129 1104778
3 770.129 1069184
3 770.129 1056649
3 770.129 1055848
3 770.129 1041011
3 770.129 1037215
3 770.129 1031329
3 770.129 1030878
3 770.129 1027120
3 770.723 999566
3 770.723 996755
3 770.723 987395
3 771.111 984672
3 771.111 974614
3 771.111 970281
3 771.111 969014
3 773.022 967266
3 773.35 966471
3 781.299 965770
3 781.647 963024
3 782.289 962012
3 782.289 955022
3 782.289 954159
3 784.207 1011781
3 784.207 1003260
3 784.207 987695
3 784.207 965982
3 784.207 959881
3 784.207 948236
3 784.727 948106
3 784.727 947592
3 785.089 944028
3 785.507 943165
3 785.84 941801
3 785.84 939475
3 786.203 938790
3 786.203 937020
3 786.569 936157
3 787.505 935231
3 798.046 1004557
3 798.046 993975
3 798.046 980268
3 798.496 979001
3 798.844 974706
3 799.191 969936
3 799.849 957633
3 800.821 957488
3 800.821 956770
3 805.629 949375
3 812.126 1065472
3 812.126 1059275
3 812.126 1057933
3 812.126 1039545
3 812.126 1022033
3 812.126 1010551
3 812.126 1009369
3 812.126 1002359
3 812.126 1001558
3 812.126 994641
3 812.972 982996
3 813.407 972085
3 813.407 972014
3 813.407 968391
3 813.845 956873
3 813.845 955606
3 813.845 952278
3 813.845 950428
3 814.291 948972
3 814.64 948069
3 814.64 947076
3 816.689 947012
3 817.05 945745
3 817.408 938234
3 817.761 933138
3 817.761 932249
3 817.761 928805
3 818.229 928442
3 818.229 927175
3 818.589 925227
3 826.267 1179309
3 826.267 1143718
3 826.267 1135046
3 826.267 1105258
3 826.267 1092182
3 826.267 1085494
3 826.267 1076964
3 826.267 1071685
3 826.267 1043232
3 826.267 1042550
3 826.267 1016265
3 826.267 1014786
3 826.957 1012448
3 826.957 1010504
3 826.957 1009636
3 826.957 990800
3 827.431 980781
3 827.431 968232
3 827.431 965967
3 827.897 964195
3 828.36 963024
3 828.36 962608
3 828.36 961341
3 828.851 961276
3 828.851 957008
3 840.115 1025288
3 840.115 1005562
3 840.115 970129
3 840.115 960556
3 840.115 955295
3 840.802 950163
3 840.802 948566
3 841.313 947188
3 841.313 945803
3 841.313 944536
3 841.908 943955
3 841.908 943382
3 841.908 942551
3 841.908 934986
3 842.998 934076
3 842.998 934001
3 843.539 930141
3 848.846 927848
3 848.846 926312
3 848.846 922136
3 848.846 921335
3 849.523 919914
3 854.351 1088036
3 854.351 1075086
3 854.351 1068312
3 854.351 1065046
3 854.351 1047353
3 854.351 1031625
3 854.351 1019221
3 854.351 997366
3 855.124 990884
3 855.124 986070
3 855.124 977511
3 855.735 976285
3 855.735 971673
3 856.269 970088
3 856.269 969796
3 868.232 1087756
3 868.232 1085315
3 868.232 1066198
3 868.232 1058264
3 868.232 1043311
3 868.232 1031921
3 868.232 1015934
3 868.232 1015207
3 869.01 1012963
3 869.01 995395
3 869.01 987461
3 869.01 984936
3 869.01 981017
3 869.01 980603
3 869.01 977989
3 869.01 967876
3 869.01 961042
3 869.784 949397
3 882.306 1050907
3 882.306 1038638
3 882.306 1031933
3 882.306 1030990
3 882.306 1029723
3 882.306 1024531
3 882.306 1021514
3 882.306 1003945
3 882.306 1003419
3 882.306 1001973
3 882.306 986846
3 883.157 984349
3 883.157 973748
3 883.157 971166
3 883.157 969930
3 883.774 967471
3 883.774 966204
3 884.311 960288
3 884.821 959326
3 885.375 957222
3 885.375 955955
3 885.911 955030
3 885.911 954901
3 886.427 954038
3 887.865 953616
3 887.865 951068
3 888.875 950623
3 888.875 949283
3 888.875 938409
3 896.096 1044148
3 896.096 1043347
3 896.096 1023185
3 896.096 1016497
3 896.096 1011232
3 896.096 1000852
3 896.096 1000178
3 896.096 998848
3 896.864 995408
3 896.864 988786
3 896.864 985553
3 896.864 984286
3 896.864 982848
3 896.864 982435
3 896.864 972656
3 897.586 970067
3 897.586 968898
3 897.586 960964
3 898.644 960242
3 898.644 958735
3 899.679 953658
3 899.679 952609
3 899.679 952047
3 900.771 949458
3 900.771 947671
3 900.771 947538
3 900.771 946558
3 901.404 943128
3 902.368 942405
3 910.126 1022689
3 910.126 998682
3 910.126 987037
3 910.126 986984
3 910.126 974629
3 910.126 965775
3 910.126 962984
3 910.126 960001
3 910.89 954163
3 910.89 953008
3 911.436 952244
3 912.444 951019
3 912.444 941836
3 912.444 941057
3 912.444 934863
3 924.267 1134279
3 924.267 1096553
3 924.267 1087752
3 924.267 1073080
3 924.267 1067989
3 924.267 1066082
3 924.267 1045615
3 924.267 1022953
3 924.267 1017714
3 924.88 1006734
3 924.88 1004662
3 925.257 994397
3 925.257 990561
3 925.257 985422
3 925.257 982862
3 925.257 978948
3 925.758 976050
3 925.758 970608
3 925.758 964947
3 926.159 961630
3 926.159 954487
3 926.159 947514
3 926.528 947273
3 926.528 946472
3 926.893 939075
3 928.508 932948
3 938.293 1098358
3 938.293 1083686
3 938.293 1048095
3 938.293 1044377
3 938.293 1043762
3 938.293 1042779
3 938.293 1036068
3 938.293 1023763
3 939.048 1010884
3 939.048 1003594
3 939.048 1003548
3 939.048 998225
3 939.048 971513
3 939.684 970714
3 939.684 970532
3 939.684 969913
3 939.684 968991
3 939.684 968742
3 939.684 963820
3 939.684 962590
3 940.366 947334
3 941.302 944063
3 941.302 943001
3 945.446 940078
3 946.379 937553
3 952.36 995670
3 952.36 965470
3 952.36 960102
3 952.92 958891
3 953.401 955299
3 953.401 952203
3 954.43 951871
3 954.929 950531
3 954.929 948006
3 954.929 947550
3 954.929 944847
3 954.929 940981
3 954.929 937310
3 955.597 936043
3 956.518 933557
3 957 928701
3 957 924941
3 957 922076
3 966.31 1124033
3 966.31 1109361
3 966.31 1078900
3 966.31 1043309
3 966.31 1033044
3 966.31 1025451
3 966.31 1020107
3 966.31 1014588
3 966.31 1012681
3 966.31 1001989
3 966.31 981827
3 966.31 981026
3 966.31 977841
3 966.977 975212
3 966.977 969738
3 966.977 966691
3 966.977 963985
3 967.704 962109
3 967.704 961707
3 968.065 959386
3 968.065 958178
3 968.427 958175
3 969.673 957374
3 969.673 951764
3 969.673 948852
3 980.272 1039606
3 980.272 1029320
3 980.272 1017282
3 980.272 1012894
3 980.272 1007375
3 980.272 995106
3 980.272 988332
3 980.272 987469
3 981.733 971953
3 981.733 971690
3 982.094 968796
3 982.432 965448
3 982.432 963277
3 982.432 959837
3 982.824 958992
3 983.16 958929
3 983.16 955957
3 983.524 953149
3 983.524 952968
3 983.524 952105
3 994.122 1069641
3 994.122 1068374
1 994.122 1054207
3 994.122 1051212
3 994.122 1046130
3 994.122 1030894
3 994.122 1030093
3 994.122 1025384
3 994.122 1013212
3 994.691 1012912
3 994.691 1011599
3 994.691 1006829
3 994.691 1006565
3 994.691 1000632
3 994.691 998708
3 994.691 990881
3 995.182 984871
3 995.182 984711
3 995.182 984524
3 995.182 968207
3 995.182 948224
3 995.182 945814
3 995.67 943971
3 995.997 943579
3 995.997 933587
3 995.997 929473
3 995.997 928672
3 995.997 923513
3 997.36 923153
3 997.36 922577
3 998.009 921599
3 998.009 918791
3 998.009 917953
3 999.236 914073
3 999.869 910728
3 1000.2 910680
3 1000.2 910495
3 1000.2 908321
3 1000.57 908273
3 1007.58 908027
3 1008.1 1113813
3 1008.1 1109480
3 1008.1 1103283
3 1008.1 1092180
3 1008.1 1069908
3 1008.1 1067752
3 1008.1 1067705
3 1008.1 1061508
3 1008.1 1042722
3 1008.1 1041921
3 1008.9 1030044
3 1008.9 992693
3 1008.9 988200
3 1008.9 986755
3 1009.49 980558
3 1009.49 978652
3 1010.01 968873
3 1010.94 964540
3 1013.27 958797
3 1013.27 953849
3 1013.83 952604
3 1014.32 947245
3 1014.8 947075
3 1022.27 1119496
3 1022.27 1104824
3 1022.27 1097028
3 1022.27 1062060
3 1022.27 1032272
3 1022.27 1025939
3 1022.27 1014706
3 1022.27 1006665
3 1022.27 986722
3 1023 986503
3 1023 978114
3 1023 971912
3 1023 967318
3 1023.6 966051
3 1023.6 963009
3 1023.6 960769
3 1024.17 959968
3 1030.4 959131
3 1030.4 957864
3 1030.4 956220
3 1030.4 952345
3 1033.56 951174
3 1036.24 1150580
3 1036.24 1119643
3 1036.24 1108540
3 1036.24 1102343
3 1036.24 1101542
3 1036.24 1043736
3 1036.24 1039978
3 1036.24 1022435
3 1036.97 1018102
3 1036.97 1015577
3 1036.97 1012583
3 1036.97 1004649
3 1037.99 1004025
3 1037.99 1000143
3 1037.99 995283
3 1037.99 983104
3 1038.6 974945
3 1038.6 972109
3 1038.6 968799
3 1038.6 967877
1 1038.6 963870
3 1038.6 956473
3 1039.36 953688
3 1039.36 950151
3 1039.87 945643
3 1040.37 943669
3 1041.79 940275
3 1042.74 938835
3 1042.74 932764
3 1043.31 931692
3 1045.18 931321
3 1045.18 922327
3 1045.18 920533
3 1050.18 1086516
3 1050.18 1082131
3 1050.18 1073942
3 1050.18 1023966
3 1050.18 995135
3 1050.18 988447
3 1050.18 982250
3 1050.88 976717
3 1050.88 967578
3 1050.88 964355
3 1051.42 963635
3 1051.42 963589
3 1051.95 962004
3 1052.43 960538
3 1052.43 959737
3 1052.43 957085
3 1053 954646
3 1053.5 943710
3 1053.5 942909
3 1054.01 939503
3 1054.01 937472
3 1054.01 935392
3 1054.97 934500
3 1064.14 1084855
3 1064.14 1060771
3 1064.14 1045808
3 1064.72 1029686
3 1064.72 1026767
3 1064.72 997558
3 1064.72 995319
1 1064.72 988952
3 1064.72 982444
3 1065.35 975117
3 1065.83 963226
3 1065.83 962425
3 1065.83 962003
3 1065.83 957370
3 1066.39 956232
3 1067.74 955586
3 1078.41 1049750
3 1078.41 1043062
3 1078.41 1043028
3 1078.41 1034925
3 1078.41 1028310
3 1078.41 1023977
3 1078.41 992706
3 1078.41 985832
3 1078.41 984857
3 1079.17 983797
3 1079.17 975078
3 1079.17 966955
3 1079.74 966725
3 1080.22 965924
3 1080.22 960267
3 1080.76 959000
3 1083.12 954362
3 1084.11 952427
3 1084.11 951160
1 1085.64 940799
3 1086.65 937765
3 1087.36 937464
3 1087.7 935819
3 1092.08 1083689
3 1092.08 1074160
3 1092.08 1056684
3 1092.08 1046051
3 1092.08 1040216
3 1092.08 1034019
3 1092.08 1008810
3 1092.62 991637
3 1092.62 990836
3 1092.62 979903
3 1092.62 967634
3 1092.62 963599
3 1092.62 962326
3 1092.62 956338
3 1093.44 953788
3 1094.07 953579
3 1094.07 934966
3 1095.13 934262
3 1095.13 933699
3 1106.15 1015183
3 1106.15 1014899
3 1106.15 987249
3 1106.15 985982
3 1106.15 979208
3 1106.15 967563
3 1106.15 962346
3 1106.7 962044
3 1107.06 960761
3 1107.06 953321
3 1107.06 945167
3 1107.06 944960
3 1107.06 944225
3 1107.06 941458
3 1107.06 940731
3 1107.06 939930
3 1107.06 939631
3 1107.65 938364
3 1108.29 932622
3 1120.27 1045927
3 1120.27 1041838
3 1120.27 1035641
3 1120.27 1020688
3 1120.27 1019889
3 1120.27 1008709
3 1120.78 1007921
3 1120.78 1005589
3 1120.78 998901
3 1120.78 987362
3 1120.78 987307
3 1120.78 980533
3 1121.27 973679
3 1121.27 970754
1 1121.27 963369
3 1121.69 959611
3 1122.95 956581
3 1123.9 955121
3 1123.9 945595
3 1124.26 944328
3 1124.26 940286
3 1124.26 932502
3 1134.34 1006510
3 1134.34 1000991
3 1134.34 995787
3 1134.34 994217
3 1134.95 988284
3 1134.95 984142
3 1134.95 983093
3 1134.95 978827
3 1134.95 976363
3 1134.95 975436
3 1134.95 964719
3 1134.95 961292
3 1135.61 959318
3 1135.61 957314
3 1135.61 956384
3 1135.61 952876
3 1135.61 952075
3 1136.08 938860
3 1136.08 937403
3 1136.45 933709
3 1136.78 922434
3 1136.78 916915
3 1136.78 914923
3 1148.12 1099159
3 1148.12 1095859
3 1148.12 1088970
3 1148.12 1071955
3 1148.12 1064625
3 1148.12 1062595
3 1148.12 1052439
3 1148.12 1049457
3 1148.12 1037812
3 1148.12 1007805
3 1148.12 1005272
3 1148.12 1000939
3 1148.12 994950
3 1148.79 981327
3 1148.79 971092
3 1148.79 964404
3 1148.79 952493
3 1149.48 952135
3 1162.13 1016117
3 1162.13 984844
3 1162.13 983096
3 1162.13 982154
3 1162.13 981680
3 1162.13 977427
3 1162.13 971908
3 1162.82 968823
3 1162.82 967556
3 1162.82 964448
3 1162.82 964115
3 1162.82 963519
3 1163.25 961269
3 1163.25 960406
3 1163.62 951008
3 1163.99 949741
3 1163.99 949272
3 1163.99 941927
3 1164.4 939801
3 1176.04 1134320
1 1176.04 1112718
3 1176.04 1111919
3 1176.04 1100315
3 1176.04 1099380
3 1176.04 1070208
3 1176.04 1064689
3 1176.04 1063485
3 1176.04 1060779
3 1176.04 1048510
3 1176.04 1045844
3 1176.04 1045040
3 1176.04 1040174
3 1176.04 1027393
3 1176.78 1026126
3 1176.78 1020180
3 1176.78 1014661
3 1176.78 1007973
3 1176.78 1004140
3 1177.25 995618
3 1177.6 979214
3 1177.6 973017
3 1177.6 961846
3 1177.6 959549
3 1177.6 955158
3 1178.73 951049
3 1178.73 950222
3 1178.73 949268
3 1179.36 948001
3 1185.47 944619
3 1185.81 937627
3 1185.81 936826
3 1185.81 934021
3 1186.81 932754
3 1188.69 931711
3 1189.03 930570
3 1190.27 1010531
3 1190.27 996590
3 1190.27 986134
3 1190.27 976905
3 1190.27 975767
3 1190.27 974588
3 1190.27 965841
3 1190.82 964630
3 1190.82 963954
3 1190.82 958078
3 1190.82 950398
3 1190.82 947328
3 1190.82 942155
3 1190.82 941663
3 1191.34 936333
3 1191.7 931821
3 1191.7 930954
3 1193.09 929495
3 1193.09 924484
3 1193.09 923683
3 1193.52 922611
3 1193.52 920035
3 1194.22 910322
3 1194.68 909887
3 1195.38 909479
3 1195.83 905146
3 1204.02 1104959
3 1204.02 1053637
3 1204.02 1041725
3 1204.02 1021060
3 1204.02 1016177
1 1204.02 1012778
3 1204.02 992215
3 1204.02 969583
3 1204.02 967332
3 1204.02 959804
3 1204.68 958689
3 1204.68 956326
1 1205.4 947804
3 1205.74 947035
3 1205.74 944459
3 1205.74 944058
3 1205.74 941607
3 1218.06 1073283
3 1218.06 1064699
3 1218.06 1063432
3 1218.06 1061014
3 1218.06 1054892
3 1218.06 1042514
3 1218.06 1019864
3 1218.65 997618
3 1218.65 992244
3 1218.65 985585
3 1218.65 980815
3 1218.65 967060
3 1219.07 966132
3 1219.07 958250
3 1221.35 936957
3 1221.35 936788
3 1221.35 936639
3 1221.75 934594
3 1221.75 934068
3 1232.07 1116005
3 1232.07 1104902
3 1232.07 1091534
3 1232.07 1031275
3 1232.07 1021559
3 1232.07 1019681
3 1232.07 1015101
3 1232.07 993444
3 1232.07 980869
3 1232.07 979602
3 1232.63 977164
3 1232.63 970286
3 1232.63 965953
3 1232.63 963062
3 1233.06 960953
3 1233.4 956759
3 1234.04 954058
3 1234.04 952345
3 1236.32 951745
3 1237.59 950430
3 1246.22 1064958
3 1246.22 1042954
3 1246.22 1035235
3 1246.22 1033678
3 1246.22 1015796
3 1246.22 1012996
3 1246.22 1009022
3 1246.22 999552
3 1246.22 999257
3 1246.86 987612
3 1248.19 977034
3 1248.19 976509
3 1248.19 965222
3 1248.19 953849
3 1249.99 952468
3 1250.34 948723
3 1250.34 947075
3 1260.03 1085850
3 1260.03 1067381
3 1260.03 1047219
3 1260.03 1037995
3 1260.03 1033304
3 1260.03 1022711
3 1260.03 987120
3 1260.03 980645
3 1260.03 977565
3 1260.7 973938
3 1261.08 970230
3 1261.08 969576
3 1261.08 964884
3 1261.62 960472
3 1261.62 950426
3 1262.33 950135
3 1262.69 942609
3 1263.08 941808
3 1263.08 941421
1 1265.46 940682
3 1266.15 937810
3 1266.15 937009
3 1274.23 1068348
3 1274.23 1045175
3 1274.23 1036746
3 1274.23 1032082
3 1274.23 1029647
3 1274.23 1026569
3 1274.23 1014570
3 1274.23 1003005
3 1274.23 991258
3 1274.81 990488
3 1274.81 985924
3 1274.81 978224
3 1274.81 965645
3 1275.29 965439
3 1275.29 964172
3 1275.29 960796
3 1275.29 955483
3 1275.29 952493
3 1275.8 949861
3 1275.8 947453
3 1275.8 945241
3 1275.8 938823
3 1277.55 936611
3 1288.27 1055201
3 1288.27 1041962
3 1288.27 1001416
3 1288.27 996800
3 1288.27 995557
3 1288.75 993935
3 1288.75 991016
3 1288.75 990627
3 1288.75 989360
3 1288.75 985602
3 1288.75 981271
3 1289.24 978116
3 1289.24 972221
3 1289.64 969014
3 1289.64 961435
3 1290.03 959952
3 1291 955872
3 1292.61 946763
3 1292.61 945562
3 1293.28 944419
3 1293.28 943811
3 1294.63 941367
3 1294.98 941310
3 1295.37 940566
3 1302.29 1085764
3 1302.29 1076765
3 1302.29 1061235
3 1302.29 1041806
3 1302.29 1032671
1 1302.29 1027793
3 1302.29 1013385
3 1302.29 1002389
3 1302.29 994753
3 1302.29 987608
3 1302.29 987059
3 1302.29 983063
3 1302.29 956095
3 1302.95 949703
3 1309.64 948572
3 1309.64 924148
3 1309.64 923347
1 1310.7 919171
3 1311.05 918516
3 1311.05 917990
3 1311.43 916826
3 1311.43 915581
3 1311.43 911823
3 1314.37 905739
3 1314.71 904472
3 1314.71 902038
3 1314.71 901752
3 1316.12 989323
3 1316.12 988460
3 1316.12 988158
3 1316.12 976100
3 1316.91 972023
3 1316.91 959423
3 1316.91 945219
3 1317.33 941838
3 1317.33 940571
3 1317.33 937766
3 1318.03 936161
3 1318.69 934890
3 1320.29 933448
3 1320.29 932188
3 1322.27 930423
3 1322.92 929799
3 1330.26 1105687
3 1330.26 1092275
3 1330.26 1082364
3 1330.26 1056684
3 1330.26 1053396
3 1330.26 1028431
3 1330.26 1016367
3 1330.26 1001859
3 1330.84 997527
3 1330.84 996180
3 1330.84 987748
3 1330.84 987216
3 1330.84 984413
3 1331.31 984200
3 1331.31 980441
3 1331.69 972970
3 1331.69 971929
3 1331.69 970216
3 1332.41 964657
3 1332.41 960668
3 1332.41 958622
3 1335.69 958023
3 1335.69 955547
3 1335.69 953552
3 1344.41 1082936
3 1344.41 1043401
3 1344.41 1040407
3 1344.41 1037882
3 1344.41 1036615
3 1344.41 1035219
3 1344.41 1035179
3 1344.41 1031421
3 1344.41 1030999
3 1344.41 1020922
3 1344.41 1012376
3 1345.29 1003250
3 1345.29 994429
3 1345.88 990096
3 1345.88 989748
3 1345.88 989295
3 1346.45 985496
3 1346.95 972715
1 1346.95 964475
3 1346.95 963640
3 1346.95 962638
3 1347.55 961371
3 1348.06 953491
3 1348.06 953447
3 1349.05 952628
1 1353.29 951470
3 1354.29 946838
3 1354.29 945950
3 1354.29 945149
3 1354.29 945109
3 1355.36 941522
3 1356.02 941488
3 1356.02 940659
3 1358.3 1069701
3 1358.3 1060694
3 1358.3 1041908
3 1358.3 1038692
3 1358.3 1033585
3 1358.3 1026508
3 1358.3 1012031
3 1358.3 1011230
3 1358.3 1007179
3 1358.3 991206
3 1358.3 981785
3 1358.3 975764
3 1358.95 974296
3 1358.95 973481
3 1358.95 972345
3 1359.36 958437
3 1359.36 958344
3 1359.36 954245
3 1359.36 948262
3 1359.36 938861
3 1359.81 935379
3 1360.84 934160
3 1361.19 933836
3 1362.46 932569
3 1372.3 1045551
3 1372.3 1043527
3 1372.3 1043377
3 1372.3 1035561
3 1372.3 1023063
3 1372.3 1016066
3 1372.3 1015306
3 1372.3 1008532
3 1373.08 999360
3 1373.08 987715
3 1373.08 984898
3 1373.08 979177
3 1373.08 972980
3 1373.08 972929
3 1373.08 971796
3 1373.79 971750
3 1373.79 966739
3 1373.79 961220
3 1373.79 960189
3 1373.79 957978
3 1373.79 953992
3 1373.79 952725
3 1374.54 948777
3 1375.05 944011
3 1375.05 942778
3 1386.04 1069337
3 1386.04 1021844
3 1386.04 1017511
3 1386.04 1002343
3 1386.04 987404
3 1386.04 975810
3 1386.74 970291
3 1387.75 963779
3 1388.27 962357
3 1393.13 957008
3 1393.13 954938
3 1393.13 952607
3 1393.68 947088
3 1393.68 946366
3 1400.33 1154918
3 1400.33 1120223
3 1400.33 1090116
3 1400.33 1067592
3 1400.33 1055226
3 1400.33 1046384
3 1400.33 1042051
3 1401.07 1034290
3 1401.07 1029758
3 1401.07 1023936
3 1401.07 1020178
3 1401.07 1004243
3 1401.07 998197
3 1401.07 997048
3 1401.78 985457
3 1401.78 980238
3 1402.33 972299
3 1402.33 969348
3 1402.33 968088
3 1402.91 957754
3 1403.44 956590
3 1403.93 954998
3 1403.93 954197
3 1404.96 949566
3 1408.72 945487
3 1408.72 939787
3 1414.28 1109910
3 1414.28 1106543
3 1414.28 1101807
3 1414.28 1091598
3 1414.28 1075246
3 1414.28 1056608
3 1414.28 1056460
3 1414.28 1044191
3 1414.28 1044105
3 1414.28 1042054
3 1414.28 1032991
3 1414.28 999999
3 1414.28 996444
3 1415.14 993136
3 1415.14 986078
3 1415.14 984457
3 1415.14 981226
3 1415.14 975503
3 1415.14 974785
3 1415.14 974396
3 1415.14 969502
3 1415.14 969075
3 1415.91 967904
3 1415.91 961707
3 1415.91 957374
1 1420.2 951703
3 1420.69 948852
3 1428.11 1039132
3 1428.11 1018970
3 1428.11 1012199
3 1428.11 1010256
3 1428.11 1007313
3 1428.11 1007261
3 1428.11 1005701
3 1428.11 1005424
3 1428.11 990752
3 1428.86 975364
1 1428.86 974701
3 1429.4 973953
3 1429.4 951506
3 1429.95 950239
3 1429.95 938931
3 1431.91 938426
3 1432.44 934717
3 1432.44 934093
3 1442.09 1047408
3 1442.09 1029840
3 1442.09 1016009
3 1442.09 1015803
3 1442.09 1007869
3 1442.74 1002400
3 1442.74 988328
3 1442.74 982937
3 1442.74 979808
3 1443.34 975038
3 1443.34 974729
3 1443.34 973914
3 1443.34 967717
3 1443.95 967246
3 1443.95 961111
1 1446.33 959437
3 1446.33 958430
3 1446.33 954672
3 1447.36 953067
3 1447.89 951126
3 1449.33 941851
3 1449.33 938857
3 1454.64 937590
3 1455.64 932785
3 1456.14 1117245
3 1456.14 1099552
3 1456.14 1066560
3 1456.14 1063351
3 1456.14 1045854
3 1456.14 1039728
3 1456.14 1039080
3 1456.14 1017423
3 1456.88 1010735
3 1456.88 996577
3 1456.88 995806
3 1456.88 988773
3 1456.88 986589
3 1456.88 980107
3 1456.88 969187
3 1458.04 968187
3 1458.53 964854
3 1459.03 956833
3 1459.54 950058
3 1459.54 949820
3 1459.54 945487
3 1461.04 943860
3 1461.99 943077
3 1470.4 1035146
3 1470.4 1033270
3 1470.4 1024364
3 1470.4 1006671
3 1470.4 1002338
3 1470.4 990744
3 1470.4 981687
3 1470.4 978475
3 1470.4 974894
3 1470.4 972068
3 1471.2 959102
3 1471.2 957806
3 1471.2 951965
3 1471.2 949544
3 1471.81 946375
3 1471.81 944147
3 1472.33 937203
3 1472.33 932928
3 1472.86 932338
3 1472.86 927469
3 1473.37 925195
3 1484.21 1005495
3 1484.21 1004115
3 1484.21 1002899
3 1484.21 993120
1 1484.21 983140
3 1484.21 968843
3 1484.9 968468
3 1485.42 966202
3 1485.42 960449
3 1485.42 956823
3 1487.41 956760
3 1487.41 949321
3 1487.96 942008
3 1487.96 940053
3 1498.16 997285
3 1498.16 990847
3 1498.16 990435
3 1498.16 990123
3 1498.16 990077
3 1498.16 985241
3 1498.16 979600
3 1498.76 972826
3 1499.1 970754
3 1500.15 964506
3 1500.15 962370
3 1500.15 959933
3 1500.15 959825
3 1501.04 950498
3 1501.04 949697
3 1502.37 949684
3 1502.37 949139
3 1502.37 944806
3 1502.37 943539
3 1502.37 940682
3 1502.84 939670
3 1503.18 933908
3 1512.29 1084631
3 1512.29 1055076
3 1512.29 1024969
3 1512.29 1020636
3 1512.29 989265
3 1512.29 982491
3 1512.29 976326
3 1512.29 975318
3 1512.29 969804
3 1512.9 969003
3 1512.9 964670
3 1513.9 959047
3 1513.9 957780
3 1514.29 949774
3 1514.64 948515
3 1517.58 948001
3 1526.02 1088565
3 1526.02 1057753
3 1526.02 1047488
3 1526.02 1041747
3 1526.02 1020090
3 1526.02 1011569
3 1526.02 997193
3 1526.02 995715
3 1526.66 993522
3 1526.66 992659
3 1526.66 987876
3 1526.66 976924
3 1526.66 970191
3 1526.66 968990
3 1526.66 967215
3 1526.66 962469
3 1526.66 955781
3 1527.63 949709
3 1527.63 948571
3 1527.63 948400
3 1527.63 944857
3 1530.86 941198
3 1531.43 939692
3 1531.43 938638
3 1531.43 936815
3 1531.43 926468
3 1540.6 1137529
3 1540.6 1133196
3 1540.6 1124293
3 1540.6 1090088
3 1540.6 1077488
3 1540.6 1064120
3 1540.6 1056075
3 1540.6 1043806
3 1540.6 1039473
3 1541.23 1031564
3 1541.23 1020694
3 1541.23 1018783
1 1541.23 1014403
3 1541.23 1008884
3 1541.23 1007617
3 1541.76 1001648
3 1541.76 993392
3 1541.76 991018
3 1542.19 983544
3 1542.19 981239
1 1542.57 963491
3 1542.57 962920
3 1542.57 953549
3 1543.01 952211
3 1543.37 949373
3 1543.37 945615
3 1543.75 941303
3 1543.75 939339
3 1543.75 938476
3 1543.75 935873
3 1543.75 933666
3 1544.22 932957
3 1554.19 1071259
3 1554.19 1053253
3 1554.19 1040687
3 1554.19 1028130
3 1554.19 1019841
3 1554.19 1013153
3 1554.19 1009479
3 1554.19 1007812
3 1554.19 1002117
3 1554.19 999878
3 1554.19 985832
3 1555.1 982112
3 1555.1 979442
3 1555.1 978329
3 1555.1 973923
3 1555.77 970930
3 1555.77 966520
3 1555.77 965520
3 1555.77 964846
3 1556.86 962668
3 1557.38 952408
3 1557.38 949126
3 1557.38 948270
3 1557.38 945720
3 1559.58 944669
3 1559.58 939685
3 1560.01 932448
3 1560.01 930365
3 1560.01 929564
3 1560.45 927970
3 1560.45 927024
3 1560.45 926970
3 1560.45 922485
3 1561.01 921574
3 1561.75 921218
3 1568.12 1039520
3 1568.12 1017873
3 1568.12 1002557
3 1568.12 994079
3 1568.12 987391
3 1568.12 986453
3 1568.12 982769
3 1568.12 982319
3 1568.79 981298
3 1568.79 973364
3 1568.79 963285
3 1568.79 962018
3 1569.38 960879
3 1569.38 960080
3 1569.38 956833
3 1582.34 1132028
3 1582.34 1105765
3 1582.34 1085723
3 1582.34 1050869
3 1582.34 1012815
3 1582.34 1011702
3 1582.34 1008187
3 1582.34 1006127
3 1582.98 995024
3 1582.98 990757
3 1582.98 990615
3 1582.98 985238
3 1582.98 983314
3 1583.81 981869
3 1583.81 977536
3 1584.54 975903
3 1584.54 969706
3 1584.54 968958
3 1585.02 968157
3 1586.78 966156
3 1586.78 965524
3 1587.47 964257
3 1588.16 962488
3 1588.16 960949
3 1588.16 959483
3 1588.16 952709
3 1588.61 952004
3 1588.95 951203
3 1596.34 1035001
3 1596.34 1005170
3 1596.34 1003616
3 1596.34 998846
3 1596.34 997248
3 1596.34 993503
3 1596.34 982416
3 1596.34 980344
3 1596.96 978140
3 1596.96 966027
3 1596.96 960802
3 1596.96 959253
3 1597.74 957106
3 1597.74 953798
3 1598.15 952826
3 1598.88 949797
3 1599.23 949483
3 1599.23 948116
3 1599.23 948068
3 1599.65 945810
3 1599.65 945764
3 1600.11 944427
3 1600.11 942982
3 1600.11 941715
3 1600.11 940656
3 1600.56 940448
3 1600.56 939384
3 1600.96 938719
3 1600.96 935626
3 1601.38 934763
3 1610.14 1109633
3 1610.14 1106433
3 1610.14 1083773
3 1610.14 1049298
3 1610.14 1048182
3 1610.14 1043508
3 1610.14 1039750
3 1610.14 1036672
3 1610.14 1030846
3 1610.14 1022912
3 1610.14 1022111
3 1610.79 1020695
3 1610.79 1007786
3 1610.79 1003325
1 1611.27 988372
3 1611.27 981633
3 1611.27 971483
3 1611.75 970039
3 1611.75 953582
3 1611.75 948312
3 1612.23 947418
3 1612.63 946584
3 1624.05 1072397
3 1624.05 1065467
3 1624.05 1061933
3 1624.05 1037507
3 1624.05 1007400
3 1624.05 998846
3 1624.05 998355
3 1624.05 990421
3 1624.62 971635
3 1624.62 970834
3 1624.62 968411
3 1625.76 958836
3 1626.15 958268
3 1626.15 958026
3 1626.15 951829
1 1638.12 1038654
3 1638.12 1021134
3 1638.12 1014144
3 1638.12 1012351
3 1638.12 1002908
3 1638.12 1001432
3 1638.73 996373
3 1638.73 996045
3 1638.73 995264
3 1638.73 993256
3 1638.73 981662
3 1639.55 978939
3 1639.55 975343
3 1639.94 972789
3 1639.94 972075
3 1639.94 969824
3 1647.63 969244
3 1647.63 968551
3 1650.61 965557
1 1651.13 948098
3 1651.13 946831
3 1652.15 1075555
3 1652.15 1068529
3 1652.15 1062036
3 1652.15 1057266
3 1652.15 1056615
3 1652.15 1037829
3 1652.15 1035537
3 1652.15 1004891
3 1652.15 1001637
3 1652.15 985320
3 1652.15 978085
3 1652.15 963264
3 1653.05 958931
3 1653.05 957648
3 1653.59 955642
3 1653.59 949265
3 1654.12 947383
3 1666.31 1040530
3 1666.31 1039620
3 1666.31 1014144
3 1666.31 985121
3 1666.31 973476
3 1666.31 966431
3 1666.31 956509
3 1667.94 955242
3 1668.44 951049
3 1668.44 948762
3 1668.44 948444
3 1669.01 945530
3 1669.53 943627
3 1669.53 938511
3 1670.08 937834
3 1670.58 936919
3 1670.58 930231
3 1673.39 927935
3 1673.88 926240
3 1680.41 1130529
3 1680.41 1117748
3 1680.41 1095205
3 1680.41 1084102
3 1680.41 1069716
3 1680.41 1066409
3 1680.41 1040593
3 1680.41 1038065
3 1680.41 1033905
3 1681.19 1033732
3 1681.19 1025315
3 1681.72 1007521
3 1681.72 994153
3 1682.71 963630
3 1682.71 962492
3 1682.71 954279
3 1682.71 951775
3 1684.22 949894
3 1684.71 947442
3 1694.06 1076517
3 1694.06 1046812
3 1694.06 1045545
3 1694.06 1044578
3 1694.06 1027045
3 1694.06 1021702
3 1694.06 1014877
3 1694.6 1006912
3 1694.6 998842
3 1695 991076
3 1695 983440
3 1695 982173
3 1695 977939
1 1695 968958
3 1695 965671
3 1695.54 963267
3 1695.89 958497
1 1705.92 952449
3 1706.28 947410
3 1706.63 946826
3 1706.63 945761
3 1707.32 939103
3 1707.32 938959
3 1707.69 938331
3 1708.08 1119838
1 1708.08 1109573
3 1708.08 1094068
3 1708.08 1088675
3 1708.08 1077081
3 1708.08 1069992
3 1708.08 1047238
3 1708.08 1030004
3 1708.08 1015503
3 1708.08 1012311
3 1708.74 1010099
3 1708.74 1009451
3 1708.74 1009005
3 1708.74 1004129
1 1708.74 997898
3 1709.22 993579
3 1709.22 974203
3 1710.26 969334
3 1710.93 962646
3 1712.26 955022
3 1712.61 954159
3 1722.06 1091699
1 1722.06 1083596
3 1722.06 1064370
3 1722.06 1052776
3 1722.06 1035695
3 1722.06 1023095
3 1722.06 1019793
3 1722.06 995193
3 1722.06 994919
3 1722.06 986862
3 1722.67 972190
3 1722.67 971389
3 1722.67 969227
3 1723.11 961422
1 1725.39 956645
3 1725.73 951345
3 1732.36 946114
3 1732.71 945651
3 1733.05 941893
3 1736.2 1070665
3 1736.2 1062718
3 1736.2 1028952
3 1736.2 1018263
1 1736.2 1014052
3 1736.2 1009507
3 1736.2 1004539
3 1736.2 1001130
3 1736.2 996055
3 1736.73 995577
3 1736.73 990807
3 1737.11 986474
3 1737.11 985673
3 1737.11 982596
3 1737.11 981843
3 1737.55 981329
3 1737.55 974506
3 1737.94 965546
3 1737.94 949229
3 1737.94 945507
3 1738.35 936516
3 1738.35 933946
3 1739.38 930811
3 1739.38 930564
3 1739.38 929156
3 1739.78 928628
3 1739.78 928355
3 1741.06 926204
3 1741.06 924441
3 1742.95 924123
3 1750.03 1024459
3 1750.03 1023783
3 1750.03 1015849
3 1750.03 1008859
3 1750.03 997292
3 1750.03 991773
3 1750.03 986726
3 1750.03 984857
3 1750.03 972588
3 1750.59 970361
3 1750.59 962086
3 1750.98 955474
3 1751.34 955312
3 1751.69 954207
3 1753 951858
3 1754.72 951449
3 1754.72 949614
3 1755.29 947088
3 1764.44 1108385
3 1764.44 1078322
3 1764.44 1058236
3 1764.44 1058160
3 1764.44 1018226
3 1764.44 995085
3 1764.44 988832
3 1764.44 988397
3 1764.44 985789
3 1765.24 984988
3 1766.69 981935
3 1766.69 976803
3 1767.22 969954
3 1767.22 964112
3 1767.22 937725
3 1772.42 934003
3 1778.01 1062412
3 1778.01 1056215
3 1778.01 1038522
3 1778.01 1011950
3 1778.01 997104
3 1778.01 984835
3 1778.01 982719
3 1778.74 979963
3 1778.74 966240
3 1778.74 965998
3 1778.74 959801
3 1778.74 959346
3 1778.74 958545
3 1780.8 949894
3 1781.3 947442
3 1781.3 946913
3 1786.37 946271
3 1786.85 944523
3 1788.31 943843
3 1788.8 941732
3 1789.28 938550
3 1789.76 937749
3 1792.16 1162747
3 1792.16 1151644
3 1792.16 1126904
3 1792.16 1108515
3 1792.16 1107449
3 1792.16 1100507
3 1792.16 1069022
3 1792.16 1045153
3 1792.16 1034054
3 1792.16 1027857
3 1792.16 1021169
3 1793 1014309
3 1793 1013508
3 1793.54 994637
3 1793.54 988570
3 1793.54 984944
3 1794.08 977973
3 1795.04 977266
3 1795.55 976880
3 1796.93 973350
1 1802.56 967645
3 1803.05 954058
3 1803.05 942461
3 1804.47 938794
3 1805.88 933878
3 1806.38 1007539
3 1806.38 1002207
3 1806.38 1002015
3 1806.96 983221
3 1806.96 983087
3 1806.96 981627
3 1806.96 979857
3 1806.96 973937
3 1806.96 970937
3 1807.71 968399
3 1807.71 967715
3 1808.23 955446
3 1808.23 954870
3 1820.27 1102223
3 1820.27 1075291
3 1820.27 1044282
3 1820.27 1039348
3 1820.27 1028960
3 1820.27 1010322
3 1820.27 993009
3 1820.27 981990
3 1821.51 972297
3 1822.02 971592
3 1822.02 970975
3 1822.56 970005
3 1822.56 968427
3 1822.56 965382
3 1822.56 946089
3 1822.56 940268
3 1823.18 939097
3 1826.37 935253
3 1826.37 935037
3 1826.88 932409
3 1834.19 1133619
3 1834.19 1125516
3 1834.19 1115737
3 1834.19 1104634
3 1834.19 1096429
3 1834.19 1073962
3 1834.19 1062703
3 1834.19 1055224
3 1834.19 1040552
3 1834.19 1036807
3 1834.19 1031532
3 1834.19 1030859
3 1834.19 1026273
3 1835.08 1008658
3 1835.59 990882
3 1835.59 989872
3 1836.59 989071
1 1838.91 969909
3 1839.43 966754
3 1839.43 965799
3 1839.43 962764
3 1839.43 953875
3 1840.04 953115
3 1840.04 953011
3 1840.57 942114
3 1840.57 938886
3 1841.09 937625
3 1841.57 935222
3 1842.05 934165
1 1848.38 1075794
3 1848.38 1028177
3 1848.38 1023423
3 1848.38 1012752
3 1848.38 1010112
3 1848.38 1009311
3 1848.38 1005829
3 1848.38 997726
3 1848.38 996438
3 1848.38 990241
3 1848.38 985795
3 1848.38 981865
3 1848.38 980048
3 1849.73 974594
3 1849.73 974263
3 1849.73 970335
3 1849.73 969930
3 1850.79 968602
3 1850.79 962399
3 1850.79 961735
3 1851.36 960934
3 1851.36 959228
3 1851.88 958823
3 1856.81 957801
3 1856.81 953468
3 1857.22 953331
3 1857.56 952272
3 1857.56 949092
3 1858.29 948291
3 1860.81 945927
3 1860.81 945230
3 1861.75 942094
3 1862.08 1155514
3 1862.08 1148197
3 1862.08 1133857
3 1862.08 1102486
3 1862.08 1095712
3 1862.08 1081488
3 1862.08 1062702
3 1862.08 1051108
3 1862.63 1042759
3 1862.63 1041958
3 1862.63 1033769
3 1862.63 1030850
3 1862.63 1021553
3 1862.63 995344
3 1862.63 981276
3 1862.63 979155
3 1863.19 978157
3 1863.19 977555
3 1863.19 975510
3 1863.19 974233
3 1863.19 968812
3 1863.62 963293
3 1863.99 962163
3 1863.99 954440
3 1864.36 953639
3 1864.73 953596
3 1864.73 947442
3 1870.14 946441
3 1870.48 946271
3 1871.47 945266
3 1871.47 944523
3 1872.84 937749
3 1876.14 1088324
3 1876.14 1044992
3 1876.14 1041684
3 1876.14 1040625
3 1876.14 1025953
3 1876.14 1004753
3 1876.14 1003199
3 1876.14 1001324
3 1876.14 972760
3 1877.11 964238
3 1877.11 962414
3 1877.11 960750
3 1877.52 959352
3 1877.88 957524
3 1877.88 954589
3 1877.88 951883
3 1880.53 944156
3 1880.89 939831
3 1881.25 939823
3 1883.42 939818
3 1884.73 938495
3 1885.08 938409
3 1890.25 1165582
3 1890.25 1122045
3 1890.25 1103259
3 1890.25 1073942
3 1890.25 1045468
3 1890.25 1027296
3 1890.25 1020642
3 1890.25 1010528
3 1890.25 1005045
3 1890.88 998443
3 1890.88 990250
3 1890.88 987544
3 1890.88 967814
3 1891.31 962633
3 1891.31 961804
3 1891.31 959723
3 1891.69 957021
3 1904.16 1046646
3 1904.16 1045567
3 1904.16 1027214
3 1904.16 1022954
3 1904.16 1018480
3 1904.16 1015569
3 1904.16 1006644
3 1904.16 1002405
3 1904.16 996219
3 1904.16 992933
3 1904.16 990022
3 1905.05 987377
3 1905.05 987131
3 1905.05 979271
3 1905.05 966969
3 1905.05 956473
3 1905.05 955339
3 1905.05 951488
3 1905.74 943554
1 1905.74 938754
3 1905.74 937891
3 1905.74 934463
3 1905.74 932613
3 1905.74 931572
3 1906.4 930416
3 1906.4 921953
3 1907.39 920002
3 1907.88 917620
3 1918.04 1142072
3 1918.04 1127400
3 1918.04 1107238
3 1918.04 1091993
3 1918.04 1079277
3 1918.04 1078372
3 1918.04 1077571
3 1918.04 1069159
3 1918.04 1047502
3 1918.85 1044304
3 1918.85 1043037
3 1918.85 1036349
3 1918.85 1030830
3 1918.85 1022308
3 1918.85 1019143
3 1918.85 1012975
3 1918.85 1004311
3 1919.61 1003044
3 1919.61 1000358
3 1919.61 988764
3 1919.61 988678
3 1919.61 978985
3 1920.28 972297
3 1920.28 964768
3 1920.28 962156
3 1920.84 957823
1 1925.52 954020
3 1926.53 951064
3 1927.09 946817
3 1927.09 945545
3 1932.31 1004018
3 1932.31 981151
3 1932.31 973951
3 1932.31 973130
3 1932.31 963881
3 1932.31 954699
3 1932.31 951676
3 1933 951307
3 1933.48 945206
3 1933.48 944952
3 1933.99 944533
3 1939.83 943469
3 1939.83 942670
3 1940.84 940772
3 1940.84 939971
3 1941.39 937732
3 1946.14 1029304
3 1946.14 1025103
3 1946.14 1019068
3 1946.14 1012141
3 1946.14 1007474
3 1946.14 1007411
3 1946.14 1005528
3 1946.14 997594
3 1946.14 989862
3 1946.14 971158
3 1946.14 963151
3 1946.14 956244
3 1946.14 949918
3 1947.05 946999
3 1947.05 940651
3 1947.05 932543
3 1947.61 930957
3 1947.61 928407
3 1947.61 924131
3 1948.16 923796
3 1948.66 922933
3 1960.12 1052385
3 1960.12 1045873
3 1960.12 1045818
3 1960.12 1040299
3 1960.12 1036745
3 1960.12 1024125
3 1960.12 1017624
1 1960.12 1013994
3 1960.91 1008475
3 1960.91 1007621
3 1961.46 981390
3 1961.46 979738
3 1961.46 979077
3 1961.46 978552
3 1961.46 969126
3 1962.1 958839
3 1962.1 954506
3 1962.1 952590
3 1962.64 949859
3 1962.64 944137
3 1963.17 939989
3 1963.17 935811
3 1974.27 1031823
3 1974.27 1028667
1 1974.27 999368
3 1974.27 995008
3 1974.27 991663
3 1974.27 989489
3 1974.99 988579
3 1974.99 988071
3 1974.99 979801
3 1974.99 967499
3 1974.99 962401
3 1974.99 957631
3 1975.64 955024
3 1975.64 938491
3 1975.64 935521
3 1988.4 1111334
3 1988.4 1105137
3 1988.4 1069546
3 1988.4 1033497
3 1988.4 1026739
3 1988.4 1022461
3 1988.4 1016922
3 1988.4 1012734
3 1988.4 1011933
3 1988.4 1003675
3 1988.4 996635
3 1988.4 996548
3 1988.4 993563
3 1989.33 989730
3 1989.33 987292
3 1989.33 986676
3 1989.89 985679
3 1989.89 980160
3 1989.89 979972
3 1990.47 974171
3 1991.44 963006
3 1993.85 957942
3 1994.36 952737
3 1994.85 951307
3 1995.36 950040
3 2002.39 1103798
3 2002.39 1092450
3 2002.39 1088117
3 2002.39 1062301
3 2002.39 1059201
3 2002.39 1045266
1 2003.08 1036744
3 2003.08 1026965
3 2003.08 1026164
3 2003.08 1014758
3 2003.08 1012263
3 2003.08 1004507
3 2003.74 988866
3 2003.74 984533
3 2003.74 973617
3 2003.74 972888
3 2003.74 972515
3 2003.74 961707
3 2003.74 957374
3 2004.44 954871
3 2004.93 946937
3 2005.44 946271
3 2006.39 944523
3 2006.39 940661
3 2006.89 937749
3 2016.06 1138040
3 2016.06 1136773
3 2016.06 1125670
3 2016.06 1088646
3 2016.06 1085982
3 2016.06 1084982
3 2016.06 1070310
3 2016.06 1069509
3 2016.06 1066176
3 2016.06 1059488
3 2016.06 1023897
3 2016.88 1022761
3 2016.88 1012109
3 2016.88 1000843
3 2016.88 1000424
3 2017.49 984755
3 2017.49 982744
3 2018.03 977585
1 2018.03 973031
3 2018.03 970536
3 2018.6 968169
3 2018.6 954329
3 2018.6 950931
3 2018.6 949559
3 2018.6 941528
3 2019.09 940727
3 2019.09 939527
3 2019.78 939286
3 2019.78 933951
3 2019.78 933215
3 2020.17 932684
3 2020.51 932252
3 2020.86 928432
3 2020.86 927835
3 2020.86 926709
3 2026.38 926055
3 2030.06 970824
3 2030.06 970393
3 2030.06 966491
3 2030.06 963866
3 2030.06 962599
3 2030.55 962249
3 2030.55 952470
3 2031.56 952155
3 2031.91 951085
3 2031.91 950770
3 2032.3 948249
3 2032.3 946973
3 2032.67 946188
3 2044.18 1027116
3 2044.18 1026193
3 2044.18 1009616
3 2044.18 995282
3 2044.18 979034
3 2044.18 955333
3 2044.18 954124
3 2044.71 951248
3 2044.71 943629
3 2044.71 943231
3 2045.1 940387
3 2045.51 936730
3 2045.87 936081
3 2045.87 935849
3 2046.25 935342
3 2046.25 934582
3 2046.25 930249
3 2048.2 929761
3 2048.55 929063
3 2048.55 928733
3 2049.92 928706
3 2051.23 927334
3 2058.17 1027129
3 2058.17 1017647
3 2058.17 1017600
3 2058.17 997860
3 2058.17 991315
3 2058.17 981465
3 2058.17 975430
3 2058.72 961487
3 2058.72 960257
3 2058.72 952290
3 2058.72 948626
3 2059.17 943877
3 2059.51 943786
3 2059.51 936981
3 2059.88 934448
3 2060.22 933056
3 2060.22 931377
3 2060.22 930790
3 2060.62 930110
3 2072.29 1099362
3 2072.29 1092674
3 2072.29 1057446
3 2072.29 1045185
3 2072.29 1032283
3 2072.29 1031016
3 2072.29 1021237
3 2072.29 1011637
3 2072.86 1003231
3 2072.86 995452
3 2072.86 986738
3 2072.86 975635
3 2072.86 974772
3 2072.86 971014
3 2073.32 953895
3 2073.32 953091
3 2073.98 952228
3 2080.49 950275
3 2085.64 948366
3 2086.3 1120128
3 2086.3 1113931
3 2086.3 1082976
3 2086.3 1078340
3 2086.3 1058178
3 2086.3 1051251
3 2086.3 1017042
3 2086.3 1015798
3 2086.3 1015065
1 2086.3 1007500
3 2086.3 1000812
3 2086.96 988543
3 2086.96 978188
3 2086.96 966512
3 2087.37 966304
3 2087.37 959979
3 2087.37 959764
3 2087.78 956006
3 2087.78 951862
3 2089.41 946512
3 2089.74 941910
3 2089.74 941597
3 2100.1 1035352
3 2100.1 1031019
3 2100.1 1019374
3 2100.1 1018320
3 2100.1 997486
3 2100.1 975829
3 2100.1 967035
3 2100.1 965202
3 2100.64 960432
3 2100.64 955552
3 2113.67 952317
1 2113.67 947611
3 2113.67 944718
3 2113.67 941414
3 2114.13 1076392
3 2114.13 1069704
3 2114.13 1060576
3 2114.13 1038033
3 2114.13 1037805
3 2114.13 1025252
3 2114.13 1022059
3 2114.13 1019012
3 2114.13 1016136
3 2114.13 1013486
3 2114.74 1000940
3 2114.74 1000118
3 2114.74 998784
3 2114.74 995228
3 2114.74 994832
3 2115.49 968800
3 2115.49 968235
3 2115.86 967986
3 2116.2 959920
3 2116.2 959121
3 2116.2 956833
3 2128.15 1082980
3 2128.15 1054416
3 2128.15 1042822
3 2128.15 1041074
3 2128.15 1034214
3 2128.15 999324
3 2128.15 999069
3 2128.15 976715
3 2128.15 975448
3 2128.15 973582
3 2129.02 972781
3 2129.02 969133
3 2129.02 963768
3 2129.02 963083
3 2129.64 962023
3 2129.64 960514
3 2129.64 956000
3 2129.64 954733
3 2129.64 950553
3 2130.8 949286
3 2130.8 948977
3 2131.83 946609
3 2132.33 943154
3 2132.33 939835
3 2132.33 937888
3 2133.36 936609
3 2133.36 934966
3 2133.36 933699
3 2142.15 1115177
3 2142.15 1114376
3 2142.15 1079408
3 2142.15 1076394
3 2142.15 1051655
3 2142.15 1025058
3 2142.15 985124
3 2142.9 979605
3 2142.9 976931
3 2142.9 970734
3 2142.9 969933
3 2143.53 963245
3 2144.5 953642
3 2145.01 938404
3 2145.01 937870
3 2145.01 936548
3 2145.6 936004
3 2145.6 935203
3 2146.13 932296
3 2147.12 931029
3 2148.56 923207
3 2149.51 922421
3 2156.2 1142406
3 2156.2 1096740
3 2156.2 1091084
3 2156.2 1074127
3 2156.2 1069794
3 2156.2 1068850
3 2156.2 1050968
3 2156.92 1035022
3 2157.48 1025744
3 2157.48 1004013
3 2158.08 1002863
3 2158.08 1001278
3 2158.61 1000393
3 2158.61 994182
3 2158.61 989290
3 2158.61 985097
3 2158.61 979578
3 2158.61 976509
3 2158.61 974618
3 2159.29 960534
3 2159.78 958630
3 2159.78 957528
3 2159.78 955674
3 2170.28 1014897
3 2170.28 998571
3 2170.28 997669
3 2170.28 991472
3 2170.28 984698
3 2170.28 977708
3 2170.28 976073
3 2170.28 974560
3 2170.28 968407
3 2171.59 965002
3 2172.53 960807
3 2172.53 953935
3 2174.05 951230
3 2174.05 950971
3 2184.5 1084331
3 2184.5 1040794
3 2184.5 1029149
3 2184.5 1022660
3 2184.5 1014877
3 2184.5 1004842
3 2184.5 1003094
3 2184.5 996320
3 2184.5 995975
3 2184.5 990155
3 2184.5 985822
3 2184.5 980445
3 2185.39 980316
3 2185.39 962623
3 2185.39 951604
3 2185.39 949907
3 2185.39 949217
3 2186.59 945880
3 2186.59 944645
3 2186.59 944613
3 2186.59 943798
3 2186.59 939399
3 2187.22 939023
3 2187.71 936919
3 2188.23 934668
3 2188.75 931537
3 2188.75 927525
3 2189.29 925058
3 2189.29 925037
3 2189.82 921300
3 2198.17 1075852
3 2198.17 1046488
3 2198.17 1037822
3 2198.17 1017660
3 2198.17 1006929
3 2198.17 997614
3 2198.17 996751
3 2198.17 989208
3 2198.17 988227
3 2198.17 978136
3 2199.01 973803
3 2199.01 967422
1 2199.59 967237
3 2199.59 951001
3 2199.59 949734
3 2199.59 940929
3 2199.59 937230
3 2200.74 934732
3 2212.42 1129745
3 2212.42 1121922
3 2212.42 1086331
3 2212.42 1085064
3 2212.42 1075368
3 2212.42 1065548
3 2212.42 1057912
3 2212.42 1053579
3 2212.42 1044775
3 2212.42 1038244
3 2212.42 1035350
3 2213.28 1034487
3 2213.28 1030051
3 2213.28 1015379
3 2213.28 1012903
3 2213.91 1011046
3 2213.91 1008170
3 2214.48 1002170
3 2214.48 994642
3 2216.08 993375
3 2216.6 984922
3 2217.11 970974
3 2226.22 1057026
3 2226.22 1048969
3 2226.22 1047060
3 2226.22 1034532
3 2226.22 1024273
3 2226.22 1023472
3 2226.89 1017170
3 2226.89 1004891
3 2226.89 1003624
3 2227.45 1002616
3 2227.45 1001815
3 2228.01 1001664
3 2228.01 993041
3 2228.01 986408
3 2228.01 983462
3 2229.57 976773
3 2230.09 974137
3 2230.6 967570
3 2230.6 962096
3 2231.13 960182
3 2231.13 959627
3 2231.65 959213
3 2232.15 957960
3 2234.87 955435
3 2240.32 1125234
3 2240.32 1116930
3 2240.32 1107737
3 2240.32 1076366
3 2240.32 1064772
3 2240.32 1025976
3 2240.32 1024009
3 2240.32 1017654
3 2240.32 1016853
3 2241.12 1015288
3 2241.12 988177
3 2241.12 987177
3 2241.12 969880
3 2241.12 969878
3 2241.12 969132
3 2241.84 966133
3 2241.84 957538
3 2241.84 956538
3 2241.84 956467
3 2241.84 945351
3 2242.47 942092
3 2242.47 940105
3 2242.47 939985
3 2243.93 929256
3 2254.18 1086510
3 2254.18 1055241
3 2254.18 1041723
3 2254.18 1040922
3 2254.18 1040470
3 2254.18 1017809
3 2254.18 1012742
3 2254.18 1005331
3 2254.18 1000998
3 2254.95 998984
3 2254.95 983844
3 2254.95 983425
3 2254.95 978354
3 2256.01 962569
3 2256.01 961768
3 2256.55 960125
3 2256.55 959684
3 2256.55 955080
3 2260.7 953746
3 2261.64 950784
3 2268.1 1156322
3 2268.1 1139289
3 2268.1 1127695
3 2268.1 1110002
3 2268.1 1063926
3 2268.1 1051058
3 2268.1 1036431
3 2268.1 1036089
3 2268.1 1012801
3 2268.1 1008231
3 2268.1 995612
3 2268.1 987484
3 2268.1 982434
3 2268.1 975872
3 2269.07 970840
3 2269.07 965444
3 2269.07 961200
3 2269.07 960399
3 2270.21 958571
3 2270.21 953266
3 2270.21 951883
3 2278.46 947874
3 2278.97 946015
3 2279.48 941206
3 2279.48 939922
3 2279.48 939823
3 2281.01 938495
3 2282.07 1097448
3 2282.07 1097266
3 2282.07 1095999
3 2282.07 1086721
3 2282.07 1069970
3 2282.07 1059705
3 2282.07 1058937
3 2282.07 1048137
3 2282.07 1014825
3 2282.07 988614
3 2282.91 985457
3 2282.91 985306
3 2282.91 984507
3 2282.91 970136
3 2283.54 968842
3 2283.54 968041
3 2284.12 965627
3 2284.12 965169
3 2284.68 963571
3 2284.68 962220
3 2285.24 961707
3 2285.24 960953
3 2285.24 957374
3 2289.18 956657
3 2289.18 951887
3 2289.76 951751
3 2289.76 945554
3 2296.4 1076748
1 2296.4 1069755
3 2296.4 1062022
3 2296.4 1040678
3 2296.4 1035177
3 2296.4 1034746
3 2296.4 1033945
3 2296.4 1033151
3 2297.14 1012989
3 2297.64 996951
3 2297.64 993806
3 2297.64 987297
3 2297.64 983419
3 2297.64 982449
3 2298.3 981147
3 2298.8 980346
3 2299.79 978598
3 2299.79 971824
1 2304.59 970727
3 2304.59 967935
3 2304.59 966668
3 2304.59 957651
3 2310.37 1028015
3 2310.37 1022914
3 2310.37 1008094
3 2310.37 1005975
3 2310.37 1003670
3 2310.37 990522
3 2310.37 990270
3 2310.37 979370
3 2310.37 977922
3 2311.15 976087
3 2311.15 975335
3 2311.15 973616
3 2311.74 967567
3 2312.74 963234
3 2312.74 959669
3 2318.1 959123
3 2318.1 958346
3 2319.11 952926
3 2324.34 1118999
3 2324.34 1106730
3 2324.34 1087944
3 2324.34 1077909
3 2324.34 1063237
3 2324.34 1056538
3 2324.34 1032750
3 2324.34 1032565
3 2324.34 1007946
3 2324.34 1005338
3 2324.34 1005003
3 2324.34 1003736
3 2324.34 995966
3 2324.34 990955
3 2324.34 986957
3 2325.25 980269
3 2325.25 977479
3 2325.83 971024
3 2325.83 962807
3 2325.83 962006
3 2327.83 956100
3 2328.36 950903
3 2338.43 1105696
3 2338.43 1099172
3 2338.43 1072670
3 2338.43 1045252
3 2338.43 1042156
3 2338.43 1037318
3 2338.43 1035174
3 2338.43 1034010
3 2338.43 1030419
3 2338.43 1029997
3 2338.43 1023170
3 2339.3 1018029
3 2339.3 1014025
3 2339.3 1007521
3 2339.3 991482
3 2339.3 987572
3 2339.3 983845
3 2339.3 983391
3 2339.3 980515
3 2340.03 977872
3 2340.03 974593
3 2340.57 970548
3 2341.08 970021
3 2341.08 963304
3 2342.12 963153
3 2342.12 961646
3 2342.66 959121
3 2344.15 952409
3 2344.65 951666
3 2345.16 951398
3 2345.16 950170
3 2346.14 949785
3 2352.26 1194769
3 2352.26 1193968
3 2352.26 1185447
3 2352.26 1134169
3 2352.26 1127395
3 2352.26 1096723
3 2352.26 1061132
3 2352.26 1051543
3 2352.26 1047599
3 2353.04 1046924
3 2353.04 1035332
3 2353.04 1025657
1 2353.04 1019192
3 2353.04 1014089
3 2353.04 1008159
3 2353.76 1000608
3 2353.76 995089
3 2353.76 991027
3 2353.76 990756
3 2354.4 988311
3 2354.4 984068
3 2354.4 979896
3 2354.4 977307
3 2354.4 976444
3 2355.01 970807
3 2355.01 967635
3 2355.58 963024
3 2355.58 962873
3 2357.96 954159
3 2366.5 1097941
3 2366.5 1083269
3 2366.5 1080744
3 2366.5 1054242
3 2366.5 1053373
3 2366.5 1047176
3 2366.5 1028502
3 2366.5 1022305
3 2366.5 1011592
3 2366.5 1011546
3 2366.5 1003612
3 2366.5 998027
3 2367.43 989671
3 2367.43 986325
3 2367.43 983340
3 2367.43 975251
3 2367.43 973461
3 2367.43 955684
3 2367.43 953991
3 2368.19 949361
3 2369.77 944664
3 2370.75 944386
3 2373.58 943335
3 2373.58 939407
3 2373.58 937816
3 2374.14 937371
3 2380.12 982439
3 2380.12 980889
3 2380.12 978138
3 2380.12 972619
3 2380.12 960928
3 2380.12 950156
3 2380.81 947223
3 2380.81 945956
3 2380.81 943386
3 2380.81 941565
3 2381.41 939794
3 2381.41 937988
3 2381.41 936694
3 2381.41 934230
3 2384.82 930318
3 2385.36 928484
3 2386.84 922287
3 2386.84 922029
3 2394.3 1044478
3 2394.3 1040816
3 2394.3 1029713
3 2394.3 1026314
3 2394.3 1019934
3 2394.3 1008137
3 2394.3 1001707
3 2394.3 996069
3 2394.3 989295
3 2394.3 988245
3 2395.14 982726
3 2395.14 974087
3 2395.14 973376
3 2395.14 973286
3 2395.14 970509
3 2396.24 965934
3 2397.23 961710
3 2398.62 961643
3 2398.62 959185
3 2398.62 957918
3 2399.18 951230
3 2399.68 951174
3 2404.26 949426
3 2404.26 942652
3 2408.06 1105770
3 2408.06 1093501
3 2408.06 1085865
3 2408.06 1073654
3 2408.06 1073464
3 2408.06 1072197
3 2408.06 1072106
3 2408.06 1059325
3 2408.06 1057210
3 2408.06 1056692
3 2408.06 1052356
3 2408.91 1051555
3 2408.91 1013501
3 2408.91 998829
3 2409.48 995356
3 2409.48 977377
3 2409.48 973303
3 2409.48 971858
3 2409.48 970591
3 2410.12 968157
3 2417.15 967222
3 2417.15 961964
3 2417.71 954634
3 2418.22 952604
3 2418.22 951184
3 2418.76 951174
3 2419.26 949426
3 2419.26 942652
3 2422.08 1069801
3 2422.08 1050965
3 2422.08 1015201
3 2422.08 1002932
3 2422.08 991459
3 2422.08 986663
3 2422.08 983052
3 2422.78 982251
3 2422.78 972837
3 2422.78 969504
3 2423.35 964186
3 2423.35 951917
3 2423.35 949712
3 2423.35 947948
3 2423.35 944617
3 2423.35 941815
3 2424.01 939770
3 2425.02 939719
3 2425.02 930952
3 2425.56 927385
3 2426.06 926118
3 2436.12 1042259
3 2436.12 1030186
3 2436.12 1010024
3 2436.12 1004505
3 2436.12 984113
3 2436.12 983304
3 2436.82 982349
3 2436.82 981082
3 2436.82 972403
3 2436.82 970252
3 2436.82 968070
3 2437.51 961080
3 2439.92 957637
3 2439.92 956438
3 2439.92 954926
3 2440.96 951420
3 2441.45 948895
3 2441.94 946823
3 2450.5 1052846
3 2450.5 1051976
3 2450.5 1043262
3 2450.5 1002098
3 2450.5 999424
3 2451.65 990764
3 2451.65 987155
3 2451.65 981342
3 2451.65 980075
3 2451.65 973527
3 2452.33 964532
3 2452.33 964090
3 2452.33 948967
3 2452.33 943817
3 2452.33 939960
3 2452.99 937997
3 2453.51 930870
3 2454.04 930045
3 2454.57 929603
3 2464.08 1019047
3 2464.08 1010556
3 2464.08 1010338
3 2464.08 1003799
3 2464.08 988460
3 2464.08 987193
3 2464.08 987053
3 2464.08 986145
3 2464.08 979717
3 2465.39 976410
3 2469.75 975609
3 2469.75 975116
3 2469.75 974829
3 2470.34 973562
3 2470.34 966572
3 2472.3 955707
3 2472.3 953367
3 2472.84 947431
3 2472.84 943276
3 2472.84 941403
3 2473.89 941278
3 2473.89 937141
3 2473.89 931443
3 2473.89 930422
3 2474.52 926664
3 2474.52 925984
3 2478.34 1084355
3 2478.34 1072086
3 2478.34 1063309
3 2478.34 1053612
3 2478.34 1034396
3 2478.34 1031955
3 2478.34 1030099
3 2478.34 1001535
3 2479.11 1000374
3 2479.11 995848
3 2479.11 993323
3 2479.11 990384
3 2479.74 986626
3 2480.73 979645
3 2480.73 979489
3 2481.3 973335
3 2481.3 968997
3 2482.37 962501
3 2482.87 962335
3 2483.4 961735
3 2484.39 960792
3 2484.39 960633
3 2484.91 960612
3 2485.4 960193
3 2485.4 954944
3 2485.95 954025
3 2485.95 952758
3 2486.5 943749
3 2488.02 942835
3 2488.02 940755
3 2488.56 939898
3 2489.08 938810
3 2489.08 937165
3 2489.62 936810
3 2490.59 933291
3 2490.59 933210
3 2490.59 932409
3 2492.17 1128891
3 2492.17 1096533
3 2492.17 1065861
3 2492.17 1046897
3 2492.17 1020594
3 2492.17 1016111
3 2492.17 1015075
3 2492.17 1013808
3 2492.17 1012060
3 2492.98 999279
3 2492.98 995880
3 2492.98 992972
3 2493.57 984869
3 2493.57 982512
1 2493.57 974997
3 2493.57 967575
3 2493.57 967173
3 2494.22 962840
3 2494.22 961378
3 2496.15 958954
3 2497.18 955049
3 2497.74 953333
3 2497.74 948852
3 2506.37 1053689
3 2506.37 1048424
3 2506.37 1045168
3 2506.37 1034065
3 2506.37 1027878
3 2506.37 1026611
3 2506.37 1022278
3 2506.37 1000277
3 2506.37 994457
3 2506.37 990591
3 2507.22 990201
3 2507.22 987132
3 2507.22 982895
3 2507.22 976121
3 2507.22 966342
3 2507.91 964540
3 2514.68 960901
3 2514.68 952059
3 2515.24 937757
3 2515.24 931560
3 2515.24 929882
3 2515.24 929416
3 2515.84 928716
3 2520.13 1122814
3 2520.13 1087872
3 2520.13 1073246
3 2520.13 1055755
3 2520.13 1035747
3 2520.13 1034480
3 2520.13 1011937
3 2520.13 1007674
3 2520.13 1003341
3 2520.94 999637
3 2520.94 998836
3 2520.94 983324
3 2521.53 981367
3 2521.53 974797
3 2521.53 969287
3 2521.53 952803
3 2521.53 949361
3 2527.15 948470
3 2534.11 1009248
3 2534.11 1002561
3 2534.11 993689
3 2534.11 988170
3 2534.11 978391
3 2534.81 968551
3 2534.81 960029
3 2534.81 955259
3 2534.81 955054
3 2534.81 947582
3 2534.81 941417
3 2535.56 940949
3 2535.56 936179
3 2535.56 935902
3 2548.24 1104505
3 2548.24 1066259
3 2548.24 1043646
3 2548.24 1013539
3 2548.24 1010606
3 2548.24 1005444
3 2548.24 996151
3 2548.24 987015
3 2548.24 979081
3 2549.09 977942
3 2549.62 968163
3 2549.62 962040
3 2549.62 960773
3 2550.77 954302
3 2551.29 948748
3 2552.32 948448
3 2552.84 945454
3 2553.38 944162
3 2553.38 943571
3 2555.48 943288
3 2555.48 940182
3 2556.03 936756
3 2556.57 936547
3 2563.18 1094223
3 2563.18 1058632
3 2563.18 1039251
3 2563.18 1019932
3 2563.18 1001290
3 2563.18 1000474
3 2563.18 995984
3 2563.18 993700
3 2563.18 990183
3 2563.18 982084
3 2563.18 974179
3 2564.06 970524
3 2564.06 968320
3 2564.62 956129
3 2564.62 954054
3 2565.18 953464
3 2565.18 952787
3 2566.28 945184
3 2576.11 1159013
3 2576.11 1121228
3 2576.11 1113879
3 2576.11 1089085
3 2576.11 1085637
3 2576.11 1063094
3 2576.11 1062209
3 2576.11 1023039
3 2576.11 1019225
3 2576.11 1004553
3 2576.11 1002241
3 2576.11 996215
3 2577.03 988630
3 2577.03 986522
3 2577.57 965955
3 2577.57 961400
3 2577.57 961150
3 2577.57 958476
3 2577.57 955850
3 2578.24 955049
3 2578.24 953698
3 2578.24 952431
3 2578.84 951764
3 2578.84 948852
3 2590.36 1062384
3 2590.36 1032374
3 2590.36 1018337
3 2590.36 1017522
3 2590.36 1016506
3 2590.36 1001834
3 2590.36 995865
3 2591.04 992168
3 2591.04 991532
3 2591.04 986812
3 2591.04 986626
3 2592.57 985267
3 2592.57 984489
3 2593.11 983587
3 2593.11 969332
3 2598.92 967608
3 2599.41 966341
3 2600.77 963069
3 2601.25 960854
3 2601.66 959106
3 2601.66 952866
3 2602.19 952440
3 2604.05 1123923
3 2604.05 1088332
3 2604.05 1073660
3 2604.05 1065815
3 2604.05 1036540
3 2604.05 1029766
3 2604.05 1028499
3 2604.05 1020768
3 2604.05 996365
3 2604.77 974878
3 2604.77 970731
3 2604.77 957950
3 2604.77 952431
3 2604.77 951764
3 2605.36 948852
3 2618.11 1018098
3 2618.11 1008498
3 2618.11 1005833
3 2618.11 1004703
1 2618.11 1000727
3 2618.11 987965
3 2618.11 981768
3 2618.11 978521
3 2618.11 974188
3 2618.71 969412
3 2618.71 967324
3 2618.71 950855
3 2619.16 950710
3 2620.55 943405
3 2620.92 940948
3 2620.92 938698
3 2620.92 935471
3 2621.35 933721
3 2621.35 932473
3 2621.35 931638
3 2622.1 930493
3 2622.78 929630
3 2632.2 1040946
3 2632.2 1030681
3 2632.2 1008138
3 2632.2 999617
3 2632.2 993173
3 2632.2 990895
3 2632.2 988154
3 2632.2 983099
3 2632.93 971909
3 2632.93 962130
3 2633.41 960203
3 2633.41 958319
3 2633.41 952707
3 2633.41 939926
3 2633.41 938213
3 2633.41 934961
3 2633.98 934814
3 2633.98 930481
3 2635.68 929329
3 2636.08 926494
3 2646.41 1011545
3 2646.41 982919
3 2646.41 969772
3 2646.41 962048
3 2646.41 957715
3 2646.41 953436
3 2647.15 953345
3 2647.15 952934
3 2647.15 952760
3 2647.73 952071
3 2648.7 951712
3 2648.7 950930
3 2648.7 945411
3 2649.3 921950
3 2660.44 1056775
3 2660.44 1043407
3 2660.44 1023245
3 2660.44 1015742
3 2660.44 1013802
3 2660.44 1007320
3 2660.44 999249
3 2660.44 992731
3 2660.44 988973
3 2660.44 984203
3 2660.44 979827
3 2661.25 977358
3 2661.25 973136
3 2661.81 968366
3 2661.81 946709
3 2661.81 944961
3 2661.81 942174
3 2661.81 938278
3 2661.81 938187
3 2661.81 937843
3 2662.49 937820
3 2662.49 933656
3 2672.39 928438
3 2674.32 1111866
3 2674.32 1101783
3 2674.32 1087111
3 2674.32 1051520
3 2674.32 1047886
3 2674.32 1045496
3 2674.32 1010353
3 2674.32 1007171
3 2674.32 1006395
3 2675.1 1004808
3 2675.1 1004498
3 2675.1 998611
3 2675.1 996291
3 2675.1 995024
3 2675.1 990797
3 2675.1 989505
3 2675.8 980179
3 2675.8 980145
3 2675.8 979778
3 2675.8 978030
3 2675.8 975993
1 2676.46 969061
3 2678.29 965902
3 2678.77 965879
3 2678.77 965307
3 2678.77 964040
3 2678.77 959397
3 2678.77 955064
3 2688.22 1050204
3 2688.22 1020097
3 2688.22 1019676
3 2688.22 1012766
3 2688.22 1006078
3 2688.22 994878
3 2688.22 988104
3 2688.22 986837
3 2688.22 985520
3 2689.02 977331
3 2689.02 964254
3 2689.02 964027
3 2689.02 961844
3 2689.02 958545
3 2691.48 957374
3 2691.97 955626
3 2692.91 951764
3 2693.4 949653
3 2693.9 948852
3 2702.4 1072017
3 2702.4 1037127
3 2702.4 1032357
3 2702.4 1024288
3 2702.4 1022819
3 2702.4 1021726
3 2702.4 1017645
3 2702.4 1000696
3 2702.4 987778
3 2702.4 987259
3 2703.25 978811
3 2703.25 975614
3 2703.25 974733
3 2703.25 972097
3 2703.25 964457
3 2703.25 961585
3 2703.93 961215
3 2704.88 960503
3 2704.88 959236
3 2713.3 958823
3 2713.82 957270
3 2716.15 1127066
3 2716.15 1113698
3 2716.15 1070161
3 2716.15 1039489
3 2716.15 1038688
3 2716.15 1017031
3 2716.77 1013427
3 2716.77 1004844
3 2716.77 1000511
3 2716.77 974898
3 2716.77 968967
3 2716.77 967844
3 2716.77 965543
3 2717.46 964372
3 2717.46 958178
3 2717.46 958175
3 2718.02 957021
3 2718.02 956220
3 2718.02 955636
3 2718.59 951262
3 2718.59 948852
3 2730.24 1023263
3 2730.24 1018729
3 2730.24 1014312
3 2730.24 1010482
3 2730.24 993779
3 2730.24 981315
3 2730.24 975562
3 2730.97 970043
3 2730.97 960931
3 2730.97 954005
3 2730.97 950247
3 2730.97 949472
3 2731.61 948750
3 2739.58 946733
3 2739.58 944129
3 2739.97 940583
3 2739.97 936099
3 2740.35 935253
3 2741.36 933560
3 2741.36 932649
3 2744.37 1064195
3 2744.37 1009069
3 2744.78 1009023
3 2744.78 1006442
3 2744.78 983782
3 2744.78 974003
3 2745.89 969454
3 2745.89 965928
3 2745.89 965045
3 2746.31 961547
3 2746.66 958416
3 2746.66 952933
1 2747.72 949894
3 2747.72 944688
3 2747.72 940115
3 2748.12 936357
3 2749.15 934700
3 2749.84 933486
3 2750.2 933030
3 2750.2 932167
3 2750.58 930776
3 2750.58 929410
3 2750.58 926545
3 2750.58 924825
3 2750.58 923950
3 2751.07 921775
3 2758.1 1036078
3 2758.1 1022839
3 2758.1 1014154
3 2758.1 1011871
3 2758.1 1002272
3 2758.1 995368
3 2758.1 976022
3 2758.1 968417
3 2758.66 961019
3 2758.66 953650
3 2758.66 952826
3 2760.08 951819
3 2760.08 951033
3 2760.46 949580
3 2760.46 948109
3 2760.46 946954
3 2760.46 945372
3 2760.46 942048
3 2760.46 935360
3 2761.16 931932
3 2761.16 929774
3 2761.16 926016
3 2772.09 1067067
3 2772.09 1063309
3 2772.09 1052695
3 2772.09 1040991
3 2772.09 1039914
3 2772.09 1031392
3 2772.09 1020186
3 2772.09 1017288
3 2772.09 1001400
3 2772.09 1001372
3 2772.09 997933
3 2772.77 993420
3 2772.77 988154
3 2772.77 978409
3 2772.77 976509
3 2773.22 964577
3 2773.22 954184
3 2773.22 953784
3 2773.66 947929
3 2773.66 946545
3 2773.66 943096
3 2773.66 937694
3 2774.1 936015
3 2774.45 935220
3 2779.7 933706
3 2786.2 1098718
3 2786.2 1081910
3 2786.2 1071860
3 2786.2 1056897
3 2786.2 1056096
3 2786.2 1055211
3 2786.2 1053946
3 2786.2 1036108
3 2786.2 1033114
3 2786.79 1025102
3 2786.79 1012404
3 2786.79 1009364
3 2786.79 1005647
3 2786.79 987336
3 2786.79 978595
3 2786.79 973944
3 2787.28 967428
3 2787.28 961195
3 2787.28 957754
3 2788.02 957067
3 2788.38 953123
3 2788.73 951943
3 2788.73 950676
3 2788.73 950367
3 2789.13 949566
3 2791.03 946333
3 2791.03 945984
3 2791.03 943344
Score = 947999
