    Blocking waiting for file lock on package cache
    Blocking waiting for file lock on package cache
    Blocking waiting for file lock on package cache
    Blocking waiting for file lock on package cache
    Blocking waiting for file lock on build directory
    Finished `release` profile [optimized] target(s) in 0.06s
     Running `target/release/tester ../a.out 0069`
3 0.021 812640
3 0.021 809784
3 0.021 800882
3 0.021 792990
3 0.021 792575
1 0.515 792144
3 0.515 765040
3 0.515 755580
3 0.896 752898
3 0.896 751243
3 0.896 743561
3 1.26 741098
3 1.26 740723
3 1.26 736221
3 1.26 731676
3 1.668 731254
3 14.05 768059
3 14.05 748233
3 14.05 744449
3 14.05 739150
3 14.494 736294
3 17.393 735831
3 17.977 733851
3 18.29 726979
3 18.29 723825
3 18.627 722171
3 18.627 720318
3 18.974 718092
3 19.295 715019
3 21.236 714776
3 28.156 790958
3 28.156 781979
3 28.156 755805
3 28.156 739619
3 28.541 737953
3 29.137 736881
3 29.137 733981
3 29.137 732273
3 29.137 728896
3 29.547 728885
3 33.441 727695
3 34.277 713117
3 42.27 829495
3 42.27 824554
3 42.27 810144
3 42.27 788419
3 42.27 767374
3 42.27 765282
3 42.27 757554
3 42.27 738101
3 42.27 731747
3 42.869 730081
3 43.163 725174
3 44.815 724881
3 45.417 723752
3 45.417 707935
3 56.141 822438
3 56.141 789081
3 56.141 775309
3 56.141 756234
3 56.141 753234
3 56.141 751579
3 56.141 749382
3 56.141 748073
3 56.59 732195
3 56.59 731742
3 56.59 729513
3 56.59 718574
3 56.882 716171
3 56.882 713275
3 58.654 705356
3 58.857 705095
3 58.857 702938
3 58.857 699864
3 59.778 699390
3 59.778 699165
3 70.045 806216
3 70.045 801281
3 70.045 796215
3 70.045 775944
3 70.045 756059
3 70.045 753435
3 70.045 747061
3 70.045 724637
3 70.045 722982
3 70.524 720300
3 84.066 812750
3 84.066 807077
3 84.066 804395
3 84.066 801987
3 84.066 781180
3 84.066 776245
3 84.066 760007
3 84.066 759110
3 84.066 758329
3 84.066 722674
3 85.606 718994
3 98.23 757504
3 98.23 757454
3 98.23 743355
3 98.23 742446
3 98.23 738803
3 98.845 733660
3 99.104 726073
3 99.104 725937
3 99.104 724842
3 112.05 763191
3 112.05 755338
3 112.05 749292
3 112.05 743768
3 112.941 731554
3 112.941 729552
3 113.197 726696
3 126.13 758040
3 126.13 736995
3 126.13 728251
3 126.13 716431
3 126.45 712417
3 126.662 704428
3 126.896 702773
3 140.188 795280
3 140.188 780601
3 140.188 767402
3 140.188 751135
3 140.188 740428
3 140.188 737542
3 140.188 733167
3 140.71 730577
3 141.023 726934
3 154.178 808418
3 154.178 792866
3 154.178 789954
3 154.178 775538
3 154.178 765154
3 154.178 754509
3 154.178 744546
3 154.178 744481
3 154.583 742577
3 154.583 739721
3 154.583 739718
3 154.583 738086
3 154.583 736431
3 154.583 720622
3 168.122 845575
3 168.122 794302
1 168.122 764337
3 168.122 763071
3 168.122 735310
3 168.448 729825
3 168.998 729789
3 169.219 726625
3 169.426 722982
3 180.357 716978
3 182.066 784307
3 182.066 779915
3 182.066 758488
3 182.066 753927
3 182.066 752578
3 182.066 741837
3 182.066 736785
3 182.066 725965
3 182.535 725249
3 182.535 720876
3 182.535 708553
3 196.165 816056
3 196.165 794741
3 196.165 769085
3 196.165 753715
3 196.165 734170
3 196.165 732670
3 196.165 729814
3 196.165 721216
3 196.55 717476
3 196.55 707813
3 196.952 705675
3 197.498 700212
3 200.079 699864
3 201.714 699390
3 201.928 699165
3 210.119 786116
3 210.119 784701
3 210.119 779766
1 210.119 779260
3 210.119 774715
3 210.119 772033
3 210.119 762162
3 210.119 749275
3 210.119 724192
3 210.119 713020
3 224.076 805142
3 224.076 769948
3 224.076 756626
3 224.076 743308
3 224.076 741898
3 224.076 739216
3 238.079 749385
3 238.079 740908
3 238.079 740409
3 238.079 738754
3 238.963 738226
3 238.963 737151
3 238.963 733508
3 239.246 733399
3 239.246 729470
3 239.246 724171
3 239.246 722516
3 241.234 719437
3 252.149 768374
3 252.149 767984
3 252.149 740165
3 252.149 739110
3 252.149 736428
3 252.149 734583
3 252.149 731129
3 252.511 728075
3 266.081 752797
3 266.081 742137
3 266.081 739867
3 266.081 737011
3 266.081 734128
3 266.428 731446
3 266.428 721641
3 280.155 820652
3 280.155 805210
3 280.155 791636
3 280.155 778632
3 280.155 753116
3 280.155 744518
3 280.155 741836
3 280.497 735027
1 280.714 727000
3 280.926 724083
3 280.926 723742
1 280.926 718951
3 281.375 718327
3 294.146 861234
3 294.146 858378
3 294.146 855372
3 294.146 854735
3 294.146 839929
3 294.146 815632
3 294.146 812163
3 294.146 791118
3 294.146 790796
3 294.146 789463
1 294.146 788566
3 294.146 777137
3 294.146 775739
1 294.679 770003
3 294.901 767321
1 294.901 759476
3 297.531 758295
3 297.531 750442
3 297.773 750284
3 298.536 747355
3 298.751 746041
3 300.913 737816
3 308.154 813271
3 308.154 759538
3 308.154 749758
3 308.154 746944
3 308.154 746898
3 308.154 734049
3 308.154 731717
3 308.154 727910
3 308.154 727039
3 308.877 726962
3 308.877 721120
3 309.077 715821
3 309.273 714147
3 309.273 712711
3 309.508 708009
3 309.508 706620
3 322.155 799213
3 322.155 786500
3 322.155 775179
3 322.155 739722
3 322.155 732819
3 322.641 723943
3 322.641 720136
3 323.204 719437
3 336.122 833847
3 336.122 816175
3 336.122 810154
3 336.122 809806
3 336.122 801759
3 336.122 777111
3 336.122 764453
3 336.122 748094
3 336.122 737604
3 336.122 734726
3 336.488 733435
3 336.488 731801
3 336.488 730579
3 336.754 726472
3 336.754 718942
3 336.754 715299
3 336.754 712787
3 337.048 711216
3 337.048 710141
3 337.277 705682
3 350.151 838674
3 350.151 818601
3 350.151 817606
3 350.151 772456
3 350.151 765942
3 350.151 759611
3 350.151 755830
3 350.151 745418
3 350.151 740097
3 350.151 739270
3 350.563 735764
3 350.563 730672
3 350.563 725549
3 350.563 721216
3 364.038 793898
3 364.038 790255
3 364.038 788821
3 364.038 781981
3 364.038 780339
3 364.038 776556
3 364.038 772034
3 364.038 768391
3 364.038 765195
3 364.038 753841
3 364.038 753548
3 364.038 753008
3 364.665 737281
3 364.958 734191
3 364.958 732222
3 364.958 731509
3 365.286 727032
3 365.286 726698
3 365.286 725135
3 365.286 719538
3 366.168 716630
3 366.168 714232
3 366.168 712229
3 366.524 710820
3 366.524 707108
3 366.524 704710
3 378.094 815785
3 378.094 801375
3 378.094 792473
3 378.094 774982
3 378.094 757840
3 378.094 757474
3 378.094 753165
3 378.62 751510
3 378.62 746334
3 378.62 744430
3 379.013 735832
3 379.013 732976
3 392.113 866104
3 392.113 834203
3 392.113 811724
3 392.113 783104
1 392.113 774789
3 392.113 758522
3 392.113 757938
3 392.113 755256
3 392.668 753421
3 392.668 753338
3 393.033 751613
3 393.033 747368
3 393.033 747047
3 393.42 745994
3 393.42 743138
3 406.128 846894
3 406.128 825630
3 406.128 808503
3 406.128 804860
3 406.128 791242
3 406.128 785601
3 406.634 784762
3 406.634 773465
3 406.634 750100
3 406.634 746414
3 406.634 745778
3 406.634 728725
3 408.741 713355
3 409.303 707931
3 411.404 705310
3 411.404 702628
1 416.11 701656
3 416.11 698800
3 416.11 696118
3 418.001 693798
1 420.144 833147
3 420.144 818297
3 420.144 818004
1 420.144 815186
3 420.144 811121
3 420.144 794896
3 420.492 787735
3 420.492 778920
3 420.492 735643
3 420.492 732787
3 420.492 730105
3 421.329 728455
3 421.329 727775
3 421.568 727045
3 421.568 724410
3 422.142 721507
3 434.047 834584
3 434.047 825359
3 434.047 816178
3 434.047 809590
3 434.047 774239
3 434.047 738669
3 434.047 737642
3 434.047 734728
3 434.047 731872
3 436.101 718868
3 436.101 717451
3 448.051 779219
3 448.051 777032
3 448.051 776916
3 448.051 776045
3 448.051 766518
3 448.446 762304
3 448.446 754143
3 448.446 744971
3 448.762 735543
3 448.762 728733
3 448.762 723111
3 449.073 722359
3 462.149 781935
3 462.149 771911
3 462.149 764058
3 462.48 751384
3 462.48 737959
3 463.328 734978
3 463.328 732878
3 463.832 729128
3 476.051 813344
3 476.051 802542
1 476.051 800185
3 476.051 776990
3 476.051 755945
3 476.051 743620
3 476.051 720228
3 476.051 719125
3 476.051 709950
3 476.753 708295
3 476.753 701022
3 477.063 699199
3 490.122 826965
3 490.122 825310
1 490.122 807815
3 490.122 790673
3 490.122 745323
3 490.122 743657
3 490.122 743067
3 490.122 739850
3 490.833 717655
3 504.091 881000
3 504.091 830156
3 504.091 804704
3 504.091 801781
3 504.091 798138
3 504.091 795282
3 504.091 791475
3 504.091 764509
3 504.091 751738
3 504.091 751220
3 504.091 750557
3 504.568 745404
3 504.568 745282
3 504.81 728010
3 504.81 727642
3 518.096 784331
3 518.096 778477
3 518.096 764061
3 518.096 749041
3 518.096 746959
3 518.096 739384
3 518.096 737978
3 518.508 736702
3 518.708 734936
3 518.708 731747
3 518.708 729575
3 518.972 728104
3 518.972 727590
3 519.36 723943
3 519.556 721216
3 519.943 717476
3 519.943 717394
3 519.943 711620
3 520.194 709482
3 520.194 705675
3 521.18 700212
3 521.39 699864
3 522.595 699390
3 522.928 699165
3 532.02 759236
3 532.02 752862
3 532.02 745379
3 532.02 743370
3 532.02 735711
3 532.02 733029
3 532.394 720263
3 532.394 719380
3 532.394 717725
3 532.677 715043
3 532.677 708071
3 532.677 707225
3 546.166 792511
3 546.166 787849
3 546.166 761189
3 546.166 755045
3 546.166 747040
3 546.606 744682
3 546.606 741826
3 546.606 736093
3 546.606 722750
3 546.606 721419
3 546.606 720781
3 560.056 805748
3 560.056 802892
3 560.056 801716
3 560.056 799982
3 560.056 783572
3 560.056 780890
3 560.056 763415
3 560.056 753983
3 560.465 751169
3 560.465 747260
3 560.465 740586
3 560.465 729860
3 560.776 727004
3 561.166 720615
3 574.092 795108
3 574.092 788734
3 574.092 761373
3 574.092 760983
3 574.092 758127
3 574.092 757724
3 574.092 754229
3 574.092 751373
3 574.092 742775
3 574.541 731959
3 574.541 730769
3 588.191 815993
3 588.191 814338
3 588.191 801700
3 588.191 795718
3 588.191 789382
3 588.191 785667
3 588.191 746950
3 588.714 746899
3 589.05 745989
3 589.05 743307
3 602.265 776512
3 602.265 764356
3 602.604 763658
3 602.604 762990
3 602.604 740140
3 602.987 732746
3 602.987 729948
3 602.987 723509
3 603.351 723129
3 603.351 722558
3 603.351 718979
3 603.351 717313
3 603.749 711553
3 603.749 708763
3 616.063 816556
3 616.063 797691
3 616.063 752313
3 616.063 747395
3 616.063 745729
3 616.063 745436
3 616.52 743036
3 616.52 740180
3 617.385 738352
3 617.676 737454
3 617.676 736697
3 630.15 837577
3 630.15 793671
3 630.15 790815
3 630.15 773673
3 630.15 758543
3 630.15 749409
3 630.15 735260
3 630.15 734076
3 630.15 713097
3 630.15 711975
3 630.723 709520
3 631.016 709227
3 631.016 707910
3 631.6 704073
3 644.117 776104
1 644.117 753649
3 644.117 750999
3 644.117 750595
3 644.117 747913
3 644.117 741917
3 644.117 724277
3 644.524 723888
3 644.716 719392
3 644.716 718525
3 644.932 709959
3 644.932 708591
1 649.348 707103
3 658.029 793696
3 658.029 792041
3 658.029 787914
3 658.029 786743
3 658.029 770183
3 658.029 763893
3 658.029 762130
3 658.029 753532
3 658.029 738783
3 658.418 736255
3 658.418 735587
3 658.418 731944
3 658.65 710851
3 658.65 701817
3 658.65 701668
3 658.65 700162
3 672.108 732702
3 672.108 731834
3 672.108 729620
3 672.108 728978
3 672.108 726885
3 672.108 721505
3 672.846 720222
3 686.101 802977
3 686.101 798381
3 686.101 793446
3 686.101 776102
3 686.101 765475
3 686.101 756948
3 686.101 754266
3 686.574 751137
3 686.574 747782
3 686.574 744139
3 687.375 738682
3 687.662 737027
3 700.162 784008
3 700.162 767741
3 700.162 764885
3 700.162 755980
3 700.162 754277
3 700.523 742357
3 700.523 738730
3 700.782 738550
3 700.782 717309
3 702.34 713708
3 702.72 713091
1 714.137 870827
3 714.137 868145
3 714.137 832448
3 714.137 800186
3 714.137 796543
3 714.137 794819
3 714.137 788443
3 714.137 786727
3 714.137 761960
3 714.137 759104
3 714.137 746005
3 714.576 738704
3 714.576 736032
3 714.576 735674
3 714.576 729658
3 714.576 728432
3 714.576 726191
3 728.127 820518
3 728.127 811920
3 728.127 810730
3 728.127 807769
3 728.127 790627
3 728.127 775257
3 728.127 773536
3 728.127 772588
3 728.127 757704
3 728.127 743213
3 728.127 730604
3 728.753 725573
3 728.753 722891
3 729.567 720263
3 729.567 719569
3 729.567 717747
3 729.567 716887
3 729.941 715232
3 730.223 710329
3 742.154 746365
3 742.154 742722
3 742.154 741067
3 742.154 740707
3 742.154 739652
3 742.154 739289
3 742.579 731274
3 742.579 728746
3 742.899 727080
3 742.899 725924
3 742.899 723110
3 742.899 721210
3 742.899 717294
3 744.269 716698
3 744.269 708071
3 744.269 706365
3 744.584 704710
3 756.067 787538
3 756.067 781722
3 756.067 774786
3 756.067 773121
1 756.067 763162
3 756.067 754227
3 756.067 746895
3 756.067 741374
3 756.593 737493
3 756.593 736415
3 757.163 733733
3 757.163 733534
3 757.163 732266
3 757.507 728778
3 757.507 725135
3 759.323 719177
3 759.323 719005
3 759.607 717522
3 759.607 703929
3 759.607 701605
3 770.156 851809
3 770.156 827584
3 770.156 820775
3 770.156 816710
3 770.156 807013
3 770.156 797921
3 770.156 796266
3 770.156 787202
3 770.156 761072
3 770.156 759138
3 770.156 740850
3 770.156 737687
3 770.156 732752
3 770.642 720136
3 784.175 793351
3 784.175 790788
3 784.175 771759
3 784.175 760820
3 784.175 755521
3 784.175 750751
3 784.175 750458
3 784.175 734191
3 784.603 732222
3 784.802 730434
3 784.997 728844
3 784.997 725591
3 784.997 721005
3 785.248 719350
3 785.248 718637
3 798.141 770955
3 798.141 763743
3 798.141 756539
3 798.141 741957
3 798.141 741886
3 798.471 739866
3 798.671 737744
3 798.671 732255
3 798.671 729573
3 798.928 728111
3 798.928 713624
3 812.139 805194
1 812.139 796430
3 812.139 782014
3 812.139 778529
3 812.139 777084
3 812.504 775798
3 812.504 771503
3 812.504 756133
3 812.923 748653
1 825.218 726941
3 826.126 873733
3 826.126 856093
3 826.126 853645
3 826.126 817438
3 826.126 808656
3 826.126 805800
3 826.126 805410
3 826.126 800865
3 826.488 792267
3 826.488 782396
3 826.488 764960
3 826.775 762645
3 826.775 751142
3 827.934 749185
3 827.934 744106
3 828.147 743350
3 828.147 738922
3 840.021 842034
3 840.021 822977
3 840.021 789981
3 840.021 773845
3 840.021 758355
3 840.021 757393
3 840.021 755243
3 840.021 746166
3 840.021 744463
3 840.021 743525
3 840.021 739718
3 840.542 733857
3 840.733 732222
3 840.733 730434
3 840.967 729169
3 842.158 728411
3 842.352 724582
3 854.02 797488
3 854.02 795138
3 854.02 758916
3 854.02 752778
3 854.02 751123
3 854.02 745950
3 854.02 740707
3 854.02 733179
3 854.02 732651
3 854.02 729603
3 854.02 727937
3 854.02 726882
3 854.02 725796
3 854.451 725692
3 854.451 717725
3 854.451 715043
3 854.709 711998
3 854.709 708191
3 854.709 705675
3 854.96 704548
3 868.042 807949
3 868.042 807349
3 868.042 798751
3 868.042 796989
3 868.042 793346
3 868.042 787843
3 868.042 775324
3 868.042 774803
3 868.042 762117
3 868.447 760406
3 868.447 760172
3 868.447 758948
3 868.447 757441
3 868.447 756530
3 868.447 756357
3 868.447 753519
3 868.801 752064
3 868.801 740064
3 868.801 739690
3 868.801 734191
3 869.064 731509
3 869.266 725135
3 870.468 722891
3 870.659 719289
3 870.659 707392
3 870.659 707225
3 882.127 793419
3 882.127 786610
3 882.127 775795
3 882.127 772939
3 882.127 771513
3 882.127 757499
3 882.127 756795
3 882.127 748197
3 882.127 748074
3 882.474 746994
3 882.474 746701
3 882.474 742163
3 882.737 738151
3 882.737 735972
3 882.737 733116
3 882.737 731563
3 882.737 730434
3 882.737 725135
3 884.233 722891
3 884.233 720263
3 884.502 719625
3 884.502 718608
3 885.017 715043
3 885.017 707108
3 885.017 704710
3 896.032 792436
3 896.032 778020
3 896.032 747738
3 896.032 746119
3 896.032 731618
3 896.032 726576
3 896.032 721877
3 896.032 720509
3 896.032 711439
3 896.412 708757
3 896.61 707955
3 896.61 706959
3 896.61 706569
3 896.61 702925
3 896.845 702542
3 910.033 805833
3 910.033 797224
3 910.033 780218
3 910.033 774919
3 910.033 765888
3 910.349 754821
3 910.349 753557
3 910.349 739858
3 910.349 732431
3 910.612 731845
3 910.968 728998
3 910.968 727343
3 910.968 725011
3 910.968 722741
3 911.194 716396
3 911.389 712017
3 911.581 709901
3 912.092 707845
3 912.276 705356
3 924.238 796343
3 924.238 762258
3 924.238 756697
3 924.238 753766
3 924.238 745168
3 924.238 743046
3 924.238 740792
3 924.238 738110
3 924.238 727874
3 924.238 713068
3 924.238 710255
3 925.805 709324
3 926.371 708413
3 938.165 800379
3 938.165 786230
3 938.165 769088
3 938.165 761601
3 938.165 755813
3 938.165 745334
3 938.621 743084
3 938.621 741146
3 938.964 737953
3 938.964 734310
3 951.919 732766
3 951.919 731224
3 952.271 827094
3 952.271 809623
3 952.271 807957
3 952.271 781147
3 952.271 754224
3 952.271 737664
3 952.271 735845
3 952.271 731130
3 952.778 727032
3 952.778 719289
3 952.778 719122
3 952.778 718413
3 952.778 713610
3 966.103 844579
3 966.103 823931
3 966.103 809166
3 966.103 767042
3 966.103 741526
3 966.103 738670
3 966.103 737512
3 966.103 736325
3 966.103 735216
3 966.103 731698
3 966.671 728208
3 966.942 725305
3 966.942 723639
3 974.728 710542
3 975.017 707161
3 975.017 705914
3 976.094 705886
3 980.207 758102
3 980.207 755539
3 980.207 739301
3 980.207 735634
3 980.207 716440
3 980.207 716396
3 980.207 711895
3 980.671 708252
3 980.671 705356
3 994.042 781763
3 994.042 780545
3 994.042 777689
3 994.042 774046
3 994.042 767689
3 994.042 765007
3 994.042 753840
3 994.042 745813
3 994.522 732403
3 994.522 729575
3 994.522 725779
3 994.522 724293
3 994.897 719777
3 994.897 718960
3 994.897 717294
3 995.211 716698
3 995.485 706365
3 995.485 704710
3 1008.19 829949
3 1008.19 828012
3 1008.19 815800
3 1008.19 811745
3 1008.19 790615
3 1008.19 776823
3 1008.19 776317
3 1008.19 771382
3 1008.19 764145
3 1008.19 760325
3 1008.19 755296
3 1008.19 752848
3 1008.19 747962
3 1008.73 746160
1 1009.27 737434
3 1010.57 737402
3 1010.57 736434
3 1010.57 733051
3 1010.92 730195
3 1011.21 722406
3 1011.48 721216
3 1022.2 839521
3 1022.2 827320
3 1022.2 822426
3 1022.2 805396
3 1022.2 802540
3 1022.2 792105
1 1022.2 769312
3 1022.2 766876
3 1022.2 750038
3 1022.2 749167
3 1022.2 733552
3 1022.2 728953
3 1022.2 728660
3 1022.84 727005
3 1022.84 713270
3 1036.08 796087
3 1036.08 780717
3 1036.08 778035
3 1036.08 775179
3 1036.08 755896
3 1036.08 755502
3 1036.08 752241
3 1036.08 749559
3 1036.08 745350
3 1036.58 744421
3 1036.58 740290
3 1036.58 737434
3 1036.58 720694
3 1036.58 715759
3 1036.58 712261
3 1036.58 704001
3 1036.92 702372
3 1036.92 702006
3 1050.18 809208
3 1050.18 776023
3 1050.18 759756
3 1050.18 755149
3 1050.18 746551
3 1050.62 745631
3 1050.62 742775
3 1051.04 734081
3 1051.24 723601
3 1051.24 722534
3 1051.46 718729
3 1051.46 718215
3 1052 717989
3 1064.08 795223
3 1064.08 792741
3 1064.08 790059
3 1064.08 789766
3 1064.08 773499
3 1064.08 770661
3 1064.08 749385
3 1064.08 737834
3 1064.08 734191
3 1064.08 732222
3 1065.56 731509
3 1065.56 728411
3 1066.51 725135
3 1069.01 719538
3 1069.01 718489
3 1069.24 716914
3 1069.43 716630
3 1069.43 715887
3 1069.81 714232
3 1070.91 704710
3 1078.25 814072
3 1078.25 796432
3 1078.25 782283
3 1078.25 777584
3 1078.25 757212
3 1078.25 754023
3 1078.25 753405
3 1078.25 736428
3 1078.7 734874
3 1078.7 729575
3 1079.02 728104
3 1079.3 721730
3 1079.3 714448
3 1079.86 710291
3 1080.13 705356
3 1092.11 833340
3 1092.11 825429
3 1092.11 780933
3 1092.11 780640
3 1092.11 762968
3 1092.11 759325
3 1092.11 756295
3 1092.11 737301
3 1092.62 735646
3 1092.93 732964
3 1092.93 721166
3 1092.93 717434
3 1093.27 710334
3 1093.27 709681
3 1093.88 709413
3 1094.41 708630
3 1106.02 818526
3 1106.02 804110
3 1106.02 786858
3 1106.02 780611
3 1106.02 773818
3 1106.02 770011
3 1106.02 761912
3 1106.02 759914
3 1106.56 758267
3 1106.56 757192
3 1106.56 750806
3 1106.56 745148
3 1106.56 737139
3 1106.56 727442
3 1120.17 772121
3 1120.17 766601
3 1120.17 754772
3 1120.17 751994
3 1120.17 748961
3 1120.17 742924
3 1120.61 739307
3 1120.61 720291
3 1120.61 716484
3 1120.61 716354
3 1120.61 715682
3 1121.03 713468
3 1134.14 795472
3 1134.14 773382
3 1134.14 769969
3 1134.14 768120
3 1134.14 767338
3 1134.14 761405
3 1134.14 758723
3 1134.14 752809
3 1134.14 749953
3 1134.14 748878
3 1134.14 732686
3 1134.14 728736
3 1134.14 724934
3 1134.14 720685
3 1134.14 717829
3 1134.14 706287
3 1148.08 811375
3 1148.08 805001
3 1148.08 803190
3 1148.08 796900
3 1148.08 786972
3 1148.08 779359
3 1148.08 777623
3 1148.08 777190
3 1148.08 759962
3 1148.65 753623
3 1148.65 753519
3 1148.65 742789
3 1149.01 742740
3 1149.01 734142
3 1149.01 731509
3 1149.01 727032
3 1149.01 725135
3 1149.96 720944
3 1149.96 720012
3 1149.96 718489
3 1150.31 716630
3 1150.59 714232
3 1150.87 708071
3 1150.87 704710
3 1162.16 792839
3 1162.16 768942
3 1162.16 753844
3 1162.16 746659
3 1162.16 733843
3 1162.16 729190
3 1162.85 727817
3 1162.85 725135
3 1167.6 720263
3 1167.6 718608
3 1167.6 715084
3 1167.86 710489
3 1167.86 709362
3 1176.12 823165
3 1176.12 821510
3 1176.12 810682
3 1176.12 804308
3 1176.12 768654
3 1176.12 748058
3 1176.46 747138
3 1176.46 746403
3 1176.66 745730
1 1176.66 734088
3 1176.66 730281
3 1176.92 720371
3 1176.92 719741
3 1177.16 718075
3 1190.16 888730
3 1190.16 853904
3 1190.16 781150
3 1190.16 781046
3 1190.16 778455
3 1190.16 744146
3 1190.16 728757
3 1190.16 728499
3 1190.16 727833
3 1190.16 723086
3 1190.16 720248
3 1190.16 717747
3 1190.59 715984
3 1190.78 715862
3 1190.95 712115
3 1190.95 709318
3 1190.95 708472
1 1197.17 708200
1 1197.37 701847
3 1204.05 760630
3 1204.05 760516
3 1204.05 760304
3 1204.05 757660
3 1204.05 749121
3 1204.05 748795
3 1204.05 745939
3 1204.59 743162
3 1204.59 741630
3 1204.59 738948
3 1204.86 738421
3 1204.86 736092
3 1205.08 735083
3 1205.08 727560
3 1205.08 724704
3 1205.34 720069
3 1205.34 710808
3 1205.34 709340
3 1205.34 705509
3 1206.24 704380
3 1218.15 847205
3 1218.15 845550
3 1218.15 791817
3 1218.15 789135
3 1218.15 758231
3 1218.15 754629
3 1218.15 754424
3 1218.15 754224
3 1218.15 751386
3 1218.15 743213
3 1218.15 732274
3 1218.15 729592
3 1218.15 727080
3 1218.15 722049
3 1218.15 719350
3 1218.15 718637
3 1232.15 845287
3 1232.15 807343
3 1232.15 801887
3 1232.15 796404
3 1232.15 762879
3 1232.15 750349
3 1232.15 748694
3 1232.15 745646
3 1232.52 745256
3 1232.52 744382
3 1232.52 744229
3 1232.52 743824
3 1232.52 742574
3 1232.52 742514
3 1232.52 741466
3 1233.02 737265
3 1233.02 731686
3 1233.02 727879
3 1233.02 727149
3 1233.43 725372
3 1233.43 722119
3 1233.77 719437
3 1246.12 837998
3 1246.12 816953
3 1246.12 814693
3 1246.12 778162
3 1246.12 747909
3 1246.12 742390
3 1246.12 740724
3 1246.12 736589
3 1246.12 733907
3 1246.12 730264
3 1246.88 725912
3 1248.43 725698
3 1248.67 724084
3 1249.29 720836
3 1260.11 784613
3 1260.11 783153
3 1260.11 779209
3 1260.11 770190
3 1260.11 762293
3 1260.11 759845
3 1260.11 742643
3 1260.11 728489
3 1260.11 725633
3 1261.23 722147
3 1274.02 780363
3 1274.02 774046
3 1274.02 762253
3 1274.02 761382
3 1274.02 738754
3 1275.07 736532
3 1275.07 735804
3 1275.07 729044
3 1275.37 725822
3 1275.37 722516
3 1288.05 766728
3 1288.05 765062
3 1288.05 747010
3 1288.05 738412
3 1288.05 715562
3 1289.83 715137
3 1289.83 709675
3 1302.08 777675
3 1302.08 756630
3 1302.37 751695
3 1302.37 743310
3 1302.59 740454
3 1302.59 737772
3 1316.01 806093
3 1316.01 801139
3 1316.01 797634
3 1316.01 785058
3 1316.01 759325
3 1316.01 752455
3 1316.38 746084
3 1316.38 741114
3 1316.38 737049
3 1316.38 736188
3 1316.73 732794
3 1316.73 729724
3 1316.73 727590
3 1317.03 723943
3 1317.29 721216
3 1317.96 717394
3 1317.96 708201
3 1317.96 707146
3 1317.96 706758
3 1317.96 705675
3 1318.35 704552
3 1318.57 703906
3 1330.14 824416
3 1330.14 817128
3 1330.14 784776
3 1330.14 780606
3 1330.14 771456
3 1330.14 766122
3 1330.14 760823
3 1330.14 755286
3 1331.21 754240
3 1331.21 737973
3 1331.56 733156
3 1331.56 732322
3 1331.86 727799
3 1331.86 725117
3 1331.86 721310
3 1344.25 862398
3 1344.25 855512
3 1344.25 843499
3 1344.25 836882
3 1344.25 808863
3 1344.25 807951
3 1344.25 804308
3 1344.25 801351
3 1344.25 793277
3 1344.79 789703
3 1344.79 788806
3 1344.79 788615
3 1344.79 770079
3 1344.79 754554
3 1344.79 749309
3 1345.24 748782
3 1345.24 748069
3 1345.24 745729
3 1345.24 745436
3 1346.17 741576
3 1346.17 725309
3 1346.17 724610
3 1346.17 720010
3 1351.07 719863
3 1351.07 716220
3 1358.03 814893
3 1358.03 812037
3 1358.03 790915
1 1358.03 770939
3 1358.46 770549
3 1358.46 766004
3 1358.46 761215
3 1358.85 739038
3 1359.15 738365
3 1359.15 734414
3 1359.15 731558
3 1365.98 730272
3 1372.17 872899
3 1372.17 856245
3 1372.17 824344
3 1372.17 823447
1 1372.17 798224
3 1372.17 790910
3 1372.17 775540
3 1372.17 766616
3 1372.69 762291
3 1372.69 740883
3 1386.19 864347
3 1386.19 848129
3 1386.19 827084
3 1386.19 781823
3 1386.19 773701
1 1386.19 772511
3 1386.19 767089
3 1386.19 752978
3 1386.19 750296
3 1386.19 746012
3 1386.72 740415
3 1386.72 739384
3 1386.72 736702
3 1386.72 736188
3 1386.72 727590
3 1387.15 721216
3 1400.17 763032
3 1400.17 762400
3 1400.17 760350
3 1400.17 749048
3 1400.17 743996
3 1400.17 740414
3 1400.61 739900
3 1400.61 718856
3 1400.94 717190
1 1414.22 851820
3 1414.22 841802
3 1414.22 832619
3 1414.22 796565
3 1414.22 782149
3 1414.22 778500
3 1414.22 772288
3 1414.22 763550
3 1414.73 760694
3 1414.73 759039
3 1414.73 756530
3 1414.73 749050
3 1414.73 739388
3 1415.17 739215
3 1428.14 768918
3 1428.14 767263
3 1428.14 763400
3 1428.14 762912
3 1428.14 738325
3 1428.14 733878
3 1428.14 731499
3 1428.14 727460
3 1428.68 718862
3 1428.68 717083
3 1429 716238
3 1429 713714
3 1429.33 713530
3 1429.62 712809
3 1429.62 712789
3 1429.62 708514
3 1429.62 704191
3 1429.62 702525
3 1442.03 816558
3 1442.03 792164
3 1442.03 766648
3 1442.03 759684
3 1442.03 747330
3 1442.03 745664
3 1442.03 742393
3 1442.03 732606
3 1442.53 731004
3 1456.17 870249
3 1456.17 860378
3 1456.17 808325
3 1456.17 805643
3 1456.17 761111
3 1456.17 739674
3 1456.17 718862
3 1456.67 717196
3 1456.98 714242
3 1457.29 712568
3 1457.59 712147
3 1457.88 712018
3 1470.2 753199
3 1470.2 744665
3 1470.2 743010
3 1470.2 736822
3 1470.2 732277
3 1470.2 727051
3 1470.2 712794
3 1470.2 707932
3 1470.71 703906
3 1484.18 801670
3 1484.18 764055
3 1484.18 758393
3 1484.18 748856
3 1484.18 746000
3 1484.18 737074
3 1484.65 732832
3 1484.65 730328
3 1484.65 729025
3 1484.65 721730
3 1492.61 712569
3 1492.93 712055
3 1493.25 710927
3 1498.23 828316
3 1498.23 802142
3 1498.23 779292
3 1498.23 778786
3 1498.23 773723
3 1498.23 733995
3 1498.23 731139
3 1498.72 726972
3 1499.54 721216
3 1499.54 717394
3 1499.86 708201
3 1499.86 707813
3 1500.18 706758
3 1500.18 705675
3 1501.02 703906
3 1512.22 795867
3 1512.22 778098
3 1512.22 772211
3 1512.22 770810
3 1512.22 769392
3 1512.22 761997
3 1512.22 761831
3 1512.67 754302
3 1512.67 749369
3 1512.67 745562
3 1512.67 733947
3 1513.13 725349
3 1513.44 724676
1 1524.84 724517
3 1525.07 707055
3 1525.07 705865
3 1525.31 705683
3 1525.52 701636
3 1526.09 825273
3 1526.09 810857
3 1526.09 802602
3 1526.09 766548
3 1526.09 765244
3 1526.09 758988
3 1526.44 754423
3 1526.65 741687
3 1526.65 739718
3 1540.11 812294
3 1540.11 810639
3 1540.11 794079
1 1540.11 771630
3 1540.11 764534
3 1540.11 753405
3 1540.52 752887
3 1540.52 750259
3 1540.52 735776
3 1540.79 733534
3 1540.79 725135
3 1547.64 722891
3 1547.64 719263
3 1547.9 717864
3 1547.9 717294
3 1548.83 713332
3 1548.83 710902
3 1549.08 710842
3 1549.08 710434
3 1549.08 707035
3 1549.39 706791
3 1549.81 706498
3 1554.14 850992
3 1554.14 843512
3 1554.14 840656
3 1554.14 836504
3 1554.14 831918
1 1554.14 830134
3 1554.14 828012
3 1554.14 814965
3 1554.14 770740
3 1554.14 759672
3 1554.14 743807
3 1554.86 742546
3 1554.86 736172
3 1555.1 724051
1 1556.02 722035
3 1556.02 719353
3 1556.02 705688
3 1556.3 704022
3 1556.3 700335
3 1556.3 697950
3 1568.09 789306
3 1568.09 785499
3 1568.09 784161
3 1568.09 766216
3 1568.09 763383
3 1568.09 749220
3 1568.09 743118
3 1568.09 736232
3 1568.52 728305
3 1568.52 725691
3 1568.52 702995
3 1568.82 702841
3 1582.07 772577
3 1582.07 754193
3 1582.07 744482
3 1582.07 730274
3 1582.07 729553
3 1582.07 715472
3 1582.41 712532
3 1582.41 712282
3 1582.65 712161
3 1596.01 863335
3 1596.01 828141
3 1596.01 790695
3 1596.01 772203
3 1596.01 770420
3 1596.01 755936
3 1596.01 755789
3 1596.01 741459
3 1596.01 739804
3 1596.59 736992
3 1596.59 719437
3 1610.11 824126
3 1610.11 823229
3 1610.11 799762
3 1610.11 781786
3 1610.11 777870
3 1610.11 763945
3 1610.11 763431
3 1610.11 755470
3 1610.46 751798
3 1610.46 741374
3 1610.46 738909
3 1610.46 737254
3 1610.46 730123
3 1610.46 729741
3 1610.46 727250
3 1610.77 717439
3 1610.77 708119
3 1610.77 705281
3 1610.77 702416
3 1624.05 788531
3 1624.05 767486
3 1624.05 752658
3 1624.05 738339
3 1624.05 737082
3 1624.05 713682
3 1624.05 713370
3 1624.45 712859
3 1624.45 711864
3 1626.46 710513
3 1626.66 708514
3 1626.66 704191
3 1626.66 702112
3 1638.08 785445
3 1638.08 781981
1 1638.08 778545
3 1638.08 776696
3 1638.08 774523
3 1638.08 769526
3 1638.08 762687
3 1638.08 750336
3 1638.46 740355
3 1638.46 735259
3 1638.46 730914
3 1638.46 729724
3 1638.46 724568
3 1638.46 724520
3 1638.79 720713
3 1652.21 796314
3 1652.21 795060
1 1652.21 778024
3 1652.21 773039
3 1652.21 770201
3 1652.21 767519
3 1652.21 756364
3 1652.21 749177
3 1652.21 726325
3 1654.12 719854
3 1654.12 718360
3 1654.12 717781
3 1666.07 798023
3 1666.07 771514
3 1666.07 765953
3 1666.07 758618
3 1666.07 753374
1 1666.07 745894
3 1666.54 738991
3 1666.54 738023
3 1666.54 736309
3 1666.54 734654
3 1666.54 728974
3 1668.01 728033
3 1668.57 714514
3 1680.08 818526
3 1680.08 786625
3 1680.08 785728
3 1680.08 775048
3 1680.08 773167
3 1680.08 764331
3 1680.08 762676
3 1680.56 746798
3 1680.56 744113
3 1680.56 743038
3 1680.56 735859
1 1680.56 728221
3 1680.56 728181
3 1694.2 814394
3 1694.2 800198
3 1694.2 798543
3 1694.2 788661
3 1694.2 782229
3 1694.2 778997
3 1694.7 772078
3 1694.7 769946
3 1694.7 766303
3 1694.7 765502
3 1694.7 756913
3 1694.7 732497
3 1694.7 731074
3 1695.19 728690
3 1695.49 724700
3 1708.04 829810
3 1708.04 802805
3 1708.04 777931
3 1708.04 763303
3 1708.04 754705
3 1708.04 739118
3 1708.04 736364
3 1708.04 736255
3 1708.04 732200
3 1708.04 728393
3 1708.61 727149
3 1708.61 724293
3 1708.61 719194
3 1708.98 716698
3 1708.98 706365
3 1708.98 704710
3 1722.14 773816
3 1722.14 766840
3 1722.14 761799
3 1722.14 754962
3 1722.55 739493
3 1722.55 739413
3 1723.97 738171
3 1723.97 737322
3 1736.04 846306
3 1736.04 829164
3 1736.04 777111
3 1736.04 775695
3 1736.04 775538
3 1736.04 760893
3 1736.04 759473
3 1736.04 741388
3 1736.04 739848
3 1736.55 736255
3 1736.55 733471
3 1736.55 730615
3 1736.55 728330
3 1737.99 727695
3 1739.36 723943
3 1739.91 720136
3 1750.18 864358
3 1750.18 825641
3 1750.18 808499
3 1750.18 804856
3 1750.18 789535
3 1750.18 786679
1 1750.18 780167
3 1750.18 770822
3 1750.18 768140
3 1750.18 742279
3 1750.18 740328
3 1750.7 736582
3 1750.7 735601
3 1750.7 732044
3 1750.7 729188
3 1751.37 725381
3 1752.46 723680
3 1752.46 719760
3 1752.81 711162
3 1753.15 710087
3 1764.26 779295
3 1764.26 761655
3 1764.26 761349
3 1764.26 753384
3 1764.26 745120
3 1764.26 742826
3 1764.26 741160
3 1764.76 741036
3 1764.76 736101
3 1764.76 735288
3 1764.76 728705
3 1765.16 727039
3 1778.17 801753
3 1778.17 786295
3 1778.17 771885
3 1778.17 729642
3 1778.17 720293
3 1778.17 719312
3 1779.49 717816
3 1779.49 714103
3 1779.81 713096
3 1780.39 713029
3 1792.08 810553
3 1792.08 810039
3 1792.08 791421
3 1792.08 775154
3 1792.08 773499
3 1792.08 773139
3 1792.08 759278
3 1792.08 752293
3 1792.08 743695
3 1792.5 742775
3 1792.87 737074
3 1792.87 729025
3 1792.87 728104
3 1793.12 723649
3 1793.12 721730
3 1796.53 713231
3 1796.53 712569
3 1796.76 710927
3 1798.13 710549
3 1807.02 792702
3 1807.02 785198
3 1807.02 772544
3 1807.02 772130
3 1807.45 767122
3 1807.45 760624
3 1807.45 743221
3 1807.81 738663
3 1807.81 732289
3 1808.7 721131
3 1808.7 717488
3 1809.57 713136
3 1809.57 704405
3 1820.14 824441
3 1820.14 797844
3 1820.14 789081
3 1820.14 772814
3 1820.14 760429
3 1820.14 759327
3 1820.14 757747
3 1820.14 752207
3 1820.14 749149
3 1820.14 742775
3 1820.14 740731
3 1820.75 735796
3 1820.75 725135
3 1821.88 720263
3 1821.88 710820
3 1822.21 707108
3 1822.21 706365
3 1822.21 704710
3 1834.15 819625
3 1834.15 792319
3 1834.15 782816
3 1834.15 771781
3 1834.15 750711
3 1834.15 746265
3 1834.15 742458
3 1834.15 741883
3 1834.15 719040
3 1834.15 716358
3 1834.15 712715
3 1836.4 710534
3 1836.4 709452
3 1836.83 709159
3 1838.89 707979
3 1839.09 707434
3 1848.07 768596
3 1848.07 765914
3 1848.07 747871
3 1848.07 743427
3 1848.07 742397
3 1848.07 733809
3 1848.67 732490
3 1848.9 731610
3 1848.9 718906
3 1849.58 717327
3 1852.51 715588
3 1862.05 818898
3 1862.05 816216
3 1862.05 795171
3 1862.05 789872
3 1862.05 781274
3 1862.05 770483
3 1862.05 768108
3 1862.05 745055
3 1862.05 744783
3 1862.05 736225
3 1862.05 735184
3 1862.56 730332
3 1862.56 719393
3 1862.56 718574
3 1862.84 713275
3 1863.78 700212
3 1864.06 699864
3 1865.03 699390
3 1865.23 699165
3 1876.14 802269
3 1876.14 797978
3 1876.14 790380
3 1876.14 764493
3 1876.14 761637
3 1876.14 752532
3 1876.5 750877
3 1876.5 746832
3 1876.5 743025
3 1876.5 729146
3 1876.5 729008
3 1876.5 725573
3 1877.28 724056
3 1890.14 762688
3 1890.14 760006
3 1890.14 753131
3 1890.14 741106
1 1890.57 736798
3 1890.57 734783
3 1890.9 716929
3 1891.21 716262
3 1904.04 757281
3 1904.04 754443
3 1904.04 753209
3 1904.04 744230
3 1904.04 741230
3 1904.04 735701
3 1904.04 735161
3 1904.04 733172
3 1904.59 732399
3 1904.59 728756
3 1904.59 728666
3 1905.75 726325
3 1906.05 725135
3 1918.16 806443
3 1918.16 804150
3 1918.16 803473
3 1918.16 777685
3 1918.16 766581
3 1918.16 766442
3 1918.16 758912
3 1918.16 756230
3 1918.16 726494
3 1932.21 850407
3 1932.21 847725
3 1932.21 830053
3 1932.21 825069
3 1932.21 812529
3 1932.21 798103
3 1932.21 771655
3 1932.21 764852
3 1932.21 759082
3 1932.79 754076
3 1932.79 751171
3 1933.16 748805
3 1933.48 739594
1 1935.13 737022
3 1935.98 731335
3 1935.98 730070
3 1935.98 727360
3 1935.98 718835
3 1936.4 715220
3 1936.96 708331
3 1936.96 703786
3 1936.96 702558
3 1936.96 697235
3 1937.6 695569
3 1946.06 782493
3 1946.06 780502
3 1946.06 765696
3 1946.06 755856
3 1946.46 744658
3 1946.46 742801
3 1946.8 735321
3 1946.8 734310
3 1946.8 733086
3 1946.8 732465
3 1946.8 715370
3 1947.78 712306
3 1960.01 808852
3 1960.01 798536
3 1960.01 777497
3 1960.01 771575
3 1960.01 769375
3 1960.01 766693
3 1960.01 756835
3 1960.01 753365
3 1960.01 752834
3 1960.53 749558
1 1960.53 736170
3 1960.88 732803
3 1960.88 731925
3 1960.88 731794
3 1961.78 729274
3 1961.78 728802
3 1974.27 826671
3 1974.27 778781
3 1974.27 774748
3 1974.27 762348
3 1974.27 760509
3 1974.27 751911
3 1974.27 749035
3 1974.27 744562
3 1974.27 736605
3 1974.27 735457
3 1974.88 732970
3 1975.46 730005
3 1975.46 726922
3 1976.87 726398
3 1988.11 776500
3 1988.11 768474
3 1988.11 765947
3 1988.11 762304
3 1988.11 752236
3 1988.11 740458
3 1988.11 737820
3 1988.11 736214
3 2002.05 819609
3 2002.05 787708
3 2002.05 784852
3 2002.05 783667
3 2002.05 782012
3 2002.05 769398
3 2002.05 758572
3 2002.05 756784
3 2002.05 744170
3 2002.63 743780
3 2002.63 741430
3 2002.63 734666
3 2002.63 721036
3 2002.63 720646
3 2002.63 719771
3 2002.63 718828
3 2002.63 717173
3 2002.63 713530
3 2002.63 713370
3 2003.2 711864
3 2003.2 709917
3 2004.04 704716
3 2016.15 815225
3 2016.15 813570
3 2016.15 813277
3 2016.15 777764
3 2016.15 776911
3 2016.15 764341
3 2016.15 758983
3 2016.15 757942
3 2016.15 750930
3 2016.15 743228
3 2016.64 738620
3 2016.64 735206
3 2016.64 722559
3 2016.89 722045
3 2016.89 720990
3 2017.64 718813
3 2017.64 702546
3 2017.64 699690
3 2017.64 699390
3 2017.9 699165
3 2030.06 790011
3 2030.06 737411
3 2030.06 733768
3 2030.06 725170
3 2030.06 718284
3 2030.06 717424
3 2030.06 708413
3 2030.44 702006
3 2044.11 791446
3 2044.11 790628
3 2044.11 784798
3 2044.11 778459
3 2044.11 760787
3 2044.11 753019
3 2044.11 737376
3 2044.45 728778
3 2044.45 725135
3 2045.01 719538
3 2045.2 718348
3 2045.72 715432
3 2045.72 713610
3 2045.72 710771
3 2058.05 816184
3 2058.05 797497
3 2058.05 795139
3 2058.05 762303
3 2058.05 756307
3 2058.05 755618
3 2058.05 752936
3 2058.42 746123
3 2058.42 743476
3 2058.42 741836
3 2058.68 737291
3 2059.96 727445
3 2060.69 726868
3 2072.17 841014
3 2072.17 836079
3 2072.17 826208
3 2072.17 812481
3 2072.17 801095
3 2072.17 789541
3 2072.17 782506
3 2072.17 779432
3 2072.17 778010
3 2072.17 736385
3 2072.57 731840
3 2072.77 726325
3 2073.49 722876
1 2074.2 717670
3 2086.21 806193
3 2086.21 793215
3 2086.21 776073
3 2086.21 773521
3 2086.21 772266
3 2086.21 764717
3 2086.21 756266
3 2086.76 723914
3 2086.76 706092
3 2100.31 801402
3 2100.31 796439
3 2100.31 795006
3 2100.31 785542
3 2100.31 782605
3 2100.31 773843
3 2100.31 769169
3 2100.31 768572
3 2100.87 768132
3 2100.87 768104
3 2101.21 743141
3 2101.21 742739
1 2101.21 732682
3 2101.58 731229
3 2101.88 728016
3 2103.26 721975
3 2103.26 721085
3 2114.19 810698
3 2114.19 774644
3 2114.19 769979
3 2114.19 761381
3 2114.19 753688
3 2114.19 739232
3 2114.65 735899
3 2114.65 730688
3 2114.65 721005
3 2114.65 714040
3 2115.05 710724
3 2115.34 709330
3 2115.34 709203
3 2115.96 708876
3 2128.23 832518
3 2128.23 829662
3 2128.23 806812
3 2128.23 764578
3 2128.23 759279
3 2128.23 747709
3 2128.23 746742
3 2128.73 739249
3 2128.73 738564
3 2128.73 737946
3 2129.13 736291
3 2129.13 733609
3 2129.13 716001
1 2135.36 714219
3 2135.36 713908
3 2142.05 838877
3 2142.05 807411
3 2142.05 798347
3 2142.05 797991
3 2142.05 792246
3 2142.05 785872
3 2142.55 769634
3 2142.55 768193
3 2142.55 764386
3 2142.55 759746
3 2142.94 758324
3 2142.94 749345
3 2142.94 726532
3 2143.31 724908
3 2143.31 706486
3 2143.64 704831
3 2156.04 781975
3 2156.04 773121
3 2156.04 756854
3 2156.04 748575
3 2156.04 746920
3 2156.5 739419
3 2156.5 736759
3 2156.5 731460
3 2156.5 729380
3 2156.5 726698
3 2156.93 725135
3 2156.93 723354
3 2157.26 707392
3 2157.26 704710
3 2170.16 845316
3 2170.16 842634
3 2170.16 832301
3 2170.16 818683
3 2170.16 817028
3 2170.16 805490
3 2170.16 801951
3 2170.16 775719
3 2170.16 771592
3 2170.16 770362
3 2170.73 768736
3 2171.04 759992
3 2171.04 756349
3 2171.04 754322
3 2171.41 753293
3 2171.41 746910
3 2171.41 741891
3 2171.41 741565
3 2171.82 740236
3 2171.82 739207
3 2184.19 799244
3 2184.19 793787
3 2184.19 786899
3 2184.19 779419
3 2184.19 770681
3 2184.19 769681
3 2184.19 758880
3 2184.19 756198
3 2184.71 741313
3 2184.71 733147
3 2184.71 730465
3 2184.71 730101
3 2185.1 728446
3 2185.1 725764
3 2185.7 724942
3 2185.7 722524
3 2185.7 705095
3 2185.7 702938
3 2186.08 702546
3 2186.08 701998
3 2186.08 701847
3 2186.08 699690
3 2186.7 699390
3 2186.7 699165
1 2198.19 832865
3 2198.19 815225
3 2198.19 805623
3 2198.19 759007
3 2198.19 758867
3 2198.19 754052
3 2198.19 753570
3 2198.64 751915
3 2198.94 742751
3 2198.94 742406
3 2198.94 740983
3 2198.94 734262
3 2199.31 728853
3 2199.31 717554
3 2199.91 715899
3 2212.18 803706
3 2212.18 779959
3 2212.18 768423
3 2212.18 766710
3 2212.18 765890
3 2212.18 752075
3 2212.64 750826
3 2212.64 729500
3 2212.64 723759
3 2213.53 720860
3 2213.53 718462
3 2213.53 717053
3 2213.9 716923
3 2214.73 715764
3 2214.73 712121
3 2215.04 709584
3 2215.04 707186
3 2226.22 774958
3 2226.22 761363
1 2226.55 759738
3 2226.55 751709
3 2226.55 746372
3 2226.55 745266
3 2226.55 745206
3 2226.55 745088
3 2226.55 743414
3 2227.01 737910
3 2227.01 732323
3 2227.01 727429
3 2227.37 725774
3 2240.1 859232
3 2240.1 815832
3 2240.1 811287
3 2240.1 801416
3 2240.1 787380
3 2240.1 776001
3 2240.1 774698
3 2240.47 772016
3 2240.47 769715
3 2240.47 768846
3 2240.47 764530
3 2240.47 762875
3 2241.32 762730
3 2241.7 760750
3 2241.7 758923
1 2243.29 743018
1 2243.96 741828
3 2243.96 727793
3 2254.13 799602
3 2254.13 795959
3 2254.13 773121
3 2254.13 771466
3 2254.13 761624
3 2254.13 760527
3 2254.13 758942
3 2254.13 748017
3 2254.48 747922
3 2254.48 745240
3 2254.48 744374
3 2254.48 729064
3 2255.01 723101
3 2255.01 721633
3 2256.48 721408
3 2256.74 718608
3 2257.79 717026
3 2258.42 714994
3 2268.12 785230
3 2268.12 783575
3 2268.12 762382
3 2268.12 761192
3 2268.12 745011
3 2268.12 739419
3 2268.12 731460
3 2268.12 731374
3 2268.72 729555
3 2268.72 723181
3 2268.72 716630
3 2268.72 714232
3 2268.98 712229
3 2268.98 711938
3 2269.23 709028
3 2269.23 707977
3 2269.23 707059
3 2270.87 704548
3 2282.15 810807
3 2282.15 791110
3 2282.15 767530
3 2282.15 753737
3 2282.15 732670
3 2282.15 730226
3 2282.15 721628
3 2282.15 721216
3 2287.87 708889
3 2296.1 772687
3 2296.1 754797
3 2296.1 753635
3 2296.1 753263
3 2296.1 748836
3 2296.1 726758
3 2296.1 720731
3 2296.46 716171
3 2296.46 708252
3 2296.46 705356
3 2296.91 701847
3 2297.1 699165
3 2310.07 840609
3 2310.07 825239
3 2310.07 817794
3 2310.07 803029
3 2310.07 797211
3 2310.07 757877
3 2310.07 739748
3 2310.44 735938
3 2310.44 735830
3 2310.68 735408
3 2311.09 727232
3 2311.09 724896
3 2311.32 723589
3 2312.39 721571
3 2324.13 790149
3 2324.13 779367
3 2324.13 765272
3 2324.13 745441
3 2324.13 741634
3 2324.13 739458
3 2324.5 736776
3 2324.5 736513
3 2324.5 731426
3 2324.5 728744
3 2324.5 725574
3 2324.83 721228
3 2325.04 721166
3 2325.04 720730
3 2325.27 719064
3 2338.04 800652
3 2338.04 787046
3 2338.04 786656
3 2338.04 784358
3 2338.04 777113
3 2338.04 744546
3 2338.04 741690
3 2338.04 740093
3 2338.04 738124
3 2352.03 824109
3 2352.03 773803
3 2352.03 770376
3 2352.03 768721
3 2352.03 745668
3 2352.03 740948
3 2352.03 735184
3 2352.44 723308
3 2352.44 721138
3 2352.44 715750
3 2352.7 713037
3 2352.7 712823
3 2352.7 712568
3 2366.16 802428
3 2366.16 798770
3 2366.16 783909
3 2366.16 781879
3 2366.16 764737
3 2366.16 737822
3 2366.16 733103
3 2366.53 726860
3 2366.74 726014
3 2367.15 721469
3 2367.36 721018
3 2367.56 720309
3 2367.56 719828
3 2367.56 718173
3 2367.83 713952
3 2367.83 711507
3 2367.83 711096
3 2380.06 818646
1 2380.06 798375
3 2380.06 778952
3 2380.06 777762
3 2380.06 769164
3 2380.06 765521
3 2380.06 757869
3 2380.06 752823
3 2380.48 751619
3 2380.48 746684
3 2380.48 735745
3 2380.48 734090
3 2380.48 728791
3 2380.81 728689
3 2380.81 723080
3 2380.81 719590
3 2380.81 705484
3 2381.08 702628
1 2383.17 701656
3 2383.47 698800
3 2384.03 696118
3 2390.18 693798
3 2394.06 763494
3 2394.06 745146
3 2394.06 741339
3 2394.39 730285
3 2394.39 729097
3 2394.39 727554
3 2394.75 725309
3 2396.05 724872
3 2408.17 764980
3 2408.17 758756
3 2408.17 757101
3 2408.17 756708
3 2408.17 755042
3 2408.17 753766
3 2408.17 745168
3 2408.17 734230
3 2408.7 733642
3 2408.7 731442
3 2408.7 730786
3 2409.07 728104
3 2409.07 727029
3 2422.05 835203
3 2422.05 827749
3 2422.05 802571
3 2422.05 759294
3 2422.05 756612
3 2422.05 755246
3 2422.05 752969
3 2422.05 738675
3 2422.05 736702
3 2422.58 733802
3 2422.58 730960
3 2422.58 724586
3 2422.94 724317
3 2422.94 721730
3 2436.16 844281
3 2436.16 835531
3 2436.16 821115
3 2436.16 818462
3 2436.16 807329
3 2436.16 800070
3 2436.16 796263
3 2436.16 791678
3 2436.16 783795
3 2436.16 780441
3 2436.16 765368
3 2436.16 762801
3 2436.16 760849
3 2436.16 745134
3 2436.84 737549
3 2436.84 736536
3 2438.01 725089
3 2438.01 724575
3 2438.01 723450
3 2438.01 720768
3 2450.02 836976
3 2450.02 830602
3 2450.02 822004
3 2450.02 813943
3 2450.02 808928
3 2450.02 804862
3 2450.02 796081
3 2450.02 766215
3 2450.02 760368
3 2450.02 753994
3 2450.49 747137
3 2450.49 746775
3 2450.49 746743
3 2450.75 743237
3 2450.75 736822
3 2450.75 730601
3 2450.75 717196
3 2451.25 713682
3 2452.43 711864
3 2452.73 711123
3 2452.73 706098
3 2453.05 702525
3 2464.09 804924
3 2464.09 802068
3 2464.09 795259
3 2464.09 791737
3 2464.09 784058
3 2464.09 771444
3 2464.09 769789
3 2464.09 769402
3 2464.09 754278
3 2464.09 748431
3 2464.09 736081
3 2464.09 731810
3 2464.09 730782
3 2464.7 728100
3 2464.7 722741
3 2464.7 720836
3 2464.7 718551
3 2464.7 715869
3 2478.03 801660
3 2478.03 797985
3 2478.03 797197
3 2478.03 785107
3 2478.03 768965
3 2478.03 767965
3 2478.03 742480
3 2478.03 738339
3 2478.45 738015
3 2478.45 736781
3 2478.45 732218
3 2478.72 729926
3 2478.72 728411
3 2478.72 725573
3 2479.01 718935
3 2479.01 714634
3 2479.01 711952
3 2479.32 707366
3 2492.14 759767
3 2492.14 738472
3 2492.14 725249
3 2492.14 723583
3 2492.48 717417
3 2492.48 713135
1 2497.33 711141
3 2506.08 782942
3 2506.08 771901
3 2506.08 754352
3 2506.08 754189
3 2506.08 752905
3 2506.08 750140
3 2506.49 731676
3 2506.49 723378
3 2506.49 721962
3 2506.79 705724
3 2507.01 704710
3 2520.06 732337
3 2520.06 726583
3 2520.06 723901
3 2520.06 721338
3 2520.06 712705
3 2520.06 712522
3 2520.06 709452
3 2520.06 707688
3 2520.06 703261
3 2534.06 890673
3 2534.06 847710
3 2534.06 795657
3 2534.06 791636
3 2534.06 775398
3 2534.06 760429
3 2534.06 749558
3 2534.47 745011
3 2534.47 734586
3 2534.72 730434
3 2535.15 726698
3 2535.15 725135
3 2535.43 719172
3 2535.64 716495
3 2535.91 707392
3 2535.91 707225
3 2548.01 826245
3 2548.01 772512
3 2548.01 770846
3 2548.01 769191
3 2548.01 750039
3 2548.01 747357
3 2548.01 741067
3 2548.01 740707
3 2548.01 739652
3 2548.01 736900
3 2548.01 734062
3 2548.62 717742
3 2548.62 716422
3 2548.62 712730
3 2549 712364
3 2549.3 707133
3 2549.3 703326
3 2562.21 832289
3 2562.21 804794
3 2562.21 772953
3 2562.21 769756
3 2562.21 768859
3 2562.21 754416
3 2562.21 752761
3 2562.21 747490
3 2562.21 747462
3 2562.8 740951
3 2563.13 739497
3 2563.13 737144
3 2564.36 727232
3 2564.36 725577
3 2564.7 722180
3 2564.7 711475
3 2568.03 711202
3 2568.03 710979
3 2576.04 809731
3 2576.04 792091
3 2576.04 791144
3 2576.04 741222
3 2576.04 728787
3 2576.04 727426
3 2576.04 724570
3 2576.04 719539
3 2576.04 718512
3 2577.97 715857
3 2577.97 713001
3 2577.97 709194
3 2590.03 800941
3 2590.03 794480
3 2590.03 792491
3 2590.03 786716
3 2590.03 780163
3 2590.03 763032
3 2590.03 763021
3 2590.03 757733
3 2590.03 754658
3 2590.03 750477
3 2590.03 746834
3 2590.03 735463
3 2590.03 729797
3 2590.03 728131
3 2590.78 726941
3 2590.78 725093
3 2593.31 718878
3 2593.31 717083
3 2593.31 715185
3 2593.73 714788
3 2593.73 713519
3 2593.73 711864
3 2594.35 710141
3 2594.35 707773
3 2594.87 707764
3 2595.39 704191
3 2595.95 702525
3 2604.18 815872
3 2604.18 790356
3 2604.18 786754
3 2604.18 754853
3 2604.18 750726
3 2604.18 737167
3 2604.18 726386
3 2604.18 726228
3 2604.18 720929
3 2604.75 718247
3 2604.75 712017
3 2604.75 710291
3 2605.11 709901
3 2605.39 699690
3 2605.39 699390
3 2605.39 699165
3 2618.15 833265
3 2618.15 801364
3 2618.15 801139
3 2618.15 783997
3 2618.15 777658
3 2618.15 776515
3 2618.15 772930
3 2618.15 766912
3 2618.15 755722
3 2618.15 746603
3 2618.15 744160
3 2618.8 744091
3 2618.8 742772
1 2618.8 731017
3 2618.8 730551
3 2619.15 722992
3 2619.15 721239
3 2619.41 720136
3 2619.7 717524
3 2619.7 715869
3 2632.13 770846
3 2632.13 754756
3 2632.13 753101
3 2632.13 750088
3 2632.13 741434
3 2632.48 715701
3 2633.19 711939
3 2633.19 709362
1 2641.07 708200
3 2641.07 706914
3 2641.41 701409
3 2646.12 775910
3 2646.12 773054
3 2646.12 755465
3 2646.12 727458
3 2646.12 726055
3 2646.56 717589
3 2646.56 713875
3 2648.78 712500
3 2660.15 774567
3 2660.15 741696
3 2660.15 724554
3 2660.5 719035
3 2660.5 716423
3 2660.5 712783
3 2660.5 708728
3 2662.46 704921
3 2674.15 780117
3 2674.15 752697
3 2674.15 738010
3 2674.15 733075
3 2674.15 730985
3 2674.53 730943
3 2674.75 712540
3 2674.75 711778
3 2674.75 709684
3 2688.05 803958
3 2688.05 800315
3 2688.05 784077
3 2688.05 776981
3 2688.05 770691
3 2688.05 757925
3 2688.05 742789
3 2688.05 734191
3 2688.05 727817
3 2688.05 725188
3 2688.05 725135
3 2689.03 718608
3 2689.03 707108
3 2689.26 704710
3 2702.13 812747
3 2702.13 802159
3 2702.13 794241
3 2702.13 771243
3 2702.13 764745
3 2702.13 741415
3 2702.13 734097
3 2702.13 729929
3 2702.13 726418
3 2702.13 720655
3 2702.13 715556
3 2702.13 714297
3 2702.13 705699
3 2716.16 810230
3 2716.16 798954
3 2716.16 764099
3 2716.16 747864
3 2716.16 739442
3 2716.16 738486
3 2716.16 736434
3 2716.16 733354
3 2716.16 730672
3 2716.16 725533
3 2716.8 721216
3 2730.05 821123
3 2730.05 803483
3 2730.05 796300
3 2730.05 785698
3 2730.05 777832
3 2730.05 769234
3 2730.05 754428
3 2730.05 744209
3 2730.05 744075
3 2730.49 742310
3 2730.69 740566
3 2730.69 740106
3 2730.95 739168
3 2730.95 735854
3 2730.95 726194
3 2731.21 722390
3 2744.14 804570
3 2744.14 772218
3 2744.14 769526
3 2744.14 756361
3 2744.14 752718
3 2744.14 752005
3 2744.14 735058
3 2744.14 728684
3 2744.14 727018
1 2745.18 725135
3 2745.72 717224
3 2745.92 713011
3 2745.92 710329
3 2758.13 848888
3 2758.13 816552
3 2758.13 780702
3 2758.13 779047
3 2758.13 772063
3 2758.13 749149
3 2758.13 733845
3 2758.13 731163
3 2758.13 721144
3 2758.13 718288
3 2758.13 715745
3 2758.57 714645
3 2758.77 710838
3 2759.32 705675
3 2759.68 704548
3 2772.06 816112
3 2772.06 809738
3 2772.06 797626
3 2772.06 787755
3 2772.06 780869
3 2772.06 760868
3 2772.06 759213
3 2772.06 757777
3 2772.06 750979
3 2772.06 743419
3 2772.06 739270
3 2772.72 735826
3 2772.72 730786
3 2772.72 728104
3 2773.12 727029
3 2775.62 723816
3 2775.62 723649
3 2777.14 715078
3 2777.14 712891
3 2778.31 712710
3 2786.02 795681
3 2786.02 786655
3 2786.02 769513
3 2786.02 766657
3 2786.02 762698
3 2786.02 749735
3 2786.02 736965
3 2786.02 732698
3 2786.65 731043
3 2786.65 728610
3 2786.65 721858
3 2787 718086
3 2787 717874
Score = 703110
