    Blocking waiting for file lock on package cache
    Blocking waiting for file lock on package cache
    Blocking waiting for file lock on package cache
    Blocking waiting for file lock on build directory
    Finished release [optimized] target(s) in 0.04s
     Running `target/release/tester ../a.out 0070`
3 0.02 898432
3 0.02 876372
3 0.02 861447
3 0.02 861081
3 0.02 858845
3 0.02 851427
3 0.02 849560
3 0.02 825540
3 0.351 822128
3 0.351 819002
3 1.114 817829
3 1.389 816953
3 14.165 904119
3 14.165 895222
3 14.165 872589
3 14.165 856927
3 14.165 855317
3 14.554 849428
3 14.554 842416
3 14.554 834702
3 14.821 833257
3 15.028 817211
3 15.651 814342
3 15.928 811164
3 15.928 793223
3 15.928 786111
3 15.928 784666
3 28.144 859090
3 28.144 855314
3 28.144 854360
3 28.144 838327
3 28.144 835054
3 28.144 832794
3 28.447 831349
3 28.655 827851
3 28.655 826296
3 29.068 825540
3 29.068 819531
3 29.068 819115
3 42.175 946132
3 42.175 936054
3 42.175 906771
3 42.175 887654
3 42.175 847096
3 42.175 831434
3 42.175 828555
3 42.175 828022
3 42.912 826773
3 43.28 825849
1 45.087 825458
3 45.087 815807
3 45.087 813141
3 45.087 798740
3 45.498 797040
3 56.238 904646
3 56.238 882013
3 56.238 878601
3 56.238 872496
3 56.238 870236
3 56.238 854178
3 56.238 837397
3 56.238 836443
3 56.88 833449
3 56.88 824663
3 58.01 822760
3 70.19 874568
3 70.19 869129
3 70.19 865717
3 70.19 859767
3 70.19 848490
3 70.19 846336
3 70.606 842905
3 70.606 828775
3 70.903 828292
3 70.903 822548
3 70.903 819136
3 71.446 819002
3 72.277 816953
3 84.014 899588
3 84.014 898664
3 84.014 887470
3 84.014 885151
3 84.014 874576
3 84.014 859983
3 84.014 856444
3 84.014 856272
3 84.014 850700
3 84.014 844783
3 84.014 834208
3 84.416 831972
3 84.416 825740
3 84.416 819315
3 84.635 819115
3 84.635 808740
3 84.635 805328
3 98.091 924699
3 98.091 922439
3 98.091 883223
3 98.091 877479
3 98.091 868856
3 98.091 862768
3 98.333 861971
3 98.333 850613
3 99.159 844051
3 99.159 841574
3 99.159 840061
3 99.766 839338
3 99.766 838384
3 107.264 837197
3 107.439 836080
3 107.439 823609
3 107.611 822164
3 107.611 821370
3 107.611 819110
3 112.193 917772
3 112.193 916673
3 112.193 878001
3 112.193 873430
3 112.193 860873
3 112.193 859106
3 112.193 853253
3 112.193 842591
3 112.193 834886
3 112.193 833846
3 112.193 833204
3 112.683 832892
3 112.683 829275
3 112.683 822002
3 112.683 821587
3 112.683 820557
3 113.023 816932
3 126.045 851678
3 126.467 839421
3 126.467 826965
3 126.467 826542
3 126.467 824259
3 126.467 814169
3 126.467 812211
3 140.156 884168
3 140.156 857954
3 140.156 848241
3 140.156 847287
3 140.156 836009
3 140.515 833876
3 140.515 815826
3 141.352 806405
3 141.352 804144
3 141.352 803190
3 141.665 802039
3 154.053 891733
3 154.053 876071
3 154.053 858050
1 154.262 850116
3 154.262 844442
3 154.501 841920
3 154.501 837937
3 154.802 832263
3 163.302 832240
3 163.302 826190
3 163.489 824883
3 163.489 822396
3 163.489 821241
3 163.489 819002
3 164.201 817829
3 164.201 816953
3 168.055 879173
3 168.055 875923
1 168.055 873434
3 168.055 862859
3 168.055 855663
3 168.055 843089
3 168.055 841748
3 168.617 841644
3 168.617 828286
3 168.617 819115
3 182.076 897228
3 182.076 895384
3 182.076 893124
3 182.076 877462
3 182.076 858249
3 182.076 842213
1 182.076 841210
3 182.076 832299
3 182.076 828887
3 182.076 823269
3 185.082 814518
3 185.082 814092
3 185.387 812055
3 185.387 808918
3 196.085 869326
3 196.085 839292
3 196.085 837056
3 196.085 832832
3 196.085 829420
3 196.085 822898
3 196.085 821621
3 196.085 817525
3 196.33 807344
3 196.33 807292
3 196.505 804886
3 196.68 804680
3 203.11 798076
3 210.108 905052
3 210.108 895338
3 210.108 888231
3 210.108 841961
3 210.108 838632
3 210.108 815367
3 210.108 814213
3 210.108 813131
3 210.39 809179
3 210.584 805767
3 210.584 804418
3 210.584 804309
3 210.584 803103
3 211.079 801581
3 211.079 800136
3 224.073 911453
3 224.073 882250
3 224.073 872868
3 224.073 871248
3 224.073 869569
3 224.073 862806
3 224.073 853307
3 224.073 853092
3 224.073 841337
3 224.073 823195
3 224.395 820959
3 224.395 814137
3 225.386 813363
3 225.386 812057
3 225.386 811127
3 225.582 805825
3 225.582 798820
3 238.227 914335
3 238.227 909449
3 238.227 892275
3 238.227 890039
3 238.227 876342
3 238.227 870548
3 238.227 868754
3 238.227 867309
3 238.227 852498
3 238.227 845836
3 238.997 845775
3 238.997 842887
3 239.595 841304
3 239.595 840285
3 239.595 837548
3 239.595 835972
3 239.947 831405
3 240.231 831123
3 241.757 830571
3 242.322 825397
3 252.211 912640
3 252.211 873792
3 252.211 869666
3 252.211 868221
3 252.211 864135
3 252.211 858130
3 252.211 851902
3 255.643 851463
3 255.643 850018
3 255.643 827385
3 256.611 820722
3 256.809 814413
3 257.629 808020
3 257.629 802700
3 257.629 799288
3 257.629 798334
3 258.124 797749
3 258.124 796304
3 266.051 865615
3 266.051 864024
3 266.051 863355
3 266.051 857962
3 266.051 854550
3 266.051 840300
3 266.051 837469
3 266.278 837345
3 266.278 834533
3 266.458 831985
3 266.458 829604
3 266.866 827368
3 266.866 822095
3 267.046 815531
3 267.046 814086
3 280.057 887637
3 280.057 882999
3 280.057 877255
3 280.057 865556
3 280.057 861108
3 280.057 859663
3 280.057 858739
3 280.057 854622
3 280.057 851820
3 280.057 841245
3 280.057 834625
3 280.563 830674
3 280.889 827523
3 280.889 824011
3 281.209 816222
3 281.209 815858
3 281.477 814413
3 294.004 858529
3 294.004 839836
3 294.004 839366
3 294.004 820660
3 294.218 806432
3 294.381 800688
1 303.283 800312
3 303.568 798282
3 303.568 798076
3 308.155 849402
3 308.155 845143
3 308.35 837141
3 308.974 831133
3 308.974 830937
3 322.135 861598
3 322.135 846644
3 322.135 844800
3 322.135 844680
3 322.135 840372
3 322.135 838119
3 322.135 829164
3 322.512 826965
3 322.512 826104
3 322.512 824779
3 322.512 822167
3 322.844 822047
3 323.441 816506
3 323.995 800740
3 324.313 800688
3 336.129 891982
3 336.129 862771
3 336.129 859633
3 336.129 858188
3 336.376 857766
3 336.376 850120
3 336.376 846693
3 336.376 844790
3 336.376 841038
3 336.376 833209
3 336.376 831764
3 336.602 831091
3 336.602 812677
3 350.196 899677
3 350.196 890918
3 350.196 885174
3 350.196 882286
3 350.196 881013
3 350.196 869989
3 350.196 841131
3 350.196 832917
3 350.196 831769
3 350.626 829408
3 350.626 828454
3 350.626 825104
3 350.626 823134
3 350.626 821621
3 354.987 816255
3 354.987 814019
3 355.181 813344
3 364.22 979482
3 364.22 953695
3 364.22 922623
3 364.22 904682
3 364.22 897447
3 364.22 897299
3 364.22 887859
3 364.22 886395
3 364.625 879970
3 364.625 878126
3 364.625 876681
3 364.625 871440
3 364.625 857251
3 364.625 854639
3 364.86 848895
3 364.86 843034
3 364.86 841304
3 365.146 839859
3 365.488 837168
3 365.488 831405
3 365.488 825397
3 378.08 838571
1 378.08 828588
3 378.08 825176
3 378.08 822860
3 378.08 819394
3 378.438 798984
3 378.438 798076
3 379.816 797797
3 392.068 868829
3 392.068 852094
3 392.068 842492
3 392.266 840452
3 392.266 836548
3 392.266 832361
3 392.266 819876
3 392.453 819485
3 392.453 815933
3 393.371 814696
3 393.371 811759
3 393.371 811615
3 406.147 874745
3 406.147 869602
3 406.147 852503
3 406.147 843646
3 406.147 833197
3 406.147 833071
3 406.438 823931
3 406.438 821671
3 406.663 819435
3 407.26 817775
3 408.48 817259
3 408.48 815686
3 408.48 813847
3 408.48 813450
3 420.19 867510
3 420.19 865250
3 420.19 858763
3 420.19 857318
3 420.19 854556
3 420.571 848812
3 420.571 838188
3 420.571 836743
3 434.07 948867
3 434.07 905207
3 434.07 899353
3 434.07 853443
3 434.29 846638
3 434.29 846012
3 434.482 844567
3 434.657 840622
3 434.657 825660
3 434.657 825198
3 434.858 824244
3 448.151 851827
3 448.151 836707
3 448.151 829194
3 448.151 827850
3 448.151 810405
3 448.151 810237
3 448.151 810136
3 451.641 803015
3 451.641 802973
3 452.105 802543
3 462.038 866766
3 462.038 864415
3 462.038 853840
3 462.038 852119
3 462.038 851825
3 462.038 843846
3 462.038 834690
3 462.038 828423
3 462.038 826681
3 462.038 823376
3 462.038 822422
3 462.038 816678
3 464.406 811169
3 464.406 800312
3 464.406 799857
3 464.601 798076
3 464.907 797797
3 476.153 851335
3 476.153 845283
3 476.153 843336
3 476.153 824403
3 476.153 822958
3 476.912 821640
3 476.912 820722
3 476.912 814584
3 476.912 814583
3 477.315 812170
3 477.315 811588
3 477.315 810725
3 477.315 802413
3 477.709 799329
3 478.106 797093
3 490.031 871351
3 490.031 851402
3 490.031 848684
3 490.031 841410
3 490.031 830169
3 490.031 827934
3 490.031 824389
3 490.031 821952
3 490.031 808198
3 504.055 869960
3 504.055 864629
3 504.055 849407
3 504.055 837683
1 516.707 836185
3 516.707 834313
3 518.194 873952
3 518.194 868208
3 518.194 862388
3 518.194 850158
3 518.194 847566
3 518.194 846121
3 518.567 833532
3 518.567 830075
3 518.884 815378
3 518.884 810725
3 518.884 805036
3 518.884 802592
3 519.209 798869
3 519.209 797258
3 519.209 796304
3 532.055 882297
3 532.055 865809
3 532.055 864654
3 532.055 863993
3 532.055 833756
3 532.055 832311
3 532.055 827344
3 532.055 823932
3 532.055 819507
3 532.447 818062
3 532.447 815826
3 546.101 894039
3 546.101 870878
3 546.101 867881
3 546.101 862137
3 546.101 839380
3 546.101 837144
3 546.813 836190
1 549.196 833510
3 560.072 906468
3 560.072 893994
3 560.072 893242
3 560.072 892649
3 560.072 891166
3 560.072 889237
3 560.072 874015
3 560.072 873196
3 560.072 869264
3 560.072 863475
3 560.491 863282
3 560.491 862315
3 560.491 862000
3 560.491 861046
3 560.491 857634
3 560.834 839567
1 564.509 839353
3 564.509 838650
3 564.509 826398
3 564.714 825771
3 564.714 822359
3 564.714 821790
3 564.714 821162
3 574.055 911163
3 574.055 889103
3 574.055 873236
3 574.055 862306
3 574.055 862234
3 574.055 856342
3 574.055 854560
3 574.055 853418
3 574.055 847674
3 574.055 844293
3 574.055 841362
3 574.485 835599
3 574.485 832187
3 575.228 831011
3 575.228 828775
3 575.471 813113
3 588.053 893094
3 588.053 883252
3 588.053 860619
3 588.053 848174
3 588.053 847991
3 588.278 846652
3 588.476 838680
3 588.476 833568
3 588.476 830525
3 588.659 830181
3 588.982 828985
3 588.982 828375
3 588.982 826930
3 589.159 825538
3 589.159 823518
3 589.641 814245
3 589.941 814153
3 589.941 813185
3 602.132 929461
3 602.132 879427
3 602.132 876524
3 602.132 853491
3 602.132 839373
3 602.132 829076
3 602.132 820164
3 602.814 819040
3 616.036 878260
3 616.036 873670
3 616.036 872716
3 616.036 870578
3 616.483 856946
3 616.483 855501
3 616.483 853265
3 616.483 840020
3 618.194 837591
3 630.311 854695
3 630.311 840319
3 630.311 836907
3 630.311 835415
3 630.311 833179
3 631.743 821966
3 632.043 821788
3 632.043 818023
3 632.043 816044
3 644.179 871077
3 644.179 849969
3 644.179 848422
3 644.179 846977
3 644.179 824518
3 644.179 823363
3 644.179 822869
3 644.666 822161
3 645.353 817727
3 645.353 816153
3 658.02 927298
3 658.02 897002
3 658.02 895557
3 658.02 879183
3 658.02 865302
3 658.02 864486
3 658.383 863224
3 658.383 860988
3 658.383 854322
3 658.383 845992
3 658.383 842905
3 658.383 833191
3 658.383 825052
3 658.753 822128
3 658.753 819002
3 661.5 816953
3 672.091 873124
3 672.091 867697
3 672.091 844836
3 672.091 834449
3 672.091 817199
3 672.091 816399
3 672.091 815328
3 672.091 808409
3 672.091 805767
3 672.497 805339
3 672.497 803103
3 672.497 801581
3 672.818 800136
3 686.093 977159
3 686.093 951372
3 686.093 940687
3 686.093 928739
3 686.093 919071
3 686.093 909357
3 686.093 901694
3 686.093 882459
3 686.093 870199
3 686.093 864894
3 686.093 861781
3 686.093 851022
3 686.093 841602
3 686.561 833688
3 686.561 821961
3 686.561 818635
3 686.872 818031
3 687.153 816399
3 687.435 803799
3 687.435 803103
3 687.435 801581
3 687.741 800136
3 700.086 897733
3 700.086 891725
3 700.086 888821
3 700.086 866761
3 700.086 851240
3 700.086 850453
3 700.086 844709
3 700.086 842449
3 700.086 840620
1 700.086 837988
3 700.086 835752
3 700.086 822164
3 701.198 821233
3 714.034 890801
3 714.034 870793
3 714.034 859769
3 714.034 851540
3 714.034 850586
3 714.034 832962
3 714.44 829550
3 727.769 823518
3 728.128 876809
3 728.128 855969
3 728.128 854378
3 728.128 836685
3 728.128 823389
3 728.128 814374
3 728.128 804309
3 728.378 803103
3 728.542 801581
3 728.722 800136
3 742.176 875463
3 742.176 869228
3 742.176 865816
3 742.176 865437
3 742.176 862136
3 742.176 854862
3 742.176 849118
3 742.602 846720
3 742.925 843308
3 743.216 825660
3 743.501 821641
3 743.778 820272
3 756.053 931131
3 756.053 876689
3 756.053 869884
3 756.053 866986
3 756.053 866340
3 756.053 863574
3 756.053 860749
3 756.053 851394
3 756.395 833344
3 757.069 831640
3 757.618 828920
3 757.618 825152
3 757.618 822447
3 757.825 818571
3 757.825 817945
3 758.999 815240
3 759.285 814533
3 770.099 908108
3 770.099 899225
3 770.099 881284
3 770.099 867372
3 770.099 859233
3 770.099 851503
3 770.099 835024
3 770.099 831401
3 770.099 827989
3 770.099 826544
3 770.798 820829
3 771.074 819617
3 771.074 819136
3 771.074 819002
3 771.946 817829
3 772.115 816953
3 784.113 862899
3 784.113 854883
3 784.113 837729
3 784.113 836694
3 784.113 836300
3 784.113 830414
3 784.362 824670
3 784.362 822410
3 784.783 821869
3 798.022 890222
3 798.022 875214
3 798.022 867720
3 798.022 863791
3 798.022 859301
3 798.022 846302
3 798.022 833063
3 798.022 832109
3 798.022 826483
3 798.29 820261
3 798.29 807174
3 798.29 806683
3 798.29 806505
3 798.487 804471
3 798.487 803849
3 812.142 873739
3 812.142 867827
3 812.142 864415
3 812.142 853840
3 812.142 840994
3 812.142 823053
3 812.464 822992
3 812.631 818627
3 812.631 818031
3 813.926 817182
3 813.926 816112
3 813.926 815497
3 813.926 814052
3 814.515 807721
3 814.795 805483
3 814.795 804993
3 815.092 801581
3 815.092 800136
3 826.06 886987
3 826.06 877935
3 826.06 867385
3 826.323 849444
3 826.323 843881
3 826.323 835522
3 826.323 834207
3 826.323 820356
3 826.323 818886
3 826.578 817965
3 826.991 814553
3 827.29 812802
3 827.29 810542
3 827.29 808522
3 827.504 808131
3 840.071 894873
3 840.071 886114
3 840.071 877324
3 840.071 863739
3 840.071 860327
3 840.071 848111
3 840.451 848091
3 840.451 845064
3 840.451 844140
3 840.451 842715
3 840.451 837857
3 840.451 833358
3 840.818 833271
3 840.818 832872
3 840.818 821406
3 841.134 820355
3 841.134 818095
3 841.425 817994
3 841.963 817696
3 844.398 803881
3 844.398 797093
3 854.035 965413
3 854.035 911285
3 854.035 909840
3 854.035 896436
3 854.035 891933
3 854.035 890692
3 854.035 881266
3 854.035 864905
3 854.035 849618
3 854.035 845689
3 854.035 842272
3 854.035 841880
3 854.035 833741
3 854.035 833415
3 854.035 828615
3 854.404 824883
3 854.404 821640
3 854.579 820722
3 854.579 816248
3 856.366 814137
3 859.977 808510
3 859.977 808129
3 868.029 895831
3 868.029 877592
3 868.029 876147
3 868.029 873219
3 868.029 852171
3 868.029 846520
3 868.276 843101
3 868.276 827439
3 868.276 825179
3 868.276 821518
3 868.276 812456
3 868.511 811511
3 868.511 809009
3 873.255 803001
3 882.045 858514
3 882.045 849064
3 882.045 843379
3 882.045 841657
3 882.397 837959
3 882.397 837635
3 882.397 835723
3 883.861 833902
3 884.156 833515
3 884.156 832561
3 884.156 825655
3 884.156 821883
3 884.472 813211
3 896.003 878577
3 896.003 847716
3 896.003 840266
3 896.003 838030
3 896.418 819980
3 898.707 815974
3 899.017 810821
3 899.179 807931
3 899.179 806748
3 899.179 800740
3 899.407 798076
3 910.054 875805
3 910.054 867449
3 910.054 865729
3 910.054 864284
3 910.054 855888
3 910.054 854934
3 910.054 843910
3 910.054 840587
3 910.328 839357
3 910.328 837834
3 910.328 833196
3 910.328 833094
3 910.328 831649
3 910.586 830936
3 924.226 886135
3 924.226 870763
3 924.226 841521
3 924.226 835746
3 924.226 830002
3 924.226 828713
3 924.565 817263
3 924.738 812138
3 924.738 810348
3 924.738 810020
3 925.21 801997
3 925.365 801306
3 938.062 902450
3 938.062 881132
3 938.062 858158
3 938.062 842998
3 938.062 842878
3 938.062 832576
3 938.062 827870
3 938.062 824283
3 938.331 822047
1 942.416 814233
3 942.416 812449
3 942.728 804026
3 942.728 798282
3 942.728 798076
3 952.026 888030
3 952.026 877044
3 952.026 872888
3 952.026 858305
3 952.026 854947
3 952.026 836575
3 952.026 835597
3 952.413 831874
3 952.413 829621
3 952.413 827385
3 952.413 809235
3 952.758 802413
3 953.22 799329
3 953.22 797093
3 966.138 927570
3 966.138 898627
3 966.138 872469
3 966.138 865003
3 966.138 859630
3 966.138 856807
3 966.138 823332
3 966.458 820164
3 966.458 819228
3 966.458 818834
3 966.458 817880
3 966.959 817875
3 966.959 817778
3 980.093 885254
3 980.093 876992
3 980.093 857610
3 980.093 855374
3 980.093 837751
3 980.093 834339
3 980.093 832079
3 980.493 829329
3 994.13 934855
3 994.13 905789
3 994.13 851661
3 994.13 841880
3 994.13 837294
3 994.13 835058
3 994.487 829177
3 994.487 827732
3 995.028 821526
3 995.028 820869
3 995.028 815782
3 995.028 814988
3 995.418 813543
3 1008.02 849515
3 1008.02 848070
3 1008.02 842326
3 1008.61 833332
3 1008.92 831429
3 1009.22 824896
3 1009.22 824220
3 1009.22 822874
3 1009.52 820808
3 1009.52 820691
3 1010.1 815391
3 1010.65 812743
3 1010.65 811298
3 1010.65 810151
3 1022.14 903876
3 1022.14 880491
3 1022.14 874665
3 1022.14 871584
3 1022.14 868125
3 1022.14 866977
3 1022.14 856852
3 1022.49 853440
3 1022.49 851232
3 1022.49 841518
3 1022.49 832460
3 1022.68 817552
1 1023.87 810468
3 1023.87 809981
3 1023.87 808536
3 1036.11 923199
3 1036.11 917455
3 1036.11 896137
3 1036.11 890724
3 1036.11 883919
3 1036.11 873612
3 1036.11 870350
3 1036.11 868114
3 1036.11 860586
3 1036.11 854262
3 1036.11 844924
3 1036.39 843054
3 1036.39 842664
3 1036.39 840383
3 1036.39 830460
3 1036.6 827778
3 1036.6 827048
3 1050.05 916151
3 1050.05 914335
3 1050.05 900670
3 1050.05 899225
3 1050.05 885073
3 1050.05 876314
3 1050.05 870570
3 1050.05 868334
3 1050.05 857759
3 1050.05 854036
3 1050.35 853584
3 1050.35 849570
3 1050.35 848125
3 1050.35 843138
3 1050.59 838255
3 1050.59 834169
3 1050.59 827680
3 1050.88 824883
3 1050.88 819002
3 1051.28 817829
3 1051.28 816953
3 1064.08 892471
3 1064.08 891152
3 1064.08 851426
3 1064.08 845474
3 1064.08 829812
3 1064.08 829505
3 1064.35 829410
3 1064.51 828450
3 1064.51 822635
3 1064.51 819228
3 1064.51 817880
3 1064.84 817875
3 1065 817778
3 1078.13 882297
3 1078.13 851697
3 1078.13 845294
3 1078.13 834760
3 1078.13 819874
3 1078.13 814406
3 1078.13 812961
3 1078.13 811966
3 1078.53 811480
3 1078.53 805736
3 1078.53 798334
3 1079.1 797749
3 1079.1 796304
3 1092.03 887312
3 1092.03 881568
3 1092.03 863880
3 1092.03 861644
3 1092.03 844337
3 1092.03 842892
3 1092.03 836295
3 1092.29 835480
3 1092.29 834035
3 1092.46 827952
3 1092.46 824690
3 1092.46 821241
3 1092.46 819683
3 1092.46 815742
3 1092.46 811375
3 1092.67 800730
3 1092.92 800218
3 1106.19 920853
3 1106.19 892040
3 1106.19 886753
3 1106.19 883341
3 1106.19 868446
3 1106.19 852784
3 1106.19 850524
3 1106.19 850324
3 1106.19 850291
3 1106.19 835805
3 1106.62 828583
3 1106.62 827629
3 1106.62 825393
3 1106.93 825287
3 1106.93 824767
3 1107.21 819848
3 1107.21 818363
3 1107.21 817896
3 1107.21 814751
3 1107.21 809745
3 1107.21 808791
3 1107.54 808053
3 1120.22 881542
3 1120.22 877356
3 1120.22 876573
3 1120.22 842027
3 1120.22 820600
3 1120.22 819394
3 1120.61 807499
3 1134.23 864661
3 1134.23 850372
3 1134.23 844156
3 1134.23 835929
3 1134.23 833693
3 1134.23 833267
3 1134.59 832263
3 1135.25 831050
3 1135.25 821644
3 1135.25 819384
3 1148.01 862695
3 1148.01 846631
3 1148.01 844395
3 1148.01 843345
3 1148.01 825295
3 1148.01 821883
3 1148.54 813211
3 1162.11 868949
3 1162.11 846441
3 1162.11 838827
3 1162.11 836591
3 1162.31 835720
3 1162.31 825145
3 1176.05 874498
3 1176.05 872262
3 1176.05 865154
3 1176.05 855734
3 1176.05 853474
3 1176.05 849109
3 1176.05 837382
3 1176.05 831638
3 1176.05 829694
3 1176.05 821615
3 1176.05 821341
3 1176.05 819008
3 1176.38 815760
3 1177 811729
3 1190.05 877207
3 1190.05 874947
3 1190.05 866275
3 1190.05 862680
3 1190.05 850613
3 1190.05 838384
3 1193.06 836707
3 1193.06 835752
3 1193.06 822164
3 1193.33 821233
3 1204.19 881566
3 1204.19 874616
3 1204.19 873133
3 1204.19 864984
3 1204.19 863539
3 1204.19 857795
3 1204.19 838021
3 1204.19 836576
3 1204.19 835972
3 1204.59 831664
3 1204.59 818031
3 1204.59 817844
3 1204.92 816399
3 1205.46 815668
3 1205.46 805339
3 1205.46 803103
3 1205.76 800136
3 1218.06 896673
3 1218.06 896204
3 1218.06 872361
3 1218.06 862873
3 1218.06 830436
3 1218.06 823519
3 1218.06 822858
3 1218.31 820722
3 1220.39 816248
3 1220.94 814137
3 1222.06 801056
3 1222.06 798845
3 1222.36 798820
3 1232.13 896989
3 1232.13 849324
3 1232.13 831383
3 1232.13 819881
3 1232.13 815122
3 1232.47 814137
3 1232.78 809955
3 1232.78 808510
3 1233.14 808129
3 1246.2 862326
3 1246.2 859351
3 1246.2 858076
3 1246.2 854079
3 1246.2 853957
3 1246.55 836016
3 1246.85 834133
3 1246.85 826718
3 1246.85 821858
3 1246.85 821608
3 1247.69 820735
3 1247.69 819905
3 1247.98 819190
3 1247.98 815916
3 1247.98 815614
3 1247.98 814631
3 1248.63 812673
3 1260.12 875600
3 1260.12 857354
3 1260.12 836886
3 1260.46 836036
3 1260.46 818538
3 1260.81 816278
3 1274.15 887906
3 1274.15 877221
3 1274.15 870567
3 1274.15 868978
3 1274.15 863124
3 1274.15 862477
3 1274.15 861916
3 1274.15 844513
3 1274.15 842277
3 1274.77 839904
3 1274.77 838459
3 1274.77 817696
3 1275.13 800469
3 1275.13 797093
3 1288.1 856529
3 1288.1 850785
3 1288.1 843952
3 1288.6 840540
3 1288.6 837908
3 1292.41 830476
3 1292.41 825029
3 1302.12 931025
3 1302.12 906104
3 1302.12 875032
3 1302.12 863645
3 1302.12 852643
3 1302.12 835826
3 1302.12 825878
3 1302.12 822177
3 1302.51 820164
3 1303.04 819228
3 1303.59 817783
3 1303.88 809771
3 1303.88 806359
3 1309 800612
3 1309 799167
3 1316.16 885956
3 1316.16 877170
3 1316.16 870294
3 1316.16 839424
3 1316.16 828849
3 1316.45 823105
3 1316.45 822322
3 1316.45 812575
3 1316.74 811956
3 1316.74 810678
3 1316.74 810511
3 1316.97 810315
3 1330.21 884434
3 1330.21 873240
3 1330.21 872390
3 1330.21 866646
3 1330.21 866051
3 1330.21 865095
3 1330.21 849873
3 1330.54 838178
3 1337.02 836952
3 1337.02 832316
3 1337.02 828066
3 1337.02 823321
3 1337.22 817577
3 1344.01 890233
3 1344.01 866324
3 1344.01 859427
3 1344.01 853683
3 1344.01 841230
3 1344.01 840276
3 1344.01 818538
3 1344.01 815126
3 1344.32 812866
3 1358.11 850984
3 1358.11 831972
3 1358.11 828830
3 1358.34 827385
3 1358.34 820722
3 1358.51 805825
3 1358.51 802413
3 1358.84 799329
3 1358.84 797093
3 1372.21 836721
3 1372.21 825592
3 1372.21 825330
3 1372.21 823776
3 1372.21 821300
3 1372.56 819040
3 1372.56 817486
3 1372.56 813850
3 1372.86 811374
3 1386.09 893657
3 1386.09 872769
3 1386.09 871485
3 1386.09 870561
3 1386.09 851211
3 1386.09 843175
3 1386.09 841730
3 1386.09 832451
3 1386.09 822869
3 1386.09 820769
3 1386.5 818266
3 1386.5 814999
3 1386.5 813155
3 1386.5 811710
3 1390.02 803571
3 1390.02 802005
3 1400.1 891536
3 1400.1 883700
3 1400.1 861239
3 1400.1 855333
3 1400.1 850106
1 1400.47 845729
3 1400.47 842192
3 1400.47 841675
3 1400.47 841310
3 1400.47 839932
3 1400.47 835520
3 1400.47 829497
3 1400.84 824270
3 1401.12 823753
3 1408.52 818054
3 1408.52 807702
3 1408.52 806748
3 1409.04 806388
3 1414.19 875197
3 1414.19 864070
3 1414.19 844720
3 1414.19 831537
3 1414.19 821739
3 1414.82 821169
3 1414.82 812475
3 1415.11 806731
3 1428.05 904664
3 1428.05 865992
3 1428.05 858783
3 1428.05 842571
3 1428.05 840732
3 1428.4 839778
3 1428.4 834538
3 1442.01 887122
3 1442.01 883341
3 1442.01 851278
3 1442.01 844349
3 1442.29 833337
3 1442.29 830149
3 1442.29 829884
3 1442.52 828439
3 1442.52 825152
3 1442.52 821740
3 1442.52 816793
3 1442.89 815287
3 1444.03 814533
3 1456.01 871248
3 1456.01 858050
3 1456.01 847301
3 1456.01 845856
3 1456.01 842819
3 1456.01 828164
3 1456.01 824147
3 1456.26 823223
3 1456.26 821501
3 1456.6 818834
3 1456.6 818324
3 1457.44 817880
3 1457.74 817875
3 1457.9 817778
3 1470.01 900431
3 1470.01 894687
3 1470.01 869514
3 1470.01 856804
3 1470.01 853392
3 1470.01 837403
3 1470.27 834952
1 1470.63 834175
3 1470.63 825389
3 1470.88 823228
3 1470.88 819293
3 1470.88 816131
3 1471.09 815881
3 1484.04 916969
3 1484.04 897144
3 1484.04 878297
3 1484.04 876724
3 1484.04 875279
3 1484.41 869535
3 1484.41 856946
3 1484.41 854686
3 1484.63 851691
3 1484.63 850246
3 1484.63 839172
3 1484.63 832305
3 1498.19 851673
3 1498.19 837272
3 1498.19 835827
3 1498.19 835623
3 1498.19 833445
3 1498.19 833278
3 1498.84 822307
3 1498.84 821916
3 1498.84 817546
3 1498.84 816151
3 1498.84 814685
3 1498.84 812449
3 1499.14 810754
3 1499.32 802887
3 1499.32 801933
3 1499.32 801671
3 1499.5 792312
3 1499.5 788900
3 1499.88 788694
3 1512.02 860940
3 1512.02 855196
3 1512.02 852960
3 1512.65 852248
3 1512.65 852007
3 1512.96 850281
3 1512.96 845807
3 1512.96 844796
3 1513.24 836530
3 1513.24 833719
3 1526.03 907702
3 1526.03 903604
3 1526.03 886804
3 1526.03 878189
3 1526.03 865152
3 1526.03 861066
3 1526.03 859956
3 1526.03 856336
3 1526.03 854891
3 1526.03 850572
3 1526.44 849127
3 1526.44 843727
3 1526.8 836645
3 1526.8 835683
3 1526.8 832633
3 1526.8 830220
3 1527.13 828775
3 1527.96 827527
3 1528.3 822545
3 1528.3 817978
3 1540.11 885449
3 1540.11 875559
3 1540.11 870992
3 1540.11 869547
3 1540.11 843468
3 1540.11 843049
3 1540.11 837724
3 1540.11 835455
3 1540.37 831066
3 1540.56 823932
3 1540.56 823731
3 1540.74 817271
3 1540.9 816222
3 1540.9 814583
3 1541.08 812170
3 1541.08 800469
3 1541.08 797093
3 1554.18 879812
3 1554.18 879711
3 1554.18 870952
3 1554.18 855191
3 1554.18 835164
3 1554.18 825998
3 1554.18 807344
3 1554.6 804680
3 1556.12 803820
3 1556.12 798076
3 1568.11 942953
3 1568.11 937209
3 1568.11 907198
3 1568.11 893549
3 1568.11 865152
3 1568.11 848634
3 1568.11 847554
3 1568.47 847189
3 1568.47 844953
3 1568.8 839868
3 1568.8 838903
3 1568.8 832263
3 1569.32 828790
3 1569.6 827635
3 1569.6 819617
3 1569.6 819384
3 1582.06 933930
3 1582.06 922805
3 1582.06 917667
3 1582.06 867747
3 1582.06 842514
3 1582.06 839282
3 1582.42 836770
3 1582.62 831143
3 1582.62 825093
3 1582.88 823756
3 1582.88 823195
3 1582.88 819189
3 1582.88 816953
3 1596.05 916070
3 1596.05 912760
3 1596.05 894710
3 1596.05 851455
3 1596.05 848043
3 1596.05 845376
3 1596.05 834534
3 1596.05 833876
3 1596.05 833498
3 1596.33 824187
3 1596.33 819753
3 1596.33 817517
3 1596.33 814324
3 1596.55 810912
3 1596.55 804309
3 1596.55 800136
3 1610.02 875414
3 1610.02 863093
3 1610.02 852518
3 1610.02 846937
3 1610.02 844048
3 1610.36 832250
3 1610.36 817677
3 1610.67 815186
3 1610.67 814346
3 1610.96 814169
3 1614.19 810272
3 1614.19 807919
3 1616.34 806916
3 1616.34 804886
3 1616.53 804680
3 1616.53 803820
3 1616.53 798076
3 1630.72 874240
3 1630.72 859032
3 1630.72 853288
3 1630.72 851028
3 1631.44 845681
3 1631.44 843818
3 1638.24 895670
3 1638.24 889926
3 1638.24 866122
3 1638.55 854785
3 1638.55 852039
3 1638.55 847724
3 1638.55 831673
3 1638.55 830228
3 1638.85 827792
3 1638.85 826816
3 1639.13 821253
3 1639.41 820762
3 1639.41 819017
3 1640.17 808105
3 1652.02 912073
3 1652.02 906329
3 1652.02 902718
3 1652.02 894800
3 1652.02 887108
3 1652.02 873920
3 1652.02 870508
3 1652.02 866754
3 1652.02 865800
3 1652.28 848236
3 1652.28 847104
3 1652.28 844844
1 1657.72 828223
3 1657.72 825201
3 1658.02 822965
3 1666.03 852065
3 1666.03 851111
3 1666.03 845902
3 1666.03 842446
3 1666.26 841681
3 1666.26 839421
3 1666.26 833658
3 1666.26 831557
3 1666.26 830633
3 1666.26 826844
3 1666.47 822277
3 1666.81 816232
1 1669.45 815105
3 1673.63 813663
3 1673.83 811816
3 1680.2 907582
3 1680.2 877964
3 1680.2 866056
3 1680.2 851504
3 1680.2 842648
3 1680.2 841254
3 1680.58 838994
3 1680.58 835822
3 1680.58 831043
3 1680.58 827033
3 1680.58 826818
3 1680.91 824727
3 1694.08 899983
3 1694.08 894239
3 1694.08 891736
3 1694.08 865949
3 1694.43 847899
3 1694.43 834101
3 1694.43 826816
3 1708.07 880323
3 1708.07 878878
3 1708.07 868460
3 1708.07 865248
3 1708.07 859240
3 1708.07 857264
3 1708.07 840806
3 1708.07 835599
3 1708.33 832187
3 1708.5 830084
3 1708.91 828775
1 1709.09 826692
3 1709.09 824849
3 1709.26 821437
3 1709.26 814720
3 1709.26 813275
3 1722.06 979041
3 1722.06 978368
3 1722.06 947296
3 1722.06 932613
3 1722.06 923393
3 1722.06 911295
1 1722.06 901837
3 1722.06 888436
3 1722.06 883869
3 1722.06 875684
3 1722.06 857634
3 1722.06 846440
1 1723.8 844211
3 1723.8 843474
3 1723.8 842319
3 1723.8 832730
3 1723.8 830990
3 1736.14 903724
3 1736.14 903289
3 1736.14 897545
3 1736.14 892834
3 1736.14 892558
3 1736.14 887227
3 1736.14 883584
3 1736.14 868362
3 1736.14 856368
3 1736.14 849372
3 1736.14 840352
3 1736.14 832316
3 1736.6 828292
3 1736.6 819737
3 1736.6 818724
3 1736.6 818292
3 1736.6 817509
3 1736.6 815887
3 1738.14 813987
3 1750.11 904659
3 1750.11 902399
3 1750.11 901138
3 1750.11 886737
3 1750.11 859041
3 1750.11 853581
3 1750.11 849309
3 1750.11 842802
3 1750.42 825087
3 1750.62 824967
3 1750.85 824133
3 1751.96 818389
3 1764.01 897760
3 1764.01 896605
3 1764.01 893193
3 1764.01 876906
3 1764.01 875952
3 1764.01 853892
1 1767.71 846007
3 1767.71 844562
3 1778.17 922875
3 1778.17 882407
3 1778.17 871237
3 1778.17 869161
3 1778.17 853939
3 1778.17 852784
3 1778.17 849372
3 1778.55 841883
3 1778.9 840414
3 1778.9 838178
3 1781.84 836706
3 1781.84 823401
3 1782.08 820892
3 1782.08 819813
3 1782.3 817577
3 1792.11 850814
3 1792.11 825442
3 1792.11 823208
3 1792.11 817464
3 1792.11 816872
3 1792.32 815427
3 1792.32 813827
3 1792.32 811591
3 1792.49 806361
3 1792.82 800290
3 1792.98 799408
3 1792.98 799135
3 1793.17 795723
3 1793.34 793664
3 1806.14 850723
3 1806.14 846319
3 1806.14 836759
3 1806.14 831918
3 1806.14 830257
3 1806.14 829303
3 1806.14 823559
3 1806.14 822161
3 1806.83 821762
3 1806.83 821025
3 1806.83 815036
3 1806.83 814819
3 1806.83 812776
1 1807.76 811303
3 1807.76 803725
3 1807.76 802280
3 1807.76 801694
3 1807.76 800740
3 1807.76 798076
3 1808.43 796921
3 1808.59 795953
3 1808.59 794508
3 1820.1 888120
3 1820.1 871585
3 1820.1 867593
3 1820.1 867032
3 1820.1 866907
3 1820.1 864796
3 1820.1 862384
3 1820.1 853340
3 1820.52 848484
3 1820.52 844483
3 1820.52 839632
3 1820.83 833888
3 1820.83 824233
3 1821.12 821997
3 1834.14 910401
3 1834.14 897319
3 1834.14 892752
3 1834.14 886484
3 1834.14 850957
3 1834.14 848454
3 1834.14 846218
3 1834.53 841275
3 1834.53 840321
3 1834.76 838283
3 1834.76 833680
3 1834.76 832525
3 1834.76 829233
3 1834.76 826997
3 1834.96 823585
3 1835.13 820999
3 1848.15 904616
3 1848.15 878489
3 1848.15 876790
3 1848.15 876258
3 1848.15 872745
3 1848.15 865722
3 1848.15 864702
3 1848.58 848362
3 1862.23 879961
3 1862.23 874737
3 1862.23 867389
3 1862.23 859124
3 1862.23 853551
3 1862.23 852954
3 1862.69 852490
3 1862.69 846746
3 1862.69 831520
3 1862.69 824715
3 1862.69 822167
3 1862.69 820722
3 1863.24 814584
3 1863.45 805825
3 1863.45 797093
3 1876.04 896905
3 1876.04 883466
3 1876.04 880054
3 1876.04 858981
3 1876.04 853772
3 1876.04 844058
3 1876.04 834854
3 1876.04 825733
3 1876.04 822161
3 1876.7 814272
3 1877.78 812332
3 1878.05 812112
3 1878.05 810887
3 1890.11 898596
3 1890.11 890485
3 1890.11 889040
3 1890.11 872569
3 1890.11 864966
3 1890.11 853239
3 1890.11 851828
3 1890.53 846739
3 1890.53 844503
3 1890.53 843846
3 1890.53 826453
3 1890.53 825298
3 1890.53 819554
3 1890.53 819445
3 1890.53 817095
3 1890.91 816033
3 1891.49 813084
3 1891.49 809898
3 1891.49 806748
3 1892.33 800740
3 1892.33 799857
3 1892.33 798076
3 1892.93 796921
3 1892.93 794508
3 1904.12 892380
3 1904.12 891733
3 1904.12 879173
3 1904.12 864661
3 1904.12 856434
3 1904.12 856008
3 1904.12 849917
3 1904.12 842213
3 1904.12 841058
3 1904.12 837646
3 1904.6 836201
3 1904.6 835455
3 1906.83 834168
3 1907.15 833012
3 1918.2 879352
3 1918.2 877116
3 1918.2 866431
3 1918.2 862707
3 1918.2 856963
3 1918.2 855364
3 1918.2 844492
3 1918.2 843336
3 1918.63 839924
3 1918.79 824086
3 1918.79 821850
3 1918.79 820415
3 1918.79 817549
3 1918.79 814137
3 1930.73 813363
3 1930.73 811918
3 1930.92 809707
3 1931.08 809682
3 1932.11 899535
3 1932.11 888960
3 1932.11 873025
3 1932.11 867490
3 1932.11 863173
3 1932.11 857207
3 1932.11 855778
3 1932.11 853518
3 1932.11 843907
3 1932.5 842012
3 1932.5 839776
3 1932.5 823456
3 1932.82 822680
3 1933.09 821726
3 1946.11 870949
3 1946.11 844867
3 1946.11 832408
3 1946.11 832125
3 1946.11 823484
3 1946.11 818773
3 1946.11 817328
3 1946.11 817263
3 1947.31 807741
3 1947.31 807050
3 1947.31 802121
3 1947.31 801997
3 1948.79 801306
3 1960.14 901597
3 1960.14 863830
3 1960.14 851413
3 1960.14 848608
3 1960.14 844559
3 1960.14 843094
3 1960.14 839682
3 1960.14 838289
3 1960.47 820239
3 1960.47 813752
3 1960.68 812057
3 1974.17 887234
3 1974.17 883156
3 1974.17 872257
3 1974.17 867051
3 1974.17 857663
3 1974.17 852071
3 1974.17 849861
3 1974.17 849421
3 1974.17 843171
3 1974.7 842985
3 1974.7 841726
3 1974.7 838756
3 1975.08 825551
3 1977.05 824799
3 1977.24 823163
3 1988.15 971778
3 1988.15 899180
3 1988.15 893721
3 1988.15 892410
3 1988.15 884481
3 1988.15 863163
3 1988.15 843724
3 1988.15 835873
3 1988.53 833433
3 1988.53 827172
3 1988.53 824011
3 1988.86 822858
3 1988.86 820722
3 1989.96 817549
3 1990.35 816248
3 1991.04 814137
3 1992.79 808129
3 2002.07 876834
3 2002.07 873945
3 2002.07 864217
3 2002.07 861957
3 2002.07 858545
3 2002.44 857083
3 2002.44 852137
3 2003.03 852043
3 2003.33 850598
3 2003.33 848362
3 2016.15 880003
3 2016.15 870289
3 2016.15 869016
3 2016.15 857106
3 2016.15 855383
3 2016.15 853123
3 2016.15 848178
3 2016.15 845432
3 2016.15 839068
3 2016.15 838546
3 2016.15 835134
3 2016.58 831520
3 2016.58 826296
3 2017.69 819531
3 2017.69 819115
3 2030.14 906515
3 2030.14 900771
3 2030.14 896204
3 2030.14 890196
3 2030.14 888931
3 2030.14 887486
3 2030.14 845027
3 2030.14 839627
3 2030.14 838610
3 2030.14 829753
3 2030.14 826341
3 2030.14 821850
3 2030.42 818704
3 2030.42 817715
3 2030.62 817549
3 2030.62 816248
3 2031.23 814137
3 2036.28 808129
3 2044.09 918011
3 2044.09 900521
3 2044.09 890024
3 2044.09 885750
3 2044.09 872498
3 2044.09 857932
3 2044.09 849173
3 2044.09 839727
3 2044.09 835477
3 2044.09 832299
3 2044.09 827033
3 2044.53 812318
3 2044.53 810873
3 2044.53 810788
3 2044.53 809798
3 2044.84 809092
3 2044.84 808935
3 2044.84 807981
3 2045.14 807647
3 2058.02 858845
3 2058.02 843327
3 2058.02 843138
3 2058.02 825289
3 2058.02 821877
3 2058.02 821396
3 2058.38 819136
3 2060.48 819047
3 2060.48 819002
3 2063.36 816953
3 2072.08 911053
3 2072.08 876007
3 2072.08 872092
3 2072.08 869536
3 2072.08 868680
3 2072.08 848683
3 2072.43 839960
3 2072.43 839924
3 2073.21 839726
3 2073.21 833756
3 2073.21 831520
3 2073.21 830075
3 2073.21 820722
3 2074.06 818794
3 2074.06 816222
3 2074.06 804495
3 2074.38 803881
3 2074.38 797093
3 2086.19 894147
3 2086.19 888733
3 2086.19 886497
3 2086.19 881316
3 2086.53 866906
3 2086.53 856598
3 2086.53 850538
3 2086.53 849644
3 2086.53 833982
3 2086.89 824324
3 2088.29 819847
3 2088.29 817544
3 2088.29 812631
3 2088.6 812201
3 2100.04 891537
3 2100.04 858819
3 2100.04 858048
3 2100.04 853770
3 2100.04 839840
3 2100.04 836730
3 2100.04 836509
3 2100.04 828023
3 2100.04 825934
3 2100.31 825261
3 2114.26 894342
3 2114.26 882324
3 2114.26 879037
3 2114.26 861278
3 2114.26 855534
3 2114.26 852935
3 2114.26 851285
3 2114.64 848573
3 2114.64 846338
3 2114.64 843980
3 2114.64 841720
3 2114.64 835886
3 2114.98 832474
3 2115.54 814533
3 2128.12 904783
3 2128.12 897124
3 2128.12 891380
3 2128.12 891241
3 2128.12 890426
3 2128.12 876025
3 2128.12 857766
3 2128.12 854346
3 2128.12 853392
3 2128.12 851156
1 2128.73 848123
3 2128.9 847670
3 2129.08 846156
3 2129.08 844737
3 2129.08 844711
3 2129.08 839721
3 2129.4 838056
3 2129.61 835796
3 2129.61 829729
3 2142.14 862901
3 2142.14 854626
3 2142.14 847573
3 2142.14 845727
3 2142.14 836685
3 2142.14 827780
3 2142.39 825520
3 2142.39 816399
3 2142.76 815668
3 2142.76 815186
3 2142.76 814471
3 2142.76 812211
3 2156.19 881835
3 2156.19 878285
3 2156.19 863286
3 2156.52 849546
3 2156.52 847306
3 2156.52 846824
3 2156.84 840774
3 2156.84 839329
3 2170.08 871070
3 2170.08 857678
3 2170.08 831891
3 2170.08 822708
3 2170.08 822047
3 2170.08 819296
3 2170.08 818970
1 2170.08 798076
3 2170.41 797906
3 2170.41 797797
3 2184.15 899494
3 2184.15 882189
3 2184.15 881553
3 2184.15 877349
3 2184.15 875904
3 2184.15 871502
3 2184.15 870160
3 2184.15 852110
3 2184.46 851156
1 2191.61 844711
3 2191.61 829729
3 2198.03 896667
3 2198.03 891976
3 2198.03 883561
3 2198.03 865511
3 2198.03 859767
3 2198.03 853290
3 2198.3 846214
3 2198.3 844769
3 2198.93 843147
3 2198.93 832572
3 2199.12 824006
3 2207.75 820959
3 2207.92 818790
3 2208.08 817657
3 2208.08 816554
1 2208.08 814137
3 2208.39 800529
3 2212.07 888530
3 2212.07 862316
3 2212.07 841392
3 2212.07 833799
3 2212.07 824371
3 2212.07 820959
3 2212.07 814137
3 2212.44 812170
3 2212.44 808463
3 2212.75 802413
3 2212.75 799329
3 2212.75 797093
3 2226.26 869860
3 2226.26 864116
3 2226.26 863957
3 2226.26 855998
3 2226.6 853620
3 2226.6 851360
3 2226.9 851097
3 2226.9 849350
3 2227.22 843934
3 2227.22 835698
3 2227.22 828293
3 2227.53 824881
3 2240.25 901082
1 2240.25 885585
3 2240.25 879841
3 2240.25 836804
3 2240.25 826160
3 2240.25 825579
3 2240.72 824560
3 2240.72 822324
3 2240.72 812743
3 2241.43 809650
3 2248.94 809331
3 2254.18 904035
3 2254.18 900623
3 2254.18 884961
3 2254.18 867176
3 2254.18 866911
3 2254.18 865466
3 2255.99 834005
3 2255.99 832774
3 2256.28 832522
3 2256.56 831367
3 2256.84 827955
3 2268.06 953883
3 2268.06 948139
3 2268.06 904630
3 2268.06 902727
3 2268.06 871441
3 2268.06 866687
3 2268.06 864184
3 2268.43 842866
3 2269.25 830857
3 2269.53 827445
3 2282.01 874908
3 2282.01 873753
3 2282.01 864994
3 2282.01 842994
3 2282.01 839582
3 2282.01 830779
3 2282.01 822708
3 2282.01 819296
3 2282.25 813288
3 2282.72 808930
3 2282.72 804901
3 2282.93 800142
3 2282.93 798189
3 2283.1 795953
3 2283.25 794508
3 2296.04 900485
3 2296.04 894741
3 2296.04 860475
3 2296.04 850558
3 2296.04 846152
3 2296.04 844660
3 2296.04 843916
3 2296.43 843774
3 2296.43 826816
3 2296.43 815010
3 2296.99 814084
3 2298.44 813671
3 2298.77 809384
3 2310.05 906032
3 2310.05 873389
3 2310.05 847039
3 2310.05 841158
3 2310.05 840240
3 2310.05 830761
3 2310.05 828318
3 2310.05 820415
3 2310.49 820164
3 2311.81 817486
3 2311.81 813850
3 2312.1 811488
3 2312.1 811374
3 2324.11 893637
3 2324.11 871577
3 2324.11 865939
3 2324.11 849245
3 2324.11 837735
3 2324.11 836046
3 2324.11 833810
3 2324.4 827821
3 2324.4 824409
3 2324.4 822396
3 2324.4 818104
3 2324.62 816659
1 2328.72 815309
3 2328.72 814777
3 2329.35 799167
1 2338.01 952973
3 2338.01 937311
3 2338.01 893651
3 2338.01 886734
3 2338.01 875010
3 2338.3 857653
3 2338.3 851424
3 2338.3 849979
3 2338.54 841122
3 2338.54 840255
3 2339.09 839628
3 2339.61 836216
3 2352.13 898546
3 2352.13 880605
3 2352.13 877561
3 2352.13 864651
3 2352.13 852730
3 2352.13 841983
3 2352.13 837068
3 2352.38 833178
3 2352.55 830925
3 2366.14 855903
3 2366.14 845925
3 2366.14 840196
3 2366.14 834452
3 2366.14 833622
3 2366.14 823777
3 2366.51 821541
3 2366.51 815994
3 2366.51 810250
3 2380.16 904384
3 2380.16 899881
3 2380.16 890167
3 2380.16 875628
3 2380.16 864943
3 2380.16 858138
3 2380.16 855902
3 2380.16 841685
3 2380.16 838239
3 2380.16 836794
3 2380.16 834534
3 2380.16 818872
3 2380.63 806149
3 2380.63 803799
3 2380.8 803103
3 2381.18 801581
3 2381.18 800136
3 2394.11 892886
3 2394.11 873534
3 2394.11 873152
3 2394.11 863652
3 2394.11 863315
3 2394.11 848044
3 2394.33 839721
3 2394.33 837461
3 2394.33 836016
3 2394.33 835595
3 2394.33 825582
3 2394.53 815007
3 2394.53 803103
3 2394.86 800136
3 2408.16 855415
3 2408.16 837925
3 2408.16 830968
3 2408.16 821739
3 2408.16 813758
3 2408.48 811164
3 2408.67 810346
3 2408.67 806536
3 2422.12 877348
3 2422.12 871879
3 2422.12 869619
3 2422.12 853957
3 2422.12 853682
3 2422.12 849550
3 2422.12 844449
3 2422.12 844276
3 2422.35 843413
3 2422.35 842040
3 2422.35 840001
3 2422.35 839047
3 2422.35 831918
3 2422.72 831848
3 2422.89 830403
3 2422.89 828452
3 2422.89 827791
3 2422.89 822167
3 2422.89 822047
3 2423.27 816506
3 2423.43 813446
3 2423.43 807702
3 2423.43 801694
3 2423.43 800740
3 2423.69 800688
1 2423.98 798076
3 2436.04 888069
3 2436.04 880714
3 2436.04 870139
3 2436.04 822219
3 2436.04 821225
3 2436.31 813756
3 2436.31 812311
3 2450.04 881743
3 2450.04 881320
3 2450.04 875576
3 2450.04 843254
3 2450.04 840607
3 2450.04 840182
3 2450.41 840127
3 2450.41 839936
3 2450.41 835609
3 2450.73 824166
3 2451.26 819878
1 2457.57 818378
3 2457.57 814819
3 2457.88 806748
3 2458.43 806388
3 2464.05 874540
3 2464.05 866986
3 2464.05 861242
3 2464.38 857280
3 2464.38 847566
3 2464.38 840022
3 2464.38 839427
3 2464.38 837056
3 2464.38 836201
3 2464.38 835455
3 2464.38 829447
3 2478.1 846403
3 2478.1 840659
3 2478.1 839279
1 2481.01 830750
3 2481.01 823564
3 2481.01 818681
3 2492.02 956490
1 2492.02 949145
3 2492.02 944507
3 2492.02 921079
3 2492.02 918587
3 2492.02 907469
3 2492.02 899293
3 2492.02 889419
3 2492.02 876660
3 2492.02 856787
3 2492.02 842275
3 2492.02 832435
3 2492.02 826427
3 2492.02 820683
3 2492.47 819729
3 2492.47 819632
3 2492.47 816317
3 2492.47 813173
3 2492.47 811728
3 2492.95 804520
3 2493.56 803968
3 2506.2 855773
3 2506.2 853839
3 2506.2 834455
3 2506.2 832771
3 2506.2 825966
3 2506.2 823291
3 2506.2 820554
3 2506.2 818738
3 2506.56 815326
3 2506.56 814660
3 2507.03 814372
3 2520.25 881808
3 2520.25 879818
3 2520.25 867215
3 2520.25 857758
3 2520.25 835894
3 2520.25 832432
3 2520.25 832091
3 2520.25 825582
3 2520.25 815007
3 2520.59 806654
3 2520.59 805767
3 2520.76 804309
3 2520.94 802071
3 2521.1 801581
3 2521.1 800136
3 2534.09 898370
3 2534.09 882708
3 2534.09 876964
3 2534.09 866389
3 2534.09 864944
3 2534.09 849936
1 2534.49 846350
3 2534.49 846103
3 2534.49 838501
3 2534.68 831746
3 2534.68 829650
3 2534.68 829314
3 2548.14 865066
3 2548.14 863621
3 2548.14 839916
3 2548.14 837892
3 2548.14 831039
3 2548.14 827627
3 2548.5 826920
3 2548.5 819746
3 2548.5 818955
3 2548.5 815527
3 2548.5 813211
3 2562.05 954680
3 2562.05 919110
3 2562.05 916874
3 2562.05 915719
3 2562.05 877952
3 2562.05 867130
3 2562.05 833765
3 2562.05 831529
3 2562.05 830084
3 2562.32 828775
3 2562.48 826372
3 2562.48 822960
3 2562.48 817978
3 2576.03 899225
3 2576.03 898429
3 2576.03 895017
3 2576.03 886790
3 2576.03 861225
3 2576.03 847921
3 2576.03 837382
3 2576.03 835937
3 2576.03 822134
3 2576.41 816120
3 2576.41 810376
1 2583.16 801852
3 2590.02 891368
3 2590.02 886801
3 2590.02 861260
3 2590.02 860587
3 2590.02 854806
3 2590.02 854749
3 2590.02 854198
3 2590.02 831565
3 2590.42 829329
3 2604.1 885290
3 2604.1 880493
3 2604.1 879048
3 2604.1 857730
3 2604.1 856454
3 2604.1 855985
3 2604.1 837905
3 2604.1 831520
3 2604.52 830075
3 2604.52 828602
3 2604.52 823293
3 2604.52 817549
3 2618.09 924000
3 2618.09 904423
3 2618.09 886773
3 2618.09 882206
3 2618.09 875425
3 2618.09 869416
3 2618.76 863672
3 2619.05 862227
3 2632.2 900147
1 2632.2 882820
3 2632.2 864178
3 2632.2 863470
3 2632.2 862874
3 2632.2 862137
3 2632.2 852662
3 2632.2 847175
3 2632.2 842824
3 2632.57 842398
3 2632.57 840572
3 2632.86 838986
3 2632.86 826512
3 2633.14 824508
3 2633.14 818083
3 2633.35 815148
3 2633.35 811736
3 2633.35 810280
3 2633.53 808740
3 2633.69 805328
3 2646.12 875628
3 2646.12 864434
3 2646.12 856909
3 2646.12 854944
3 2646.12 852708
3 2646.12 834958
3 2646.12 824906
3 2646.12 824873
3 2646.12 819040
3 2646.61 813344
3 2660.26 862790
3 2660.26 860554
3 2660.26 839571
3 2660.26 837921
3 2660.26 828388
3 2660.26 819980
3 2664.65 813695
3 2665.24 808541
3 2665.54 807981
3 2665.54 807647
3 2674.01 873059
3 2674.01 867608
3 2674.01 865348
3 2674.01 860950
3 2674.01 846357
3 2674.25 845636
3 2674.25 843833
3 2674.25 843759
3 2674.25 831609
3 2675.44 827592
3 2675.44 826064
3 2675.44 812989
3 2675.67 810126
3 2675.67 809239
3 2676 808084
3 2676.17 807370
3 2688.22 914901
3 2688.22 912641
3 2688.22 903882
3 2688.22 893307
3 2688.22 887563
3 2688.22 866299
3 2688.22 865763
3 2688.22 856365
3 2688.22 839948
3 2688.22 830215
3 2688.69 827955
3 2688.69 824543
3 2688.69 824363
3 2688.69 816582
3 2690.66 814480
3 2690.95 813212
3 2702.07 873497
3 2702.07 869483
3 2702.07 847283
3 2702.07 839913
3 2702.07 834169
3 2702.07 833288
3 2702.36 831953
3 2702.36 830508
3 2702.54 824849
3 2702.54 823008
3 2702.54 821437
3 2702.78 815152
3 2702.78 814720
3 2702.78 814305
3 2702.78 813275
3 2716.19 882603
3 2716.19 863354
3 2716.19 862400
3 2716.19 861576
3 2716.19 857743
3 2716.19 847136
3 2716.19 843724
3 2716.65 842739
3 2716.65 832958
3 2716.65 832040
3 2716.65 816248
3 2717.83 814137
3 2722.19 801056
3 2722.37 800529
3 2730.02 910626
3 2730.02 909181
3 2730.02 895799
3 2730.02 870851
3 2730.02 853132
3 2730.02 845341
3 2730.02 845232
3 2730.02 841820
3 2730.4 837647
3 2730.4 824423
3 2730.4 816618
3 2730.4 814802
3 2730.4 813848
3 2730.76 810912
3 2730.76 809482
3 2730.76 804418
3 2730.76 803799
3 2731.09 801581
3 2731.37 800136
3 2744.18 905764
3 2744.18 897556
3 2744.18 877964
3 2744.18 877290
3 2744.18 855119
3 2744.18 851087
3 2744.18 848827
3 2744.57 847925
3 2744.57 847565
3 2744.57 833756
3 2744.57 826247
3 2744.57 824929
3 2744.89 824011
3 2744.89 820107
3 2745.38 817331
3 2746.49 815886
3 2758.12 930379
3 2758.12 914717
3 2758.12 908973
3 2758.12 907117
3 2758.12 905672
3 2758.12 902861
3 2758.12 881543
3 2758.12 867920
3 2758.12 848570
3 2758.55 846334
3 2758.55 845380
3 2772.02 892770
3 2772.02 888139
3 2772.02 885085
3 2772.02 881480
3 2772.02 863063
3 2772.39 858899
3 2772.39 855487
3 2772.39 853803
3 2772.39 840972
3 2772.39 838712
3 2786.05 864630
3 2786.05 843312
3 2786.05 832807
3 2786.05 823962
3 2786.05 821726
query_times: 3
Score = 780192
