    Blocking waiting for file lock on package cache
    Blocking waiting for file lock on package cache
    Blocking waiting for file lock on package cache
    Finished `release` profile [optimized] target(s) in 0.07s
     Running `target/release/tester ../a.out 0075`
3 0.021 1087257
3 0.021 1079318
3 0.021 1054863
3 0.021 1051625
3 0.021 1044411
3 0.021 1029814
3 0.579 1016435
3 0.579 1003370
3 0.579 999606
3 0.579 997715
3 0.938 996754
3 0.938 979554
3 0.938 971757
3 0.938 965946
3 1.322 956155
3 1.322 949284
3 1.322 949235
3 1.663 945847
3 1.663 936567
3 1.663 932420
3 14.057 1011905
3 14.057 982348
3 14.057 968584
3 14.057 962597
3 14.6 960152
3 14.6 955460
3 14.6 954145
3 16.347 945533
3 28.013 1081896
3 28.013 1072105
1 28.013 1059815
3 28.013 1055166
3 28.013 1038328
3 28.013 1026276
3 28.687 993074
3 28.687 973795
3 30.113 965773
3 30.61 965659
3 30.61 964533
3 31.138 961452
3 31.612 956786
3 42.489 1041891
3 42.489 1027639
3 42.489 1016200
3 42.489 1012554
3 42.489 1011904
3 42.489 1009134
3 43.191 1001372
3 43.191 996787
3 43.191 994559
3 43.191 990825
3 43.191 976573
3 43.808 976020
3 43.808 967174
3 43.808 956005
3 44.353 955781
3 44.353 943403
3 44.858 941453
3 44.858 939804
3 45.79 939138
3 46.27 939095
3 47.617 936444
3 48.082 934068
3 51.511 933246
3 51.98 931976
3 56.346 1075723
3 56.346 1053763
3 56.346 1046842
3 56.346 1045261
3 56.346 1039457
3 56.346 1025246
3 56.346 984567
3 57.084 978313
3 57.084 966280
3 57.084 964245
3 57.646 962801
3 57.646 961119
3 57.646 951053
3 58.216 950695
3 58.216 943059
3 58.722 940985
3 70.081 1167125
3 70.081 1151375
3 70.081 1119340
3 70.081 1099277
3 70.081 1096115
3 70.081 1082712
3 70.081 1069859
3 70.081 1062697
3 70.081 1054241
3 70.081 1053688
3 70.081 1051049
3 70.081 1046563
3 70.081 1032664
3 70.081 1012789
3 70.081 1009295
3 71.002 1003180
3 71.002 1000952
3 71.002 993019
3 71.002 990123
3 71.002 975723
3 71.646 974469
3 71.646 972241
3 71.646 965413
3 71.646 962315
3 72.246 954165
3 72.743 954085
3 72.743 950519
3 76.266 949586
3 76.266 946975
3 76.792 942045
3 76.792 938399
3 77.305 937576
3 77.305 937099
3 77.808 931112
3 80.012 928712
3 80.012 922112
3 84.073 1090439
3 84.073 1088211
3 84.073 1069924
3 84.073 1067383
3 84.073 1052332
3 84.073 1050382
3 84.073 1023338
3 84.073 985486
3 84.073 981577
3 84.073 972101
3 84.073 962041
3 84.073 958114
3 84.929 956054
3 85.416 949015
3 85.416 948620
3 85.416 943096
3 85.416 942064
3 88.608 940868
3 98.238 1102525
3 98.238 1053965
3 98.238 1048067
3 98.238 1031280
3 98.238 1029330
3 98.238 1024932
3 98.238 1004917
3 98.983 990665
3 98.983 984678
3 98.983 984182
3 98.983 983531
3 100.064 979133
3 100.546 972311
3 101.036 967680
3 101.036 963638
3 101.99 961881
3 101.99 961145
3 101.99 960235
3 105.188 958917
3 107.863 957401
3 107.863 957324
3 108.366 953282
3 112.141 1061464
3 112.141 1058746
3 112.141 1038731
3 112.141 1026931
3 112.141 1012477
3 112.801 1005487
3 112.801 1000787
3 112.801 996632
3 112.801 995916
3 112.801 986100
3 113.425 982792
3 113.926 979082
3 113.926 975599
3 113.926 971566
3 114.495 970520
3 114.495 968160
3 114.495 967424
3 115.469 967153
3 115.942 965937
1 119.883 956033
3 120.234 954112
3 126.014 1062465
3 126.014 1055288
3 126.014 1041036
3 126.014 1039558
3 126.014 1031834
3 126.455 1026011
3 126.455 1017416
3 126.455 1016680
3 126.455 996719
3 126.455 991195
3 126.899 991141
3 126.899 989957
3 127.554 982035
3 127.554 971129
3 128.79 969871
3 130.706 963724
3 130.706 961838
3 140.125 1087385
3 140.125 1037353
3 140.125 1021603
3 140.125 1007602
3 140.125 992543
3 140.125 990593
3 140.125 980615
3 140.125 973806
3 140.68 967491
3 141.006 964903
3 141.006 957244
3 141.377 957188
3 141.377 954111
3 154.279 1053564
3 154.279 1046371
3 154.279 1039561
3 154.279 1035915
3 154.279 1026124
3 154.735 1013891
3 154.735 1009634
3 154.735 1002464
3 154.735 996477
3 155.149 994703
3 155.487 994249
3 155.827 994102
3 156.162 991267
3 156.162 989445
3 156.162 988325
3 156.162 981597
3 156.592 974374
3 156.592 971314
3 156.929 969086
3 157.258 967616
3 158.181 967345
3 158.181 962921
3 158.553 960971
3 168.058 1021049
3 168.058 1020775
3 168.058 1008594
3 168.058 1008174
3 168.058 1002668
3 168.058 1001187
3 168.058 989370
3 168.058 978611
3 168.058 975967
3 168.548 975176
3 169.699 970941
3 170.05 970377
3 170.05 963184
3 170.42 961086
3 170.42 958594
1 170.42 955890
3 171.313 953980
3 171.619 953433
3 174.449 946573
3 174.764 944576
3 182.247 1120168
3 182.247 1086437
3 182.247 1079173
3 182.247 1058317
3 182.247 1047130
3 182.247 1041143
3 182.247 1034639
3 182.712 1002431
3 182.712 985600
3 182.712 974976
3 182.712 971628
3 182.712 967982
3 183.116 967668
3 183.116 967609
3 183.116 958359
3 183.764 957468
3 184.097 957043
3 184.097 952597
3 184.444 948428
3 184.444 946422
3 184.444 942216
3 184.808 940595
3 185.111 938907
3 185.679 938903
3 185.679 938641
3 185.679 934995
3 196.264 1123456
3 196.264 1117752
3 196.264 1106319
3 196.264 1080213
3 196.264 1071820
3 196.264 1062433
3 196.264 1058814
3 196.264 1049030
3 196.264 1018600
3 196.871 1011792
3 196.871 1008564
3 196.871 976408
3 196.871 970519
3 196.871 968775
3 197.334 968144
3 197.649 960474
3 197.649 957119
3 197.649 948249
3 198.024 944681
3 198.024 944532
3 207.357 940939
3 207.357 940934
3 210.076 1061383
3 210.076 1044450
3 210.076 1040624
3 210.076 1028732
3 210.076 1025650
3 210.076 1018802
3 210.076 1013592
1 210.076 1013284
3 210.076 999032
3 210.613 994299
3 210.613 993508
3 211.316 968437
3 212.261 966201
3 212.643 963604
3 212.98 954304
3 212.98 950961
3 213.334 947315
3 224.186 1035354
3 224.186 1022686
3 224.186 1012005
3 224.186 1008861
3 224.186 1005568
3 224.186 998438
3 224.676 990574
3 224.676 989421
3 224.676 985509
3 224.676 984365
3 224.676 975745
3 224.676 967304
3 225.149 966506
3 225.149 963994
3 225.149 958007
3 226.107 957148
3 226.107 956861
3 226.107 954633
3 226.517 948557
3 226.517 944459
3 226.517 942105
3 231.444 936241
3 231.778 930168
3 238.081 1086835
3 238.081 1064746
3 238.081 1058868
3 238.081 1055308
3 238.081 1049695
3 238.081 1045781
3 238.081 1034426
3 238.081 1032198
3 238.592 1015850
3 238.592 1010945
3 238.592 1007592
3 238.592 974097
3 238.592 972721
3 239.05 969983
3 239.05 969075
3 240.059 967962
3 240.059 965287
3 240.059 962769
3 242.082 961991
3 242.082 960141
3 242.747 959763
3 243.369 957436
3 243.713 957078
3 243.713 956135
3 243.713 954606
3 243.713 944074
3 243.713 942775
3 243.713 939449
3 243.713 932780
3 250.411 927962
3 252.225 1064986
3 252.225 1048664
3 252.225 1030377
3 252.225 1017929
3 252.225 1007784
3 252.225 1007397
3 252.225 1005834
3 252.754 1004953
3 252.754 996080
3 252.754 992404
3 252.754 991223
3 252.754 979155
3 252.754 968890
3 252.754 967806
3 252.754 965623
3 253.251 961775
3 253.873 961143
3 253.873 956222
3 254.239 955832
1 266.051 1158356
3 266.051 1150685
3 266.051 1149302
3 266.051 1093898
3 266.051 1090044
3 266.051 1083076
3 266.051 1077111
3 266.051 1036080
3 266.051 1023551
3 266.051 1022373
3 266.051 1006396
3 266.051 997807
3 266.797 989558
3 266.797 986207
3 266.797 985581
3 266.797 982530
3 266.797 982235
3 266.797 981767
3 266.797 981556
3 266.797 976037
3 267.328 973809
3 267.328 960676
3 267.328 959421
3 267.738 959151
3 267.738 954950
3 267.738 952228
3 269.064 951958
3 273.683 950797
3 274.008 936760
3 274.008 934628
3 274.008 933672
3 280.201 1069467
3 280.201 1058561
3 280.201 1045199
3 280.201 1029449
3 280.201 1023462
3 280.201 1010776
3 280.201 1010059
3 280.201 1008109
3 280.201 989769
3 280.201 987541
3 280.853 982278
3 281.192 981187
3 281.192 971634
3 281.192 967198
3 281.192 966462
3 281.621 965820
3 281.621 960121
3 281.621 958658
3 282.058 955884
3 294.389 1043853
3 294.389 1033036
3 294.389 1029225
3 294.389 1023591
3 294.389 1023460
3 294.389 1017843
3 294.389 1015615
3 294.389 1008930
3 295.164 996008
3 295.164 993870
3 295.164 990612
3 295.164 987226
3 295.691 986574
3 295.691 985170
3 296.254 979183
3 296.254 975694
3 296.254 968501
3 296.771 964855
3 308.376 1094891
3 308.376 1090931
3 308.376 1067523
3 308.376 1053418
3 308.376 1042812
3 308.376 1033557
3 308.376 1033021
3 308.376 1032713
3 308.376 1014911
3 308.376 997229
3 308.376 988049
3 308.376 978862
3 308.376 975158
3 308.376 964626
3 308.376 962704
3 309.921 952580
3 309.921 948841
3 310.823 947209
3 310.823 946946
3 311.674 940847
3 312.065 938218
3 312.065 936927
3 312.065 932694
1 322.077 1123045
3 322.077 1103030
3 322.077 1092124
3 322.077 1091388
3 322.077 1082149
3 322.077 1076162
3 322.077 1069100
3 322.077 1018698
3 322.077 1004502
3 322.077 1002633
3 322.077 996646
3 322.077 987603
3 322.077 980978
3 323.014 976837
3 323.014 969644
3 323.014 969077
3 323.538 968341
3 323.538 965032
3 323.538 965014
3 324.768 952119
3 325.257 946273
3 325.257 944378
3 336.08 1030111
3 336.08 1028161
3 336.08 1019389
3 336.08 1005986
3 336.08 1004799
3 336.08 1001384
3 336.08 992882
3 336.08 992610
3 336.08 986976
3 336.08 979783
3 336.08 977938
3 336.813 977010
3 336.813 975887
3 336.813 974018
3 337.295 970676
3 337.295 966388
3 337.846 965152
3 337.846 962008
3 337.846 960918
3 339.032 957606
3 344.638 956869
3 346.217 955356
3 346.551 952394
3 350.117 1114659
3 350.117 1106173
3 350.117 1104153
3 350.117 1066180
3 350.117 1024303
3 350.117 1018316
3 350.117 989551
3 350.117 989048
3 350.117 979739
3 350.117 973182
3 350.69 972962
3 350.69 968833
3 350.69 966465
3 350.69 961740
3 350.69 959790
3 351.165 957171
3 351.165 953803
3 351.165 953062
3 351.853 949088
3 352.483 947717
3 352.483 946610
3 364.177 1016442
3 364.177 1009963
3 364.177 1000863
3 364.177 987210
3 364.177 977414
3 364.669 975700
3 364.669 975540
3 365.043 962392
3 365.682 947435
3 365.682 945400
3 365.682 945221
3 365.682 942204
3 367.001 937637
3 378.248 1028261
3 378.248 1025327
3 378.248 1008540
3 378.248 1006689
3 378.248 1005708
3 378.248 994891
3 378.248 990526
3 378.248 984914
3 378.248 977721
3 378.248 972087
3 378.248 966354
3 378.895 962792
3 378.895 961870
3 379.935 953001
3 380.872 951338
3 391.813 946252
3 392.297 1064023
3 392.297 1055800
3 392.297 1022128
3 392.297 1004524
3 392.297 997057
3 392.297 996303
3 392.297 994353
3 392.297 988547
3 392.297 971950
3 392.297 967910
3 392.297 964264
3 393.135 963937
3 393.135 959936
3 393.135 958413
3 393.66 957986
3 394.524 957880
3 394.943 956667
3 396.146 950798
3 397.369 948089
3 406.06 1070918
3 406.06 1067299
3 406.06 1055511
3 406.06 1015512
3 406.06 1014293
3 406.06 1010872
3 406.06 990857
3 406.572 981693
3 406.572 968661
3 406.572 963755
3 406.572 963172
3 406.572 960109
3 407.033 958889
3 408.306 953895
3 408.306 948427
3 408.981 947392
3 411.395 946873
3 411.721 944860
3 411.721 944124
3 412.899 940951
3 414.669 938270
3 415.572 936135
3 420.375 1076295
3 420.375 1072180
3 420.375 1061363
3 420.375 1057396
3 420.375 1050956
3 420.375 1040558
3 420.375 1029635
3 420.375 1027685
3 420.375 1025851
3 420.375 1007564
3 420.375 1004171
3 420.375 1001115
3 420.375 998382
1 421.22 996780
3 421.719 994358
3 421.719 992311
3 421.719 986394
3 422.263 983583
3 422.733 978401
3 423.195 977634
3 423.195 973715
3 423.195 966522
3 423.716 964998
3 424.164 960650
3 434.386 1010517
3 434.386 990282
3 434.386 986452
3 434.386 986242
3 434.386 986059
3 434.386 977424
3 435.053 967535
3 435.053 962130
3 435.053 961610
3 435.053 960609
3 435.634 953592
3 435.634 953220
3 435.634 950023
3 436.172 949792
3 436.172 949056
3 436.669 948463
3 437.959 944767
3 442.15 943523
3 443.785 941295
3 444.162 940292
3 444.162 935754
3 444.551 935018
3 448.083 1040023
3 448.083 1033714
3 448.083 1031221
3 448.083 1024359
3 448.083 1015739
3 448.083 1008546
3 448.596 996092
3 448.596 976704
3 448.596 962437
3 449.006 961679
3 449.006 961006
3 449.006 959814
3 450.01 953754
3 450.01 941819
3 450.376 938375
3 450.71 938307
3 451.041 934729
3 462.012 1081090
3 462.012 1057871
3 462.012 1032800
3 462.012 1030570
3 462.012 1012857
3 462.012 1001443
3 462.012 987786
3 462.012 982228
3 462.012 976170
3 462.726 975434
3 462.726 970227
3 462.726 961964
3 462.726 957664
3 462.726 952274
3 462.726 950577
3 462.726 949180
3 462.726 949074
3 463.427 942418
3 463.903 939871
3 476.185 1033322
3 476.185 1029676
3 476.185 1029601
3 476.185 1023614
3 476.185 1022748
3 476.185 1021973
3 476.185 1020879
3 476.185 1012664
3 476.867 1011051
3 476.867 999464
3 476.867 997648
3 476.867 997514
3 477.465 991622
3 477.465 991132
3 477.465 985145
3 477.465 978177
3 477.465 977952
1 477.465 971698
3 477.465 967887
3 478.13 959146
3 478.627 957966
3 478.627 950163
3 479.632 942195
3 480.104 936650
3 480.998 929732
3 481.473 928996
3 481.933 927145
3 482.396 925811
3 482.396 921282
3 482.9 920736
3 482.9 915702
3 482.9 914722
3 483.833 912378
3 483.833 912155
3 490.133 1031313
3 490.133 1022004
3 490.133 1018973
3 490.133 1017877
3 490.133 1007345
3 490.824 1005100
3 490.824 1002434
3 490.824 999177
3 490.824 998618
3 490.824 998261
3 491.445 995038
3 491.445 991595
3 491.445 982902
3 491.995 977357
3 491.995 971580
3 491.995 963897
3 491.995 961202
3 492.569 956697
3 492.569 955215
3 493.063 954538
3 493.063 952987
3 494.003 952083
3 494.929 944235
3 495.824 943863
1 503.84 943584
3 503.84 943227
3 504.365 1067043
3 504.365 1064080
3 504.365 1049091
3 504.365 1039782
3 504.365 1021393
3 504.365 1019758
3 504.365 1013298
3 504.365 1002392
3 504.365 995436
3 504.365 993906
3 504.365 986963
3 505.167 976872
3 505.167 973496
3 505.167 967250
3 505.167 965381
3 505.167 961403
3 505.167 959646
3 505.167 954653
3 505.167 954475
3 505.833 951440
3 506.28 950584
3 506.28 949088
3 506.28 947846
3 506.28 942378
3 506.28 942052
3 506.832 937806
3 506.832 936758
3 508.573 933924
3 509.398 933490
3 515.196 930119
3 515.638 929645
3 517.283 926848
3 517.283 926473
3 518.204 1070683
3 518.204 1063521
3 518.204 1043473
3 518.204 1035931
3 518.204 1034129
3 518.204 1021566
3 518.204 1011827
3 518.204 1009599
3 518.204 1008018
3 518.204 1006185
3 519.028 1006107
3 519.028 1000413
3 519.028 992458
3 519.566 989534
3 519.566 978740
3 519.566 976101
3 519.566 973217
3 520.135 972639
3 520.135 971632
3 520.135 968993
3 520.135 967474
3 520.135 966575
3 521.552 958834
3 522.006 952682
3 524.56 951654
3 524.913 949454
3 525.505 941888
3 525.505 941011
3 525.882 932909
3 525.882 929861
3 532.326 1060091
3 532.326 1040958
3 532.326 1025922
3 532.326 1025272
3 532.326 1011800
3 532.326 1009057
3 532.326 1001268
3 532.326 975813
3 532.326 971800
3 532.326 969800
3 532.326 967572
3 532.99 964128
3 532.99 963613
3 532.99 957097
3 532.99 955147
3 533.463 950591
3 534.401 941726
1 546.154 1014298
3 546.154 1000873
3 546.154 994359
3 546.154 989250
3 546.154 984858
3 546.154 984749
3 546.78 970054
3 547.11 967336
3 548.288 963859
3 548.288 960036
3 549.546 957428
3 560.176 1064729
3 560.176 1046442
3 560.176 1023509
3 560.176 1012288
3 560.176 987125
3 560.665 983479
3 560.665 982957
3 560.665 976970
3 561.05 968764
3 561.05 966662
3 561.05 961012
3 561.05 956971
3 561.484 954524
3 561.818 951897
3 562.132 950531
3 562.132 949753
3 562.132 946107
3 562.504 941463
3 562.504 939987
3 562.847 936341
3 574.205 1042178
3 574.205 1033267
3 574.205 1013770
3 574.205 1009826
3 574.205 1000975
3 574.205 998403
3 574.205 988661
3 574.205 985015
3 574.205 971717
3 574.758 971594
3 574.758 971225
3 575.109 969061
3 575.109 966811
3 575.109 963165
3 576.629 958423
3 577.223 952633
3 581.596 946882
3 586.898 945073
3 587.219 944588
3 587.219 944239
3 587.576 940593
3 588.202 1019344
3 588.202 1013591
3 588.202 1011139
3 588.202 996599
3 588.202 991681
3 588.202 988593
3 588.202 988177
3 588.744 986596
3 588.744 969123
3 588.744 957077
3 588.744 943813
3 588.744 934950
3 588.744 934140
3 589.533 931863
3 589.906 930205
3 590.235 929327
3 590.235 927804
3 590.585 926251
3 600.559 921029
3 600.889 916442
3 602.086 1036223
3 602.086 1029145
3 602.086 1016742
3 602.086 1013629
3 602.086 1012193
3 602.086 1006744
3 602.086 997549
3 602.776 995838
3 602.776 992081
3 602.776 991063
3 602.776 982290
3 602.776 969219
3 603.285 962757
3 603.285 954818
3 603.285 954698
3 603.285 952229
3 603.831 948892
3 603.831 947625
3 604.53 946848
3 604.53 941277
3 604.53 939499
3 604.53 936316
3 604.53 932322
3 604.993 930372
3 616.056 1015260
3 616.056 1001580
3 616.056 997125
3 616.056 987040
3 616.056 975987
3 616.056 972432
3 616.056 970253
3 616.056 949653
3 616.728 948917
3 617.365 948246
3 617.365 942778
3 617.365 936808
3 617.365 933469
3 630.127 1057928
3 630.127 1047613
3 630.127 1033361
3 630.127 1021170
3 630.127 1017611
3 630.127 1013541
3 630.127 1010418
3 630.807 1009700
3 630.807 1009102
3 630.807 1006029
3 630.807 994441
3 632.001 991116
3 632.001 987279
3 632.396 982951
3 632.736 972519
3 633.371 969807
3 633.75 960636
3 633.75 958686
3 634.143 955040
3 634.853 954711
3 634.853 950468
3 635.248 945402
3 644.107 1114479
3 644.107 1106222
3 644.107 1102576
3 644.107 1069551
3 644.107 1065374
3 644.107 1053627
3 644.107 1045515
3 644.107 1042753
3 644.107 1029350
3 644.107 1028091
3 644.107 1020535
3 644.107 1013373
3 644.107 1009718
3 644.107 1009308
3 644.107 1003674
3 644.107 995970
3 644.107 995054
3 644.908 993473
3 644.908 982066
3 644.908 971357
3 644.908 967711
3 648.107 961484
3 648.468 961305
3 649.288 960123
3 649.836 953688
3 649.836 948742
3 649.836 948028
3 650.406 934625
3 650.885 934587
3 650.885 930941
3 658.346 1014367
3 658.346 1014286
3 658.346 1012336
3 658.346 1001804
3 658.346 984314
3 658.994 982699
3 658.994 980668
3 659.503 976733
3 660.484 976154
3 660.484 970746
3 661.477 970444
3 661.477 964946
3 662.468 961879
3 662.468 956919
3 663.048 954795
3 663.048 950932
3 663.592 950350
3 664.074 948976
3 664.074 944908
3 664.074 944001
3 665.3 943887
3 666.237 942099
3 666.237 936383
3 666.237 932024
3 666.628 930462
3 666.628 928512
3 672.332 1097490
3 672.332 1076227
3 672.332 1046224
3 672.332 1046220
3 672.332 1038472
3 673.006 998379
3 673.006 997988
3 673.006 990895
3 673.46 964161
3 673.46 962927
3 673.893 962915
3 674.751 960696
3 675.625 960541
3 678.509 959276
3 678.894 959134
3 679.349 957858
3 679.349 956712
3 679.349 956207
3 679.883 955471
3 680.306 955116
3 680.306 953051
3 686.341 1038149
3 686.341 1013924
3 686.341 998873
3 686.341 978436
3 686.341 968816
3 686.341 944123
3 686.987 943286
3 688.338 940378
3 689.651 939622
3 700.054 1061251
3 700.054 1038838
3 700.054 1015048
3 700.054 1011809
3 700.054 1008207
3 700.054 1005901
3 700.738 992498
3 700.738 977109
3 700.738 973144
3 700.738 969870
3 701.327 967642
3 709.393 962800
3 709.393 960290
3 709.393 958198
3 709.393 956617
3 709.393 956199
3 709.393 954428
3 710.462 943656
3 713.049 941947
3 714.01 1027413
3 714.01 1012458
3 714.01 996782
3 714.01 992550
3 714.01 979147
3 714.01 978833
3 715.523 977332
3 715.985 970805
3 715.985 964836
3 715.985 962273
3 717.84 956449
3 718.702 955067
3 718.702 948419
3 728.181 1065780
3 728.181 1051881
3 728.181 1043773
3 728.181 1040975
3 728.181 1025184
3 728.181 1014652
3 728.868 1013345
3 728.868 1003376
3 728.868 989973
3 728.868 988081
3 728.868 972371
3 729.93 970143
3 730.273 969478
3 730.273 957873
3 730.273 955935
3 730.669 953315
3 730.994 952289
3 735.359 946689
3 741.228 940838
3 741.228 940322
3 741.228 939846
3 741.638 934671
3 742.351 1105649
3 742.351 1101578
3 742.351 1083540
3 742.351 1062925
3 742.351 1037839
3 742.351 1033291
3 742.351 1030428
3 742.351 1025276
3 742.351 1021119
3 742.351 1008360
3 742.351 995825
3 743.038 965194
3 743.038 962095
1 746.67 960395
3 756.091 1036133
3 756.091 1021082
3 756.091 1010439
3 756.091 994462
3 756.529 983930
3 756.862 981756
3 756.862 979498
3 757.258 975479
3 757.258 973511
3 757.964 965456
3 758.292 964732
3 758.292 964678
3 759.977 959867
3 759.977 959018
3 759.977 959010
3 760.369 955461
3 760.369 953233
3 760.369 943910
3 760.369 943775
3 760.369 942259
3 761.134 940781
3 762.319 938194
3 762.319 937938
3 762.319 936195
3 762.319 935068
3 762.319 934368
3 762.736 934082
3 768.96 933588
3 769.357 931360
3 770.114 1159818
3 770.114 1158827
3 770.114 1141282
3 770.114 1130906
3 770.114 1115578
3 770.114 1105883
3 770.114 1103933
3 770.114 1102412
3 770.114 1092137
3 770.114 1084329
3 770.114 1057135
3 770.114 1052084
3 770.114 1038075
3 770.114 1026771
3 770.886 1018943
3 770.886 1013298
3 770.886 996511
3 770.886 987904
3 770.886 987127
3 770.886 971377
3 771.357 969864
3 771.357 958958
3 771.357 957974
3 784.079 1026185
3 784.079 1024908
3 784.079 1024199
3 784.079 1008449
3 784.079 1003397
3 784.079 993181
3 784.079 987670
3 784.079 986934
3 784.079 981466
3 784.079 978993
3 784.69 975591
3 784.69 969491
3 784.69 960897
3 784.69 958286
3 784.69 952257
3 798.24 1005510
3 798.24 1004058
3 798.24 991756
3 798.24 987279
3 798.24 983831
3 798.24 980862
3 798.735 976030
3 798.735 974679
3 799.096 973156
3 799.096 969349
3 799.452 963136
3 799.452 960449
3 799.452 956803
3 799.452 953697
3 799.878 953384
3 799.878 953277
3 800.229 953009
3 800.229 948836
3 800.578 946608
3 800.578 944281
3 806.029 934179
3 806.029 932849
3 806.029 928192
3 812.094 1073408
3 812.094 1061244
1 812.094 1058295
3 812.094 1051455
3 812.094 1034617
3 812.094 1017282
3 812.094 992211
3 812.094 972678
3 812.094 970318
3 812.094 969532
3 812.094 960527
3 812.754 956535
3 812.754 952866
3 812.754 952130
3 812.754 948440
3 812.754 945476
3 813.466 942796
3 816.735 941830
3 821.197 940749
3 826.289 1033683
3 826.289 1023752
3 826.289 1020736
3 826.289 991063
3 826.289 982727
3 826.289 981231
3 826.289 970465
3 826.289 964029
3 826.289 962780
3 827.012 961019
3 827.463 958467
3 827.463 953438
3 830.125 949162
3 830.125 947893
3 840.426 1084031
3 840.426 1069779
3 840.426 1049527
3 840.426 1047676
3 840.426 1033777
3 840.426 1031549
3 840.426 1018691
3 840.426 1014873
3 840.426 1005564
3 840.426 972199
3 841.186 969295
3 841.186 961375
3 841.707 960152
3 841.707 956087
3 843.477 952904
3 843.477 952586
3 843.477 948879
3 844.023 948114
3 844.023 948111
3 844.023 947321
3 844.549 945733
3 844.549 944997
3 844.549 942208
3 845.102 941686
3 851.238 938954
3 851.238 936871
3 851.238 935262
3 851.238 934758
3 851.817 933195
3 852.277 932189
3 852.742 931290
3 854.047 1109141
3 854.047 1077614
3 854.047 1075506
3 854.047 1060455
3 854.047 1033788
3 854.047 1025971
3 854.047 1019466
3 854.047 1013998
3 854.047 1003339
3 854.047 996146
3 854.047 988872
3 855.3 981139
3 855.3 964352
3 855.667 960522
3 855.667 958294
1 861.278 958180
3 865.858 954044
3 866.195 953989
3 866.531 941241
3 868.041 1085508
3 868.041 1082033
3 868.041 1031309
3 868.041 1013022
3 868.041 1003233
3 868.041 1000425
3 868.041 995012
3 868.041 985789
3 868.592 980321
3 868.592 980150
3 868.592 979691
3 868.592 978361
3 869.585 974962
3 869.585 968258
3 869.585 965142
3 869.585 960019
3 869.585 952229
3 870.339 951805
3 870.813 946499
3 871.719 940903
3 873.181 939878
3 873.181 939242
3 873.181 937551
3 873.746 935516
3 874.23 934889
3 882.077 1027860
3 882.077 1024498
3 882.077 1004686
3 882.077 1003532
3 882.077 997952
3 882.077 992318
3 882.077 973682
3 882.077 972647
3 882.077 966660
3 882.833 965257
3 882.833 962756
3 882.833 961611
3 882.833 947011
3 882.833 945142
3 883.503 944798
3 883.503 941734
3 883.995 938420
3 883.995 935698
3 885.918 927609
3 885.918 924057
3 886.682 923463
3 886.682 922829
3 896.172 1066728
3 896.172 1035297
3 896.172 1023541
3 896.172 1022937
3 896.172 1010943
3 896.172 996131
3 896.731 988710
3 896.731 987884
3 896.731 982498
3 896.731 973907
3 897.134 966838
3 897.134 963438
3 897.134 963332
3 897.134 946773
3 897.134 946757
3 897.662 945375
3 897.662 945029
3 898.305 935848
3 898.916 934497
3 910.288 1096301
3 910.288 1053660
3 910.288 1028497
3 910.288 1026269
3 910.288 1022699
3 910.288 1020483
3 910.885 1017333
3 910.885 1017152
3 910.885 1005869
3 910.885 1005474
3 910.885 984458
3 910.885 984090
3 910.885 977265
3 910.885 973218
3 910.885 971104
3 910.885 970169
3 911.804 966752
3 911.804 953349
3 912.186 953055
3 912.186 945990
3 912.186 943565
3 913.994 939027
3 914.339 937931
3 914.723 935477
3 915.991 933766
3 924.091 1067313
3 924.091 1061976
3 924.091 1056062
3 924.091 1053834
3 924.091 1048596
3 924.091 1045100
3 924.091 1041893
3 924.091 1027994
3 924.091 1012789
3 924.68 1006409
3 924.68 1000885
3 924.68 981262
3 924.68 964575
3 924.68 961819
3 925.12 957232
3 925.12 955709
3 925.12 955282
3 925.12 952115
3 925.12 951379
3 925.563 951194
3 925.912 945617
3 926.921 943726
3 927.244 941665
3 927.872 927766
3 938.284 1031555
3 938.284 1000028
3 938.284 994560
3 938.284 992731
3 938.284 976017
3 938.871 972359
3 938.871 960264
3 938.871 955912
3 938.871 953684
3 939.638 941104
3 939.638 940281
3 952.393 1142665
3 952.393 1135472
3 952.393 1068717
3 952.393 1058387
3 952.393 1055919
3 952.393 1043304
3 952.393 1038877
3 952.393 1034121
3 952.393 1033385
3 952.393 1027751
3 952.393 1019131
3 952.393 1014962
3 952.393 980842
3 952.393 975208
3 953.247 974382
3 953.247 970736
3 953.247 969099
3 953.247 967195
3 953.815 966935
3 953.815 963162
3 953.815 961390
3 954.355 959516
3 954.355 958062
3 954.858 957288
3 957.497 956680
3 957.497 953034
3 957.993 949795
3 957.993 948857
3 958.952 947489
3 965.631 941977
3 966.103 1021244
3 966.103 1003455
3 966.103 997961
3 966.103 995733
3 966.103 994296
3 966.103 991391
3 966.103 977584
3 966.103 967276
3 966.103 951244
3 967.229 949199
3 967.229 939942
3 967.705 935494
3 968.578 932948
3 968.578 932541
3 969.502 928094
3 969.964 928087
3 969.964 920831
3 969.964 919529
3 969.964 915754
3 980.367 1042458
3 980.367 1028559
3 980.367 1026918
3 980.367 1025388
3 980.367 1011985
3 980.367 984139
3 981.025 980663
3 981.025 978713
3 981.512 974409
3 981.512 973803
3 981.512 973101
3 982.063 972055
3 982.063 968664
3 982.063 967430
3 982.063 965202
3 982.657 957728
3 982.657 952891
3 983.634 950547
3 994.173 1073785
3 994.173 1060382
3 994.173 1054648
3 994.173 1040921
3 994.173 1018288
3 994.173 1017585
3 994.173 1015562
3 994.173 1007452
3 994.173 995677
3 994.173 987184
3 994.173 985550
3 994.173 979261
3 994.965 975280
3 994.965 975121
3 994.965 969465
3 994.965 968861
3 994.965 967017
3 995.556 966979
3 996.056 965966
3 996.508 963738
3 996.508 960666
3 996.997 960636
3 996.997 959315
3 997.507 956346
3 997.507 951809
3 997.997 949453
3 998.473 947486
3 998.473 946076
3 998.473 943575
3 999.01 941339
3 1004.48 938898
3 1004.48 934577
3 1005.01 933880
3 1005.01 932208
3 1005.01 929980
3 1005.54 926825
3 1005.98 925522
3 1007.28 920838
3 1008.14 1036161
3 1008.14 1011566
3 1008.14 1007143
3 1008.14 995126
3 1008.14 993911
3 1008.14 988387
3 1008.14 983469
3 1008.14 973483
3 1008.84 970572
3 1008.84 969285
3 1008.84 960476
3 1008.84 956830
3 1008.84 955342
3 1009.42 952406
3 1009.42 950598
3 1009.93 948370
3 1017.1 947887
3 1017.73 945899
3 1018.05 943498
3 1021.59 942875
3 1022.25 1113275
3 1022.25 1102760
3 1022.25 1089410
3 1022.25 1067052
3 1022.25 1059265
3 1022.25 1047036
3 1022.25 1036504
3 1022.25 1017733
3 1022.25 1008424
3 1022.77 1003719
3 1022.77 1002873
3 1022.77 1001769
3 1023.19 998670
3 1023.19 993628
3 1023.19 977284
3 1023.57 973668
3 1023.57 965067
3 1023.57 959414
3 1025.36 959331
3 1036.16 1067965
3 1036.16 1065435
3 1036.16 1038662
3 1036.16 1023871
3 1036.16 1022928
3 1036.16 991620
3 1036.16 989582
3 1036.16 973832
3 1036.7 965505
3 1036.7 964388
3 1036.7 961652
3 1037.54 960189
3 1037.91 958067
3 1037.91 957157
3 1038.29 954421
3 1038.29 954103
3 1038.64 948976
3 1038.64 943197
3 1038.64 942111
3 1039.01 942090
3 1039.32 941180
3 1039.63 939876
3 1050.03 1086456
3 1050.03 1072106
3 1050.03 1019583
3 1050.03 1016521
3 1050.03 1015047
3 1050.03 1008475
3 1050.03 1007122
3 1050.03 1002952
3 1050.03 1002216
3 1050.03 1000881
3 1050.03 996179
3 1050.6 993638
3 1050.6 988936
3 1050.6 985842
3 1050.6 985595
3 1050.6 984601
3 1051.06 972567
3 1051.06 954179
3 1051.06 953443
3 1051.06 943652
3 1051.47 941988
3 1052.07 938188
3 1064.28 1082650
3 1064.28 1061981
3 1064.28 1061040
3 1064.28 1038144
3 1064.28 1037507
3 1064.28 1030077
3 1064.74 1009882
3 1064.74 1005215
3 1064.74 991826
3 1064.74 991712
3 1064.74 986188
3 1064.74 978995
3 1064.74 976331
3 1064.74 975349
3 1064.74 972391
3 1064.74 969362
3 1065.31 954749
3 1065.64 948100
3 1065.64 942576
3 1066 937632
3 1078.38 1013676
3 1078.38 1011825
3 1078.38 1007608
3 1078.38 1004466
3 1078.38 984933
3 1078.38 982738
3 1079.07 980050
3 1079.07 967355
3 1079.07 960622
3 1079.07 958672
3 1080.19 957548
3 1081.17 955333
3 1082.97 948816
3 1083.87 943778
3 1084.33 943614
3 1092.22 1064181
3 1092.22 1048489
3 1092.22 1043021
3 1092.22 1042040
3 1092.22 1026725
3 1092.22 1022609
3 1092.22 1011494
3 1092.22 1005585
3 1092.22 992443
3 1093.03 981911
3 1093.54 980492
3 1093.54 980282
3 1093.54 974852
3 1093.54 967869
3 1093.54 959102
3 1094.16 956510
3 1094.16 951909
3 1106.14 1116896
3 1106.14 1071620
3 1106.14 1048377
3 1106.14 1038879
3 1106.14 1032078
3 1106.14 1019744
3 1106.14 994673
3 1106.14 989722
3 1106.14 985477
3 1106.9 980115
3 1106.9 962671
3 1106.9 960840
3 1108.69 957962
3 1108.69 952438
3 1120.34 1017154
3 1120.34 1007716
3 1120.34 1007358
3 1120.34 994119
3 1120.34 993955
3 1120.34 984369
3 1120.34 980827
3 1120.94 979568
3 1120.94 974395
3 1120.94 967756
3 1120.94 964716
3 1120.94 960551
3 1120.94 941407
3 1120.94 940536
3 1122.94 939468
3 1123.42 935841
3 1123.87 935105
3 1126.8 934142
3 1134.34 1028777
3 1134.34 1026540
3 1134.34 1018324
3 1134.34 1014281
3 1134.34 1006249
3 1134.34 998137
3 1134.34 995075
3 1134.34 988488
3 1134.34 987067
3 1135 986709
3 1135.47 982898
1 1135.47 977045
3 1135.96 973168
3 1135.96 969852
3 1136.47 969750
3 1136.91 960338
3 1136.91 954793
3 1136.91 949169
3 1137.42 945759
3 1137.85 943551
3 1137.85 937869
3 1137.85 933700
3 1139.61 932955
3 1148.16 1034289
3 1148.16 1030005
3 1148.16 1029269
3 1148.16 1008953
3 1148.16 1003408
3 1148.16 993127
3 1148.8 991092
3 1149.32 989156
3 1149.32 958116
3 1149.32 956166
3 1149.85 955430
3 1150.3 953952
3 1152.88 946376
3 1162.02 1054118
3 1162.02 1042682
3 1162.02 1037595
3 1162.02 1032071
3 1162.02 1029843
3 1162.02 1022694
3 1162.02 1020414
3 1162.02 1014253
3 1162.02 1010291
3 1162.02 1003098
3 1162.02 1000368
3 1162.02 990392
3 1162.87 989656
3 1162.87 970213
3 1162.87 968263
3 1162.87 967265
3 1163.48 966685
3 1163.48 965699
3 1163.48 961902
3 1164.01 951088
3 1164.01 950516
3 1164.01 949722
3 1164.54 949287
3 1164.99 946294
3 1164.99 940085
3 1165.92 938793
3 1165.92 933826
3 1165.92 932806
3 1166.45 931260
3 1176.08 1025456
3 1176.08 1022817
3 1176.08 1016830
3 1176.08 1002634
3 1176.08 999357
3 1176.08 991136
3 1176.08 971252
3 1176.08 970516
3 1176.77 960725
3 1176.77 954738
3 1177.75 952303
3 1178.68 937022
3 1190.23 1087202
3 1190.23 1067625
3 1190.23 1061078
3 1190.23 1057169
3 1190.23 1046577
3 1190.23 1045983
3 1190.94 1041192
3 1190.94 1033529
3 1190.94 1026336
3 1190.94 1023591
3 1191.99 1022934
3 1191.99 1008532
3 1191.99 1001370
3 1191.99 991443
3 1191.99 985645
3 1196.19 984000
3 1196.19 980354
3 1204.17 1035395
3 1204.17 1028615
3 1204.17 1014742
3 1204.17 1008897
3 1204.17 1008858
3 1204.17 997607
3 1204.17 995494
3 1204.17 993807
3 1204.17 991325
3 1204.17 989097
3 1204.94 988897
3 1204.94 979591
3 1204.94 969660
3 1204.94 965291
3 1205.95 963908
3 1205.95 961645
3 1205.95 957992
3 1206.48 954860
3 1218.1 1004292
3 1218.1 1003508
3 1218.1 991698
3 1218.1 980691
3 1218.1 975057
3 1218.1 974780
3 1218.1 972579
3 1218.1 970998
3 1219.26 960856
3 1219.26 958901
3 1232.04 1081503
3 1232.04 1071301
3 1232.04 1060769
3 1232.04 1057425
3 1232.04 1053576
3 1232.04 1046638
3 1232.04 1032262
3 1232.04 1022008
3 1232.04 1013402
3 1232.04 1006532
3 1232.04 1003958
3 1232.04 999711
3 1232.04 995411
3 1232.04 989169
3 1232.04 986594
3 1232.04 979392
3 1233.02 978263
3 1233.02 975440
3 1233.02 969355
3 1233.02 958823
3 1233.02 958419
3 1233.02 957261
3 1233.02 955012
3 1233.67 953062
3 1234.52 952296
3 1234.52 952220
3 1234.52 948574
3 1234.52 942329
3 1235.11 941457
3 1235.11 940792
3 1235.11 938564
3 1246.34 1018955
3 1246.34 1005552
3 1246.34 999413
3 1246.34 997185
3 1246.34 975915
3 1246.34 973174
3 1246.99 967884
3 1249.21 964130
3 1249.67 962742
3 1250.14 960856
3 1250.14 958728
3 1250.14 957210
3 1260.46 1053234
3 1260.46 1031802
3 1260.46 1029852
3 1260.46 1019320
3 1260.46 1016519
3 1260.46 1002850
3 1260.46 1000722
3 1260.46 990708
3 1260.46 987319
3 1260.46 978186
3 1260.46 975663
3 1260.46 968704
3 1261.32 966262
3 1261.79 964555
3 1261.79 963769
3 1263.12 951878
3 1263.12 951751
3 1263.58 946888
3 1264.02 945676
3 1274.34 1142021
3 1274.34 1133764
3 1274.34 1122006
3 1274.34 1121025
3 1274.34 1094252
3 1274.34 1054033
3 1274.34 1034523
3 1274.34 1003681
3 1274.34 999273
3 1274.34 988741
3 1275.12 985202
3 1275.12 977811
3 1275.12 977459
3 1275.67 975583
3 1275.67 965461
3 1276.18 963248
3 1277.05 960840
3 1277.05 957194
3 1277.05 956209
3 1288.09 1023684
3 1288.09 1018959
3 1288.09 1015198
3 1288.09 1003908
3 1288.09 998971
3 1288.09 994352
3 1288.78 994224
3 1288.78 993742
3 1289.31 979599
3 1289.31 976446
3 1289.86 974496
3 1289.86 973314
3 1289.86 970320
3 1290.38 969067
3 1290.38 968912
3 1291.29 968598
3 1291.74 963521
3 1292.2 963034
3 1292.2 961405
3 1292.2 958179
3 1292.71 955050
3 1292.71 948470
3 1293.61 943052
3 1294.46 942824
3 1294.46 942442
3 1302.07 1060119
3 1302.07 1042769
3 1302.07 1027599
3 1302.07 1020406
3 1302.07 1016560
3 1302.07 1007265
3 1302.73 991397
3 1302.73 990086
3 1302.73 989970
3 1303.25 987037
3 1303.25 984947
3 1303.75 981301
3 1303.75 980963
3 1303.75 977145
3 1303.75 976409
3 1304.29 972240
3 1305.59 968412
3 1306.89 967934
3 1306.89 960741
3 1309.92 959977
3 1309.92 954453
3 1311.23 953151
3 1311.67 952329
3 1312.12 952225
3 1316.03 1014446
3 1316.03 1006471
3 1316.03 995158
3 1316.03 993196
3 1316.03 980613
3 1316.03 976132
3 1316.03 973451
3 1316.03 972941
3 1316.03 972786
3 1316.03 971504
3 1316.83 969295
3 1316.83 968559
3 1316.83 962995
3 1316.83 958623
3 1317.44 954977
3 1318.38 948724
3 1318.38 947988
3 1318.88 947249
3 1318.88 944457
3 1319.38 934990
3 1319.38 934353
3 1319.38 930823
3 1319.38 920031
3 1330.41 1101820
3 1330.41 1089983
1 1330.41 1070172
3 1330.41 1065267
3 1330.41 1040196
3 1330.41 1016674
3 1330.41 1010699
3 1330.41 1009102
3 1330.41 1000165
3 1330.41 995735
3 1331.26 993507
3 1331.26 980565
3 1331.26 975817
3 1331.26 971028
3 1331.26 967160
3 1331.89 963514
3 1331.89 956476
3 1332.4 955053
3 1332.4 949948
3 1332.4 948644
3 1332.4 947908
3 1332.95 942594
3 1333.43 940421
3 1333.43 939775
3 1344.06 1117381
3 1344.06 1097848
3 1344.06 1085286
3 1344.06 1067217
1 1344.06 1045423
3 1344.06 1028313
3 1344.06 1027690
3 1344.78 1014003
3 1344.78 1013262
3 1344.78 1011659
3 1344.78 1010357
3 1344.78 1006135
3 1344.78 997240
3 1344.78 972673
3 1345.49 965848
3 1345.96 964914
3 1345.96 956672
3 1345.96 954559
3 1345.96 954503
3 1345.96 950857
3 1358.26 1073537
3 1358.26 1041502
3 1358.26 1033664
3 1358.26 1024062
3 1358.26 1010266
3 1358.26 1009589
3 1358.26 993431
3 1359 988995
3 1359.48 982160
3 1359.48 977752
3 1359.48 971707
3 1359.48 969803
3 1359.48 967853
3 1360.1 964662
3 1360.1 963830
3 1360.6 958417
3 1360.6 958067
3 1360.6 955839
3 1361.12 954652
3 1361.59 948917
3 1362.06 948257
3 1362.06 947521
3 1362.99 938083
3 1363.86 937725
3 1368.83 929340
3 1369.28 928962
3 1369.28 928604
3 1372.3 1050529
3 1372.3 1046883
3 1372.3 1039979
3 1372.3 1027126
3 1372.3 1026097
3 1372.3 1017121
3 1372.3 1011424
3 1372.3 1008135
3 1372.3 992385
3 1372.3 980308
3 1373.11 972166
3 1373.11 970925
3 1373.11 965401
3 1373.64 961448
3 1374.11 955538
3 1374.11 949042
3 1375.01 948210
3 1375.46 946778
3 1375.9 943151
3 1386.4 1089162
3 1386.4 1083617
3 1386.4 1079971
3 1386.4 1057606
3 1386.4 1039319
3 1386.4 1028787
3 1386.4 1027488
3 1386.4 1015645
3 1386.4 1011999
3 1386.4 1002208
3 1387.15 986457
3 1387.15 978029
3 1387.15 967819
3 1387.15 962337
3 1388.14 958976
3 1388.61 955746
3 1388.61 955183
3 1389.1 953452
3 1400.18 1040591
3 1400.18 1004365
3 1400.18 1001599
3 1400.18 997643
3 1400.18 986446
3 1400.18 985236
3 1400.18 979190
3 1400.91 974288
3 1400.91 972194
3 1401.41 971694
3 1401.41 970629
3 1401.41 965002
3 1401.41 963936
3 1401.97 962625
3 1401.97 961462
3 1401.97 958990
3 1401.97 956583
3 1401.97 954906
3 1401.97 951895
3 1402.59 950019
3 1402.59 945677
3 1402.59 943805
3 1402.59 934505
3 1402.59 932385
3 1403.2 928435
3 1404.08 927811
3 1414.02 1007301
3 1414.02 1006317
3 1414.02 1004367
3 1414.02 992924
3 1414.02 979456
3 1414.02 976415
3 1414.02 974187
3 1414.02 966634
3 1414.74 964177
3 1414.74 961456
3 1414.74 961382
3 1415.3 959631
3 1415.3 956270
3 1415.3 949077
3 1415.3 948879
3 1415.3 940955
3 1415.94 938727
3 1428.35 1005628
3 1428.35 999769
3 1428.35 989978
3 1428.94 989645
3 1428.94 988841
3 1428.94 984177
1 1431.75 976831
3 1431.75 975810
3 1431.75 970342
3 1432.27 969522
3 1432.27 964912
3 1433.22 963745
3 1433.71 962178
3 1433.71 961033
3 1434.68 956651
3 1434.68 954701
3 1435.69 953749
3 1436.63 946556
3 1436.63 943535
3 1436.63 939864
3 1436.63 938817
3 1436.63 938112
3 1436.63 937914
3 1442.05 1096053
3 1442.05 1062480
3 1442.05 1053171
3 1442.05 1051413
3 1442.05 1040881
3 1442.05 1008404
3 1442.05 1001517
3 1442.05 990117
3 1442.05 967900
3 1444.94 962415
3 1445.47 948585
3 1445.95 946030
3 1445.95 941657
3 1445.95 941299
3 1447.35 940735
3 1447.35 931426
3 1449.16 931185
3 1456.03 1060321
3 1456.03 1057086
3 1456.03 1049077
3 1456.03 1046659
3 1456.03 1038173
3 1456.03 1018158
3 1456.03 1001455
3 1456.03 1000725
3 1456.03 972257
3 1456.8 968611
3 1456.8 960599
3 1456.8 950324
3 1456.8 947285
3 1456.8 934123
3 1457.84 933386
3 1457.84 924332
3 1470.17 1090709
3 1470.17 1052790
3 1470.17 1045597
3 1470.17 1043384
1 1470.17 1038583
3 1470.17 1029502
3 1470.17 1011779
3 1470.67 1005792
3 1470.67 1001069
3 1470.67 1000845
3 1470.67 998895
3 1470.67 994591
3 1470.67 988604
3 1471.16 988306
3 1471.16 979166
3 1471.16 978430
3 1471.16 973956
3 1471.16 970543
3 1471.6 964777
3 1471.6 958790
3 1471.6 949816
3 1471.98 944538
3 1484.01 1084774
3 1484.01 1078787
3 1484.01 1041219
3 1484.01 1030313
3 1484.01 1021004
3 1484.01 1012873
3 1484.01 976368
3 1484.53 964209
3 1484.53 963369
3 1484.88 962001
3 1484.88 956198
3 1484.88 952837
3 1484.88 952096
3 1484.88 951980
3 1489.3 951695
3 1489.62 950927
3 1489.95 940128
3 1489.95 938962
3 1489.95 935876
3 1498.08 1108660
3 1498.08 1080447
3 1498.08 1074979
3 1498.08 1052005
3 1498.08 1049671
3 1498.08 1048263
3 1498.08 1043275
3 1498.08 1043198
3 1498.08 1037099
3 1498.08 1022387
3 1498.08 1000756
3 1498.08 992432
3 1498.08 987527
3 1498.08 981127
3 1498.08 980775
3 1498.08 975703
3 1498.94 972261
3 1498.94 953228
3 1498.94 942511
3 1498.94 938915
3 1499.51 936687
3 1499.51 936002
3 1500 935644
3 1505.93 930700
3 1512.1 1098061
3 1512.1 1097461
3 1512.1 1059609
3 1512.1 1043449
3 1512.1 1041868
3 1512.1 1016705
3 1512.1 1010113
3 1512.1 998723
3 1512.1 988415
3 1512.1 982947
3 1512.88 981268
3 1512.88 980931
3 1512.88 980807
3 1512.88 978956
3 1512.88 966553
3 1513.87 961768
3 1514.77 960875
3 1514.77 956331
3 1515.26 954888
3 1515.26 944593
3 1515.26 943246
3 1515.79 931095
3 1526.08 1091400
1 1526.08 1074553
3 1526.08 1064245
3 1526.08 1047043
3 1526.08 1002791
3 1526.08 999571
3 1526.08 988384
3 1526.08 983750
3 1526.8 982312
3 1526.8 979289
3 1526.8 976207
3 1526.8 974836
3 1526.8 971406
3 1526.8 968940
3 1526.8 962114
3 1527.46 956431
3 1527.46 953832
1 1527.46 951375
3 1527.99 939890
3 1528.86 936779
3 1540.2 1033176
3 1540.2 1017426
3 1540.2 1016349
3 1540.2 998537
3 1540.2 989966
3 1540.2 973990
3 1540.2 972418
3 1540.87 966050
3 1540.87 965467
3 1541.37 962657
3 1541.82 961431
3 1541.82 959203
3 1542.72 955557
3 1554.37 1027675
3 1554.37 1022972
3 1554.37 1022151
3 1554.37 1017504
3 1554.37 1008195
3 1554.37 999014
3 1555.03 994432
3 1555.03 983178
3 1555.03 980972
3 1555.03 974158
3 1555.61 967756
3 1555.61 960563
3 1555.61 959906
3 1556.18 959306
3 1556.18 954361
3 1557.55 943929
3 1568.43 1042449
3 1568.43 1017286
3 1568.43 996727
3 1568.43 996665
3 1569.05 983023
1 1569.05 974782
3 1569.05 952374
3 1569.05 949333
3 1569.05 948352
3 1569.69 943976
3 1569.69 943429
3 1570.24 939853
3 1582.26 1065305
3 1582.26 1050761
3 1582.26 1047959
3 1582.26 1032209
3 1582.26 1029981
3 1582.26 1014339
3 1582.26 1008871
3 1582.26 1002170
3 1582.26 993712
3 1582.26 992379
3 1582.26 980542
3 1583.07 961546
3 1583.07 959602
3 1584.06 953975
3 1584.06 952876
3 1584.56 952438
3 1584.56 944570
3 1585.07 943791
3 1585.07 940728
3 1596.13 1073743
3 1596.13 1073007
3 1596.13 1068838
3 1596.13 1047972
3 1596.13 1036968
3 1596.13 1016799
3 1596.13 1015753
3 1596.13 997392
3 1596.13 995324
3 1596.92 992089
3 1596.92 987080
3 1597.45 983434
3 1597.45 977096
3 1597.45 974596
3 1597.45 973656
3 1597.45 972194
3 1598.07 965941
3 1598.07 965001
3 1598.62 962333
3 1599.16 960105
3 1600.61 955997
3 1610.39 1113020
3 1610.39 1098054
3 1610.39 1093005
3 1610.39 1078520
3 1610.39 1053357
3 1610.39 1043605
3 1610.39 1035070
3 1610.39 992429
3 1610.39 990140
3 1611.19 987447
3 1611.19 986555
3 1611.19 985850
3 1611.19 985653
3 1611.19 981460
3 1611.19 980921
3 1611.19 979863
3 1611.19 979666
3 1611.92 979002
3 1612.44 970593
3 1624.34 1154088
3 1624.34 1112863
3 1624.34 1105714
3 1624.34 1057459
3 1624.34 1050284
3 1624.34 1016446
3 1624.34 1005914
3 1624.34 999713
3 1625.1 992511
3 1625.1 992391
3 1625.1 991708
3 1625.1 984515
3 1625.1 983375
3 1625.1 975359
3 1625.76 969835
3 1625.76 968891
3 1625.76 965641
3 1626.31 963413
3 1627.25 957780
3 1628.22 954625
3 1628.22 952438
3 1629.81 941981
3 1629.81 941027
3 1629.81 940031
3 1630.38 936762
3 1632.18 932803
3 1632.18 928346
3 1638.42 1064569
3 1638.42 1063588
3 1638.42 1048537
3 1638.42 1043712
3 1638.42 1037103
3 1638.42 1024159
3 1638.42 1015105
3 1638.42 999883
3 1638.42 994967
3 1639.2 992503
3 1639.2 992273
3 1639.2 980436
1 1639.2 979195
3 1639.92 977971
3 1639.92 975549
3 1639.92 975194
3 1640.36 965150
3 1640.77 956128
3 1641.12 954178
3 1641.12 949950
3 1652.3 1073906
3 1652.3 1065976
3 1652.3 1063374
3 1652.3 1053641
3 1652.3 1048491
3 1652.3 1032514
3 1652.3 1018341
3 1653.04 1015237
3 1653.04 1013094
3 1653.04 1001605
3 1653.04 995978
3 1653.66 986554
3 1653.66 980927
3 1654.19 969539
3 1654.19 968422
3 1654.19 964776
3 1655.26 961418
3 1655.76 960885
3 1655.76 960547
3 1663.22 959468
3 1666.16 1124104
3 1666.16 1076399
3 1666.16 1063992
3 1666.16 1038829
3 1666.16 1035878
3 1666.16 1027309
3 1666.16 1015826
3 1666.16 1008633
3 1666.16 999507
3 1666.16 997279
3 1666.16 983027
3 1666.79 981455
3 1666.79 974313
3 1666.79 972552
3 1666.79 971509
3 1666.79 966804
3 1667.24 964576
3 1671.44 960970
3 1671.44 958051
3 1671.79 957155
3 1672.12 955422
3 1672.12 938429
3 1672.12 938385
3 1674.51 937250
3 1676.87 936057
3 1677.47 936038
3 1678.33 932780
3 1679.2 931561
3 1679.2 930177
3 1679.2 928438
3 1680.18 1069019
3 1680.18 1062184
3 1680.18 1054567
3 1680.18 1051585
3 1680.18 1046022
3 1680.18 1044973
3 1680.18 1039187
1 1680.18 1010060
3 1680.18 1009458
3 1680.18 1001279
3 1680.18 1000331
3 1680.18 995755
3 1680.84 989341
3 1680.84 984720
3 1682.07 982150
3 1682.07 979294
3 1682.07 978966
3 1682.45 974957
3 1682.45 968403
3 1682.45 958781
3 1682.45 953681
3 1682.45 953010
3 1682.9 948213
3 1682.9 942478
3 1684.96 940569
3 1684.96 936034
3 1685.3 935721
3 1694.4 1073803
3 1694.4 1049447
3 1694.4 1040620
3 1694.4 1015923
3 1694.4 1012277
3 1694.4 973343
3 1694.4 973198
3 1694.4 963889
3 1694.4 955369
3 1695.16 953195
3 1695.16 947080
3 1697.94 945578
3 1697.94 943720
3 1697.94 942695
3 1698.95 941193
3 1699.9 938194
3 1699.9 937547
3 1708.11 1057648
3 1708.11 1046171
3 1708.11 1041305
3 1708.11 1025217
3 1708.11 1021008
3 1708.11 998075
3 1708.11 990553
3 1708.11 990323
3 1708.11 985694
3 1708.87 979497
3 1708.87 978941
3 1708.87 968406
3 1708.87 967670
3 1709.96 964731
3 1710.47 962781
3 1711.4 961999
3 1711.4 959771
3 1714.07 958365
3 1722.35 1121498
3 1722.35 1107715
3 1722.35 1089776
3 1722.35 1083512
3 1722.35 1058426
3 1722.35 1044788
3 1722.35 1029167
3 1723.03 1023180
3 1723.36 1000867
3 1723.36 985207
3 1723.74 981171
3 1723.74 979221
3 1724.11 973264
3 1724.11 969618
3 1724.11 969332
3 1724.11 958900
3 1724.52 956978
3 1724.83 956958
3 1736.25 1060720
3 1736.25 1054606
3 1736.25 1052438
3 1736.25 1041203
3 1736.25 1028350
3 1736.25 1014149
3 1736.25 1009807
3 1736.25 1005336
3 1736.25 1000939
3 1736.25 997973
3 1736.8 996099
3 1736.8 986800
3 1736.8 984419
3 1736.8 980769
3 1736.8 976602
3 1738.17 974753
3 1738.17 974017
3 1738.53 959410
3 1739.5 958601
3 1739.5 957065
3 1739.5 955123
3 1739.5 952033
3 1739.5 949402
3 1740.92 948983
3 1740.92 936461
3 1741.28 934180
3 1741.63 932762
3 1741.63 932619
3 1750.28 1025423
3 1750.28 1024014
3 1750.28 1019362
3 1750.28 1017787
3 1750.28 1015039
3 1750.28 1005758
3 1750.8 995794
3 1750.8 983826
3 1750.8 979817
3 1751.21 970771
3 1751.56 969285
3 1752.76 968635
3 1752.76 964158
3 1752.76 960725
3 1753.18 954879
3 1753.18 951233
3 1753.55 949835
3 1755.14 948057
3 1755.14 946655
3 1755.14 940212
3 1755.14 935766
3 1756.28 933597
3 1756.89 929951
3 1764.11 1014419
3 1764.11 1005887
3 1764.11 999981
3 1764.11 993990
3 1764.11 993102
3 1764.11 992198
3 1764.11 988635
3 1764.73 984466
3 1764.73 977509
3 1765.1 975154
3 1765.44 974573
3 1766.82 969158
3 1766.82 959404
3 1771.27 958944
3 1771.27 950622
3 1771.27 946200
3 1771.27 944112
3 1778.25 1101344
3 1778.25 1087746
3 1778.25 1069162
3 1778.25 1061829
3 1778.25 1057674
3 1778.25 1056038
3 1778.25 1048406
3 1778.25 1046371
3 1778.83 1037062
3 1778.83 1016296
3 1778.83 1011330
3 1778.83 1006617
3 1778.83 1005881
3 1778.83 998188
3 1779.34 992971
3 1779.34 992204
3 1779.34 992161
3 1779.34 989297
3 1779.34 987390
3 1779.34 982104
3 1779.9 980285
3 1779.9 978122
3 1779.9 972598
3 1780.32 970593
3 1781.26 968974
3 1781.26 963587
3 1781.26 959063
3 1783.08 959017
3 1783.08 953654
3 1792.16 1091463
3 1792.16 1074756
3 1792.16 1059006
3 1792.16 1043678
3 1792.16 1024087
3 1792.16 1009036
3 1792.16 1004119
3 1792.16 1001483
3 1792.16 992738
3 1792.81 992672
3 1792.81 981338
3 1792.81 976104
3 1792.81 974619
3 1792.81 969446
3 1792.81 958366
3 1792.81 957552
3 1793.78 957298
3 1793.78 955639
3 1794.24 954328
3 1794.24 951993
3 1794.24 945249
3 1794.24 941603
3 1794.24 940060
3 1795.1 934489
3 1795.1 933709
3 1806.13 1076148
3 1806.13 1054630
3 1806.13 1050984
3 1806.13 1036055
3 1806.13 1026948
3 1806.13 1018949
3 1806.13 1018436
3 1806.13 993229
3 1806.13 986340
3 1806.13 984320
3 1806.71 971380
3 1806.71 969783
3 1806.71 967672
3 1806.71 966545
3 1807.41 961685
3 1808.9 957922
3 1808.9 954274
3 1808.9 953594
3 1809.28 949624
3 1809.28 943990
3 1809.28 943254
3 1809.28 934987
3 1809.28 934634
3 1809.73 933438
3 1810.1 933285
3 1810.1 931841
3 1810.48 931488
3 1811.36 920778
3 1820.35 1105746
3 1820.35 1059660
3 1820.35 1059570
3 1820.35 1059330
3 1820.35 1039315
3 1820.35 1037817
3 1820.35 1016514
3 1820.35 1012746
3 1821.06 1011967
3 1821.06 1003782
3 1821.56 998057
3 1821.56 988130
3 1822.06 978422
3 1822.06 977662
3 1822.57 967969
3 1822.57 963880
3 1822.57 952418
3 1825.57 949960
3 1826.01 944436
3 1829.49 944373
3 1834.07 1093906
3 1834.07 1077397
3 1834.07 1047741
3 1834.07 1026185
3 1834.07 1015368
3 1834.07 1012286
3 1834.07 1009603
3 1834.07 1001469
3 1834.07 987215
3 1834.07 982987
3 1834.83 977826
3 1835.33 970633
3 1835.8 957693
3 1835.8 954268
3 1836.34 942448
3 1848.19 1067006
3 1848.19 1061372
3 1848.19 1054179
3 1848.19 1053080
3 1848.19 1026903
3 1848.19 1017112
3 1848.19 1015129
3 1848.19 996241
3 1848.9 993783
3 1849.37 992595
3 1849.37 986932
3 1849.88 979770
3 1849.88 977806
3 1850.83 968597
3 1852.18 962454
3 1852.65 954031
3 1853.11 952514
3 1853.11 951759
3 1854.07 950537
3 1854.97 949514
1 1856.67 948485
3 1856.67 946962
3 1862.04 1071017
3 1862.04 1067292
3 1862.04 1042129
3 1862.04 1040724
3 1862.04 1040642
3 1862.04 1018259
3 1862.04 1004005
3 1862.04 986382
3 1862.79 982809
3 1862.79 980776
3 1862.79 977130
3 1863.78 976490
3 1863.78 974584
3 1864.29 970832
3 1864.79 969928
3 1866.66 969790
3 1867.17 968145
3 1869.41 966144
3 1876.03 1098144
3 1876.03 1058281
3 1876.03 1045196
3 1876.03 1031735
3 1876.03 1019332
3 1876.03 1016204
3 1876.03 996761
3 1876.73 991824
3 1876.73 987708
3 1876.73 983011
3 1876.73 982390
3 1876.73 977917
3 1877.36 969399
3 1877.36 962167
3 1877.89 960370
3 1877.89 959916
3 1877.89 956499
3 1878.42 954544
3 1879.38 953851
3 1879.38 951310
3 1885.83 948675
3 1885.83 947594
3 1885.83 937359
3 1885.83 926985
3 1890.15 1051542
3 1890.15 1046513
3 1890.15 1042867
3 1890.15 1029464
3 1890.15 999824
3 1890.15 994858
3 1890.15 985549
3 1890.15 984873
3 1890.15 972722
3 1890.15 970494
3 1890.15 965189
3 1890.15 964970
3 1890.15 964932
3 1890.15 960069
3 1891 959631
3 1891 956547
3 1891.52 954382
3 1891.52 952438
3 1891.52 951892
3 1892.06 946257
3 1892.06 945919
3 1892.55 945905
3 1904.32 1037622
3 1904.32 1032098
3 1904.32 1030515
3 1904.32 1011072
3 1904.32 1007449
3 1904.32 1007030
3 1904.32 1004802
3 1904.32 988400
3 1904.32 984459
3 1905.08 979666
3 1905.08 970875
3 1905.08 968582
3 1905.08 965226
3 1905.08 958036
3 1905.08 957300
3 1905.71 956773
3 1905.71 954330
3 1905.71 953642
3 1906.24 953019
3 1906.24 952476
3 1907.17 950791
3 1907.17 948355
3 1907.17 943193
3 1907.7 942488
3 1907.7 941987
3 1908.19 941608
3 1908.19 940538
3 1918.13 1020907
3 1918.13 990126
3 1918.13 988782
3 1918.13 984225
3 1918.13 983348
3 1919.21 980966
3 1919.21 962812
3 1919.71 962295
3 1919.71 960067
3 1919.71 955684
3 1920.29 950698
3 1920.76 945230
3 1921.2 941524
3 1922.54 938940
3 1932.34 1085396
3 1932.34 1079872
3 1932.34 1054709
3 1932.34 1048722
3 1932.34 1015397
3 1932.34 1015251
3 1932.34 985710
3 1932.34 985352
3 1932.34 981548
3 1932.34 979828
3 1933.13 975193
3 1933.13 971547
3 1934.07 970390
3 1934.07 965560
3 1934.57 961838
3 1935.03 953612
3 1935.94 940171
3 1946.25 1081878
3 1946.25 1072602
3 1946.25 1035724
3 1946.25 1034852
3 1946.25 1033494
3 1946.25 1027034
3 1946.25 1017043
3 1946.25 1007591
3 1946.25 1000256
3 1946.99 997999
3 1946.99 995627
3 1946.99 983222
3 1946.99 979940
3 1948.49 970673
3 1948.49 969408
3 1950.34 959465
3 1950.34 954128
3 1950.89 949393
3 1960.2 1075462
3 1960.2 1032326
3 1960.2 1030098
3 1960.2 1010882
3 1960.2 993219
3 1960.2 992523
3 1960.2 990388
3 1960.2 989946
3 1960.2 983195
3 1960.2 972887
3 1960.8 957323
3 1961.42 955845
3 1970.08 952351
3 1970.41 945941
3 1970.41 944280
3 1970.41 943690
3 1973.47 937332
3 1973.47 936596
3 1974.1 1082105
3 1974.1 1046036
3 1974.1 1007382
3 1974.1 1006262
3 1974.1 1003388
3 1974.1 997595
3 1974.1 982597
3 1974.66 982289
3 1974.66 968987
3 1974.66 967707
3 1975.03 964173
3 1975.35 961236
3 1975.35 955602
3 1975.35 942279
3 1975.35 941419
3 1988.14 1090372
3 1988.14 1083364
3 1988.14 1073573
3 1988.14 1035817
3 1988.14 1033710
3 1988.64 1030251
3 1988.64 1023715
3 1988.64 994730
3 1988.64 993383
3 1988.64 982477
3 1988.64 968223
3 1989.12 960248
3 1989.12 955162
3 1989.12 955061
3 1989.54 951669
3 1989.54 942433
3 1989.54 940205
3 1995.16 940111
3 1995.16 940010
3 2002.23 1096995
3 2002.23 1081944
3 2002.23 1051313
3 2002.23 1051300
3 2002.23 1028680
3 2002.23 1015277
3 2002.23 1014345
3 2002.23 1007183
3 2002.23 994330
3 2002.23 993759
3 2002.23 984640
3 2002.84 978653
3 2002.84 976654
3 2002.84 971140
3 2002.84 970659
3 2002.84 969907
3 2002.84 968980
3 2003.32 967864
3 2003.68 957064
3 2003.68 953437
3 2003.68 951487
3 2004.76 950232
3 2008.08 947127
3 2008.08 943854
3 2015.65 943831
3 2015.65 942326
3 2015.65 937020
3 2015.65 934792
3 2016.15 1039518
3 2016.15 1032388
3 2016.15 1015639
3 2016.15 1009322
3 2016.15 1009258
3 2016.15 1008763
3 2016.77 1004245
3 2016.77 977614
3 2016.77 977295
3 2016.77 975288
3 2016.77 967412
3 2016.77 966547
3 2017.29 957104
3 2017.29 956908
3 2017.29 955641
3 2017.29 951636
3 2017.87 945649
3 2018.92 942243
3 2019.28 939373
3 2030.25 1038597
3 2030.25 1030503
3 2030.25 1023341
3 2030.25 998178
3 2030.25 987272
3 2030.25 981727
3 2030.82 975950
3 2030.82 972276
3 2030.82 969569
3 2044.09 997349
3 2044.09 985260
3 2044.09 977834
3 2044.09 963582
3 2044.63 962669
3 2044.63 960823
3 2044.63 956268
3 2044.63 948703
3 2045.06 947491
3 2045.39 942397
3 2045.39 941440
3 2047.56 940633
3 2047.95 940571
1 2058.16 1025944
3 2058.16 1020374
3 2058.16 1001257
3 2058.16 972364
3 2058.63 960960
3 2058.63 951193
3 2058.63 950429
3 2058.63 950428
3 2059.03 945206
3 2072.37 1015415
3 2072.37 1012799
1 2072.37 1005368
3 2072.37 996277
3 2072.37 994142
3 2072.37 980361
3 2072.37 970309
3 2073.07 963756
3 2073.07 961914
3 2073.07 960249
3 2073.62 960021
3 2073.62 957331
3 2073.62 953981
3 2074.15 952856
3 2074.15 949614
3 2074.15 945001
3 2074.7 943951
3 2086.03 1050072
3 2086.03 1033285
3 2086.03 1027761
3 2086.03 1012011
3 2086.03 1001479
3 2086.03 996273
3 2086.03 979971
3 2087.91 967620
3 2087.91 965392
3 2088.3 964825
3 2088.64 962685
3 2088.64 958838
3 2100.26 1157279
3 2100.26 1142228
3 2100.26 1122213
3 2100.26 1083891
3 2100.26 1057912
3 2100.26 1043254
3 2100.26 1013181
3 2100.26 1012618
3 2100.26 1002827
3 2100.91 1000832
3 2100.91 990400
3 2100.91 989384
3 2101.42 974861
3 2102.07 973995
3 2102.07 969869
3 2102.07 968395
3 2113.82 966738
3 2114.18 1015947
3 2114.18 999832
3 2114.18 997771
3 2114.18 996081
3 2114.18 992435
3 2114.64 985335
3 2115.25 984684
3 2115.25 978082
3 2115.64 975539
3 2117.35 968708
3 2117.66 965218
3 2117.66 962721
3 2118.55 961536
3 2118.55 957909
3 2118.88 953373
3 2128.18 1024897
3 2128.18 1015080
3 2128.18 1014529
3 2128.18 1012373
3 2128.63 1011703
3 2128.63 1007346
3 2128.63 1003788
3 2128.63 979395
3 2128.63 978909
3 2129.08 975589
3 2129.08 973639
3 2129.08 970625
3 2129.76 968489
3 2129.76 963978
3 2130.18 963021
3 2130.82 949190
3 2131.42 947970
3 2142.02 1046491
3 2142.02 1036725
3 2142.02 1021971
3 2142.02 1019935
3 2142.02 1016124
3 2142.02 1010600
3 2142.02 995414
3 2142.02 985700
3 2142.58 980363
3 2142.58 966551
3 2145.26 963371
3 2145.26 946357
3 2156.27 971651
3 2156.27 971015
3 2156.65 968630
3 2156.98 961602
3 2156.98 959652
3 2157.34 956542
3 2157.34 955227
3 2157.66 953426
3 2157.66 948914
3 2157.66 947487
3 2170.04 1098509
3 2170.04 1092833
3 2170.04 1028821
3 2170.04 1014206
3 2170.04 1010560
1 2170.04 997591
3 2170.04 997384
3 2170.56 985721
3 2170.56 980760
3 2170.56 965010
3 2170.56 957961
3 2170.96 953310
3 2171.83 952216
3 2171.83 951593
3 2171.83 950880
3 2172.21 945412
3 2172.83 942080
3 2173.14 941571
3 2173.14 940497
3 2173.14 931808
3 2173.14 928285
3 2173.81 926340
3 2173.81 926335
3 2184.26 1051793
3 2184.26 988930
3 2184.26 986524
3 2184.26 985154
3 2184.74 982108
3 2184.74 978884
3 2184.74 975085
3 2184.74 971202
3 2184.74 967556
3 2184.74 958247
3 2187.11 953520
3 2190.97 952841
3 2192.77 951695
3 2192.77 950927
3 2193.64 947097
3 2194.24 945606
3 2194.89 945112
3 2196.05 933895
3 2196.36 933488
3 2198.11 1042551
3 2198.11 1037957
3 2198.11 1033952
3 2198.11 1020626
3 2198.11 1016520
3 2198.11 1016062
3 2198.11 1006753
3 2198.11 1005623
3 2198.11 996437
3 2198.11 995979
3 2198.72 990697
3 2198.72 983504
3 2198.72 983372
3 2198.72 980220
3 2199.17 979756
3 2199.17 974288
3 2199.55 972029
3 2199.55 971090
3 2199.55 968644
3 2199.55 964497
3 2200.02 963539
3 2200.34 962695
3 2200.34 953244
3 2200.72 947094
3 2201.35 946673
3 2201.35 943481
3 2201.35 933095
3 2201.74 932949
3 2207.8 932819
3 2207.8 932559
3 2208.45 931458
3 2212.06 1125574
3 2212.06 1110523
3 2212.06 1099991
3 2212.06 1079976
3 2212.06 1037335
3 2212.06 1023083
3 2212.06 1007358
3 2212.06 1001834
3 2212.06 993806
3 2212.06 968735
3 2212.95 968251
3 2212.95 966482
3 2212.95 962524
3 2212.95 957275
3 2212.95 955576
3 2212.95 952683
3 2213.38 952006
3 2213.38 946019
3 2213.38 945905
3 2216.32 943572
3 2217.75 942781
3 2226.06 1037338
3 2226.06 1024044
3 2226.06 1010641
3 2226.06 1000333
3 2226.06 992691
3 2226.06 986445
3 2226.06 983163
3 2226.58 980977
3 2226.58 971139
3 2226.95 968911
3 2226.95 965244
3 2226.95 961087
3 2227.94 960696
3 2227.94 960263
3 2239.04 958882
3 2239.04 945212
3 2240.26 1098400
3 2240.26 1080554
3 2240.26 1058760
3 2240.26 1040964
3 2240.26 1032432
3 2240.26 1021615
3 2240.26 1018533
3 2240.26 999769
3 2240.77 997541
3 2240.77 978530
3 2240.77 970712
3 2240.77 970642
3 2240.77 968692
3 2241.53 961877
3 2241.9 960916
3 2241.9 960846
3 2241.9 958896
3 2242.27 957270
3 2244.23 946840
3 2247.04 946338
3 2247.36 944647
3 2247.36 941864
3 2248.53 941820
3 2249.99 939869
3 2249.99 934383
3 2250.32 933490
3 2254.25 1106095
3 2254.25 1085190
3 2254.25 1082845
3 2254.25 1065853
3 2254.25 1049066
3 2254.25 1037187
3 2254.25 1033034
3 2254.25 1026367
3 2254.25 1009651
3 2254.73 1005781
3 2254.73 999593
3 2254.73 997365
3 2254.73 994726
3 2255.13 994020
3 2255.99 986925
3 2255.99 980966
3 2255.99 979716
3 2256.36 979352
3 2256.36 975863
3 2257.72 974248
3 2258.26 968857
3 2268.14 1101071
3 2268.14 1096126
3 2268.14 1086827
3 2268.14 1077920
3 2268.14 1077428
3 2268.14 1076414
3 2268.14 1070427
3 2268.62 1039796
3 2268.94 1037147
3 2268.94 1036474
3 2269.29 1032858
3 2269.29 1029281
3 2269.29 1022426
3 2269.29 1021760
3 2269.7 1021010
3 2269.7 1020041
3 2269.7 1018801
3 2269.7 1016053
3 2269.7 1005699
3 2269.7 1003471
3 2270.21 999525
3 2270.87 997949
3 2270.87 995999
3 2270.87 993538
3 2270.87 988679
3 2270.87 960096
3 2270.87 960041
3 2272.25 954496
3 2282.25 1058135
3 2282.25 1008676
3 2282.25 1007175
3 2282.25 992692
3 2282.25 986705
3 2282.25 982767
3 2282.25 982031
3 2282.25 976270
3 2282.76 969920
3 2282.76 966274
3 2284 964580
3 2284 962386
3 2284.34 961828
3 2284.34 960124
3 2284.69 956478
3 2285.86 956399
3 2291.39 953329
3 2291.71 948570
3 2292.03 946900
3 2292.38 946164
3 2296.13 1038206
3 2296.13 1022563
3 2296.13 1016870
3 2296.13 1009677
3 2296.55 994328
3 2296.55 981613
3 2296.55 967361
3 2296.55 963697
3 2296.96 962018
3 2297.3 961374
3 2298.74 960618
3 2298.74 946946
3 2299.08 945763
3 2301.36 944641
3 2301.68 943145
3 2301.68 940983
3 2301.68 929444
3 2302.07 928891
3 2310.13 1078479
3 2310.13 1065722
3 2310.13 1063694
3 2310.13 1063304
3 2310.13 1036990
3 2310.13 1028968
3 2310.13 1025322
3 2310.13 1014275
3 2310.13 1011903
3 2310.13 1006379
3 2310.72 998039
3 2310.72 995568
3 2310.72 982686
3 2310.72 981316
3 2310.72 980736
3 2311.22 979380
3 2311.56 978403
3 2311.56 974436
3 2312.42 972356
3 2312.42 968631
3 2312.42 961161
3 2312.42 958933
3 2313.44 955305
3 2313.44 953968
3 2313.95 952576
3 2313.95 950348
1 2316.32 944122
3 2318.03 943851
3 2318.49 938306
3 2318.49 937536
3 2319.87 936356
3 2324.13 1017638
3 2324.13 972362
3 2324.13 957641
3 2324.13 956180
3 2324.13 946635
3 2324.13 945186
3 2324.13 940722
3 2324.78 935729
3 2325.25 933929
3 2325.25 930943
3 2325.74 927942
3 2338.22 1019974
3 2338.22 1018736
3 2338.22 1001245
3 2338.22 993725
3 2338.22 991459
3 2338.22 990438
3 2338.22 979075
3 2338.93 978587
3 2340.34 975332
3 2340.83 971228
3 2340.83 970511
3 2341.33 967100
3 2341.33 966591
3 2341.33 962837
3 2345.57 961379
3 2345.57 959545
3 2345.57 957825
3 2352.18 1041374
3 2352.18 1031066
3 2352.18 1024456
3 2352.18 1022038
3 2352.18 1007004
3 2352.18 987561
3 2352.18 970214
3 2352.85 960776
3 2352.85 960592
3 2353.37 959552
3 2353.85 957624
3 2353.85 956659
3 2354.37 953310
3 2354.37 947997
3 2354.37 947350
3 2366.23 1028331
3 2366.23 1027052
3 2366.23 1012774
3 2366.23 998386
3 2366.23 984451
3 2366.23 981381
3 2366.23 970043
3 2366.23 958635
3 2366.23 951514
3 2366.98 946571
3 2366.98 941909
3 2366.98 937565
3 2366.98 935979
3 2372.74 931450
3 2372.74 925932
3 2373.23 925449
3 2373.23 920778
3 2380.41 1020675
3 2380.41 1003837
3 2380.41 993912
3 2380.41 992945
3 2380.41 978313
3 2381.05 975582
3 2381.05 967908
3 2381.05 964910
3 2381.61 953522
3 2381.61 947507
3 2394.39 1090687
3 2394.39 1061663
3 2394.39 1034003
3 2394.39 1027351
3 2394.39 1008631
3 2394.39 996502
3 2394.39 995428
3 2394.39 990091
3 2394.39 983091
3 2394.39 973790
3 2395.17 970970
1 2395.17 966019
3 2395.7 962207
3 2395.7 961646
3 2396.65 956022
3 2398.03 955711
3 2398.56 951855
3 2399.11 949860
3 2402.27 948248
3 2403.2 948165
3 2403.2 944991
3 2403.2 944635
3 2403.74 943713
3 2404.21 943642
3 2406.83 939894
3 2407.73 938500
3 2408.22 1089281
3 2408.22 1083294
3 2408.22 1040653
3 2408.22 1015490
3 2408.22 1013633
3 2408.22 1011405
3 2408.86 1010306
3 2408.86 1009616
3 2409.39 1000245
3 2409.39 997200
3 2409.39 996464
3 2409.95 996132
3 2410.42 995364
3 2412.21 994516
3 2412.21 993780
3 2412.75 983226
3 2413.26 979273
3 2413.77 978681
3 2413.77 969647
3 2414.69 966010
3 2414.69 963909
3 2414.69 962372
3 2415.23 960851
3 2415.69 960422
3 2416.56 958623
3 2422.2 1041538
3 2422.2 1032504
3 2422.2 992036
3 2422.2 989949
3 2422.2 985764
3 2422.78 981033
3 2422.78 975286
3 2423.27 973111
3 2423.27 969787
3 2423.27 965977
3 2423.27 961717
3 2423.86 952450
3 2424.33 947614
3 2427.9 947113
3 2427.9 942977
3 2427.9 941573
3 2427.9 940749
3 2427.9 939893
3 2428.89 939176
3 2428.89 937396
3 2429.38 936416
3 2429.38 932751
3 2429.38 931324
3 2429.9 931041
3 2432.43 930157
3 2432.87 928931
3 2436.19 1052702
3 2436.19 1045011
3 2436.19 1043298
3 2436.19 1039129
3 2436.19 1032220
3 2436.19 1029992
3 2436.19 1026477
3 2436.19 1022728
3 2436.19 1013074
3 2436.93 1005418
3 2436.93 992172
3 2436.93 986247
3 2436.93 980779
3 2437.5 972091
3 2437.5 964397
3 2437.5 963787
3 2437.5 960192
3 2438.06 955897
3 2438.06 955732
3 2438.06 953504
3 2438.06 946311
3 2440.33 939417
3 2440.33 938737
3 2440.33 936163
3 2440.91 933225
3 2440.91 932375
3 2440.91 931125
3 2440.91 929579
3 2441.55 929210
3 2442.09 922532
3 2450.36 1024580
3 2450.36 1024493
3 2450.36 1018351
3 2450.36 1012827
3 2450.36 1010987
3 2450.36 1008759
3 2451.03 1005160
3 2451.03 1003210
3 2451.03 974198
3 2451.03 972579
3 2451.03 964099
3 2451.03 963372
3 2451.67 961364
3 2451.67 959863
3 2453.05 957464
3 2454.4 956534
3 2456.23 956388
3 2457.15 953873
3 2457.64 952027
3 2457.64 951291
3 2457.64 950821
3 2458.16 949853
3 2458.16 948593
3 2458.16 947012
3 2458.68 946425
3 2459.13 945524
3 2459.13 944306
3 2459.13 941613
3 2459.13 941088
3 2460.7 939326
3 2461.51 937799
3 2461.51 937556
3 2462.44 936539
3 2464.13 1046092
3 2464.13 1033638
3 2464.13 1030601
3 2464.13 1020810
3 2464.13 1015572
3 2464.13 994560
3 2464.13 985167
3 2464.66 984567
3 2464.66 974621
3 2464.66 974259
3 2464.66 972393
3 2464.66 963754
3 2465.08 961026
3 2465.08 958990
3 2465.08 951679
3 2465.08 946211
3 2465.49 946163
3 2465.49 935903
3 2478.12 1130159
3 2478.12 1108563
3 2478.12 1088011
3 2478.12 1068143
3 2478.12 1065915
3 2478.12 1062269
1 2478.12 1060933
3 2478.12 1045321
3 2478.12 1037397
3 2478.12 1030100
3 2478.12 1027877
3 2478.12 1023006
3 2478.76 1017512
3 2478.76 1012494
3 2478.76 1006507
3 2478.76 1004556
3 2478.76 987769
3 2478.76 984432
3 2478.76 968778
3 2479.28 963826
3 2479.28 961598
3 2479.28 954405
3 2483.8 953575
3 2483.8 950676
3 2492.31 1017158
3 2492.31 994766
3 2492.31 978372
3 2492.31 971517
3 2492.31 968697
3 2492.31 965214
3 2492.31 964981
3 2492.31 958424
3 2492.81 957788
3 2492.81 957052
3 2492.81 952416
3 2493.18 951586
3 2493.18 951502
3 2498.01 949905
3 2498.33 947762
3 2498.33 947073
3 2501.35 946110
3 2501.35 942476
3 2501.35 941740
3 2502.64 941042
3 2503.83 940693
3 2503.83 939073
3 2504.18 939036
3 2504.5 938300
3 2506.28 1041545
3 2506.28 1034648
1 2506.28 1018923
3 2506.28 1010548
3 2506.28 1008017
3 2506.28 1004263
3 2506.28 1001156
3 2506.78 996987
3 2506.78 995490
3 2506.78 989313
3 2507.19 985795
3 2507.19 980893
3 2507.19 978633
3 2507.19 972715
3 2507.19 970729
3 2508.48 968993
3 2508.48 966464
3 2508.83 964613
3 2508.83 960517
3 2508.83 959175
3 2509.2 950726
3 2520.08 1091217
3 2520.08 1085880
3 2520.08 1043339
3 2520.08 1026501
3 2520.08 1021398
3 2520.08 1017752
3 2520.08 1009723
3 2520.08 1006436
3 2520.08 995471
3 2520.59 994821
3 2521.24 986918
3 2521.58 984946
3 2521.92 977753
3 2521.92 973689
3 2521.92 971766
3 2522.43 970043
3 2534.3 1090338
3 2534.3 1075244
3 2534.3 1047652
3 2534.3 1042128
3 2534.3 1029857
3 2534.3 1027322
3 2534.3 1017676
3 2534.3 1016318
3 2534.3 1010691
3 2535.02 1010421
3 2535.02 991257
3 2535.02 988825
3 2535.02 987611
3 2535.02 981289
3 2535.02 977869
3 2535.02 971858
3 2535.69 971498
3 2536.15 967746
3 2538.79 967169
3 2539.25 966353
3 2539.25 960177
3 2539.25 956562
3 2539.79 954511
3 2539.79 952950
3 2539.79 950578
3 2540.73 946963
3 2548.26 1053989
3 2548.26 1013674
3 2548.26 993352
3 2548.26 986159
3 2548.84 983318
3 2549.33 981128
3 2549.33 978497
3 2549.33 974328
3 2549.89 973490
3 2549.89 966654
3 2549.89 956652
3 2551.77 950897
3 2551.77 946728
3 2562.18 1105441
3 2562.18 1070495
3 2562.18 1047992
3 2562.18 1038480
3 2562.18 1023987
3 2562.18 1002856
3 2562.18 1000406
3 2562.18 981875
3 2562.18 975848
3 2562.93 972985
3 2563.89 959839
3 2563.89 959602
3 2563.89 955193
3 2564.41 954548
3 2576.38 1031237
3 2576.38 1020151
3 2576.38 1014083
3 2576.38 996248
1 2576.38 987611
3 2576.38 986721
3 2576.38 984703
3 2576.38 981529
3 2577.56 978949
3 2577.56 975554
3 2577.56 973531
3 2577.56 970205
3 2577.56 958858
3 2577.56 949870
3 2578.2 946224
3 2578.69 941212
3 2579.17 931950
3 2580.11 931570
3 2580.58 931178
3 2580.58 930915
3 2590.27 1041858
3 2590.27 1039630
3 2590.27 1000523
3 2590.27 997340
3 2590.27 993694
3 2590.27 991334
3 2590.93 987707
3 2590.93 981081
3 2590.93 980158
3 2591.93 976743
3 2591.93 973961
3 2592.45 970291
3 2592.45 967703
3 2592.45 964165
3 2592.45 955456
3 2593.03 953857
3 2593.51 942775
3 2593.97 941820
3 2593.97 930365
3 2594.88 924598
3 2595.33 923643
3 2604.05 1035939
3 2604.05 1015039
3 2604.05 1011393
3 2604.05 1000135
3 2604.05 984288
3 2604.05 973756
3 2604.76 972655
3 2604.76 971924
3 2604.76 967476
3 2604.76 960519
3 2604.76 944868
3 2604.76 937784
3 2604.76 933804
3 2605.88 928860
3 2606.74 926135
3 2607.6 917460
3 2618.22 1084784
3 2618.22 1059097
3 2618.22 1052712
3 2618.22 1019347
3 2618.22 1017766
3 2618.22 1009445
3 2618.98 992658
3 2619.48 985555
3 2619.48 977069
3 2620.5 975070
3 2624.87 972162
3 2624.87 970483
3 2624.87 966837
3 2624.87 959834
3 2625.44 957883
3 2625.44 953217
3 2632.15 1081207
3 2632.15 1079866
3 2632.15 1074342
3 2632.15 1058592
3 2632.15 1049862
3 2632.15 1040066
3 2632.15 1017480
3 2632.15 1009925
3 2632.15 1000616
3 2632.93 996160
3 2632.93 974761
3 2632.93 961214
3 2632.93 960105
3 2633.97 958859
3 2633.97 956631
3 2635.42 952542
3 2635.9 952267
3 2646.32 1098913
3 2646.32 1048881
3 2646.32 1033858
3 2646.32 1030310
3 2646.32 1022088
3 2646.32 1013468
3 2646.32 1012023
3 2646.32 998579
3 2647.08 992592
3 2647.08 969031
3 2647.08 964862
3 2647.08 951136
3 2647.08 943380
3 2647.08 941308
3 2649.11 940998
3 2649.11 939396
3 2649.11 936884
3 2649.65 936685
3 2650.18 936375
3 2660.24 1101820
3 2660.24 1083973
3 2660.24 1052482
3 2660.24 1047281
3 2660.24 1039144
3 2660.24 1025741
3 2660.24 1012655
3 2660.24 1012111
3 2660.99 1001749
3 2660.99 991209
3 2660.99 986698
3 2660.99 985222
3 2660.99 957872
3 2660.99 955522
3 2661.65 954020
3 2662.56 948475
3 2663.03 946103
3 2664.37 945467
3 2664.37 938631
3 2664.37 935980
3 2674.21 1100257
3 2674.21 1073155
3 2674.21 1029335
3 2674.21 1029077
3 2674.21 1012085
3 2674.21 1001179
3 2674.21 989958
3 2674.87 985327
3 2674.87 980244
3 2674.87 968958
3 2674.87 963108
3 2675.44 956406
3 2675.44 954178
3 2675.44 952202
3 2675.97 943620
3 2675.97 941376
3 2675.97 940718
3 2675.97 938913
3 2676.53 937860
3 2676.98 937813
3 2676.98 931483
3 2688.35 1077450
3 2688.35 1054202
3 2688.35 1045886
3 2688.35 1007564
3 2688.35 997496
3 2688.35 994906
3 2688.35 994363
1 2688.35 987809
3 2689.06 987713
3 2689.06 983382
3 2689.06 977439
3 2689.06 968623
3 2689.06 964036
3 2689.06 957082
3 2689.7 946650
3 2702.01 1143925
3 2702.01 1130522
3 2702.01 1104291
3 2702.01 1071776
3 2702.01 1068843
3 2702.01 1025094
3 2702.01 1019892
3 2702.7 1017544
3 2702.7 1011893
3 2702.7 1009270
3 2702.7 1005367
3 2702.7 1004203
3 2702.7 1000231
3 2702.7 996366
3 2702.7 982601
3 2702.7 980913
3 2703.44 973651
3 2703.44 973283
3 2703.44 968397
3 2703.44 966608
3 2703.44 957299
3 2704.05 952381
3 2704.05 952260
3 2704.05 946857
3 2704.05 944629
3 2704.59 942314
3 2707.21 941035
3 2707.21 937436
3 2716.27 1090912
3 2716.27 1089332
3 2716.27 1078713
3 2716.27 1075961
3 2716.27 1070437
3 2716.27 1063244
3 2716.27 1059662
3 2716.27 1052920
3 2716.27 1034007
3 2716.27 1031104
3 2716.27 1026670
3 2717.08 1005164
3 2717.08 985939
3 2717.58 980315
3 2717.58 979809
3 2717.58 974328
3 2720.26 972721
3 2720.71 970161
3 2724.19 964360
3 2724.65 959650
3 2728.16 958540
3 2729.49 956821
3 2729.96 954402
3 2730.4 1051158
3 2730.4 1036107
3 2730.4 1027498
3 2730.4 1020305
3 2730.4 1010104
3 2730.4 1002971
3 2731.07 988762
3 2731.56 988421
3 2731.56 986471
3 2731.56 980372
3 2731.56 979017
3 2732.11 978281
3 2732.11 964878
3 2732.11 963493
3 2732.11 961912
3 2732.68 959684
3 2733.13 956958
3 2733.13 952586
3 2733.13 947982
3 2733.13 946396
3 2733.69 946195
3 2734.14 943967
3 2734.57 940928
3 2735.04 939253
3 2744.18 1036142
3 2744.18 1026351
3 2744.18 1013311
3 2744.18 1001883
3 2744.18 998768
3 2744.18 989317
3 2745.31 984017
3 2745.31 977252
3 2745.31 971579
3 2745.31 946113
3 2745.91 944568
3 2745.91 938896
3 2745.91 934004
3 2745.91 932353
3 2745.91 929602
3 2745.91 928144
3 2746.58 925623
3 2747.48 922263
3 2755.08 921645
3 2758.28 1043071
3 2758.28 1007622
3 2758.28 1005672
3 2758.28 998849
3 2758.28 982694
3 2758.28 981232
3 2758.28 966944
3 2758.28 965508
3 2758.28 965334
3 2759.06 960201
3 2759.06 959632
3 2759.06 956612
3 2759.61 951543
3 2759.61 949315
3 2760.11 943791
3 2760.57 943165
3 2772.06 1033950
3 2772.06 1029623
3 2772.06 1017220
3 2772.06 1009791
3 2772.06 1003822
3 2772.72 998478
3 2772.72 995219
3 2772.72 988026
3 2772.72 982502
3 2772.72 978856
3 2772.72 977381
3 2773.4 971394
3 2773.4 963141
3 2773.4 955536
3 2774.44 947405
3 2774.44 947109
3 2775.41 941584
3 2776.36 935759
3 2776.36 932526
3 2786.36 1139813
3 2786.36 1136782
3 2786.36 1088527
3 2786.36 1066726
3 2786.36 1063627
3 2786.36 1058595
3 2786.36 1056367
3 2786.36 1050843
3 2786.36 1035093
3 2786.36 1031156
3 2786.36 1022736
3 2786.36 1011141
3 2787.25 1004036
3 2787.25 997738
3 2787.25 994049
3 2787.25 993455
3 2787.25 991651
3 2787.89 968292
3 2788.39 961099
3 2795.36 958722
3 2795.87 951657
3 2796.36 946112
3 2798.8 942987
3 2799.76 941604
Score = 945850
