    Blocking waiting for file lock on package cache
    Blocking waiting for file lock on package cache
    Blocking waiting for file lock on package cache
    Blocking waiting for file lock on package cache
    Blocking waiting for file lock on build directory
    Finished `release` profile [optimized] target(s) in 0.07s
     Running `target/release/tester ../a.out 0077`
3 0.02 1152448
3 0.02 1147215
3 0.02 1136529
3 0.02 1117192
3 0.02 1106706
3 0.02 1099808
3 0.02 1094304
3 0.02 1075863
3 0.02 1013103
3 0.02 1002569
3 0.751 998504
3 0.751 990742
3 0.751 989064
3 2.333 979918
3 2.333 974900
3 2.333 974189
3 2.333 974171
3 2.812 973034
3 14.078 1103817
3 14.078 1061144
3 14.078 1047474
3 14.078 1016787
3 14.078 1014080
3 14.078 1013840
3 14.078 998841
3 15.157 992524
3 15.157 991965
3 15.157 982210
3 15.157 975802
3 15.687 975751
3 15.687 972808
3 16.54 969010
3 16.54 966197
3 16.972 961727
3 16.972 958144
3 16.972 957683
3 17.453 956610
3 17.453 954799
3 28.283 1146583
3 28.283 1138509
3 28.283 1075749
3 28.283 1038742
3 28.283 1036873
3 28.283 1029916
3 28.283 1018602
3 28.283 1017529
3 28.959 1003306
3 28.959 993457
3 28.959 982407
3 28.959 980692
3 29.478 980360
3 29.478 979223
3 29.478 978311
3 33.655 977031
3 33.655 974686
3 33.655 964837
3 42.377 1110555
3 42.377 1101082
3 42.377 1100222
3 42.377 1099982
3 42.377 1081683
3 42.377 1073965
3 42.377 1065584
3 42.377 1062266
3 43.069 1005517
3 43.069 1004380
3 43.069 1002035
3 43.069 993295
3 43.069 980062
1 43.069 978934
3 43.733 971997
3 43.733 966705
3 43.733 965355
3 44.668 959239
3 44.668 955179
3 45.578 954949
3 46.014 954709
3 46.446 952328
3 56.135 1185903
3 56.135 1153531
3 56.135 1138559
3 56.135 1101270
3 56.135 1091119
3 56.135 1067185
3 56.135 1064428
3 56.135 1056257
3 56.135 1050287
3 56.135 1017469
3 56.895 1010725
3 57.385 1001397
3 57.385 1000400
3 57.385 998266
3 57.952 997880
3 58.453 997193
3 58.453 992350
3 58.95 988659
3 58.95 987103
3 58.95 985753
3 58.95 985097
3 70.315 1086526
3 70.315 1066819
3 70.315 1066300
3 70.315 1061090
3 70.315 1060017
3 70.315 1057056
3 70.315 1055231
3 70.315 1042829
3 70.315 1040550
3 71.068 1027632
3 71.068 1017009
3 71.639 1012684
3 71.639 1010023
3 71.639 1008786
3 71.639 1004332
3 72.164 1002658
3 72.164 999537
3 72.164 987683
3 72.7 979993
3 72.7 967982
3 72.7 965560
3 84.313 1059571
3 84.313 1056107
3 84.313 1042688
3 84.313 1036526
3 84.313 1031702
3 84.313 1026904
3 84.313 999777
3 84.969 992786
3 84.969 991753
3 84.969 991228
3 84.969 990479
3 84.969 989010
3 86.023 987721
3 86.023 984844
3 86.518 984142
3 86.518 980437
3 93.536 977986
3 93.962 977311
3 93.962 977310
3 94.436 977291
3 98.067 1069147
3 98.067 1061106
3 98.067 1057523
3 98.067 1026834
3 98.067 1026607
3 98.067 1013737
3 98.067 1005566
3 98.067 1003749
3 98.067 1002612
3 98.809 993014
3 98.809 992632
3 98.809 991559
3 98.809 983656
3 101.113 982560
3 101.113 982329
3 112.027 1021041
3 112.027 1017190
3 112.027 1010292
3 112.027 1007538
3 112.027 1005193
3 112.027 1004056
3 112.027 999717
3 112.027 998644
3 112.512 993820
3 112.512 992748
3 112.512 992683
3 112.864 991387
3 112.864 991044
3 113.194 990143
3 113.194 989645
3 113.194 981625
3 113.194 979041
3 113.194 970983
3 113.624 967097
3 113.909 966763
3 113.909 965077
3 114.213 963940
3 126.231 1058085
3 126.231 1035936
3 126.231 1025753
3 126.231 1017582
3 126.231 1013616
3 126.231 1007760
3 126.231 990473
3 126.231 987199
3 126.231 972227
3 127.338 967333
3 140.369 1064172
3 140.369 1060865
3 140.369 1057174
3 140.369 1056529
3 140.369 1053713
3 140.369 1052019
3 140.369 1051788
3 141.005 1051143
3 141.005 1042432
3 141.475 1034421
3 141.475 1024582
1 141.475 1020791
3 141.475 1004526
3 142.018 999702
3 142.018 999006
3 142.018 991611
3 142.509 990787
3 154.202 1082346
3 154.202 1074272
3 154.202 1073439
3 154.202 1073199
3 154.202 1054305
3 154.202 1049195
3 154.202 1011570
3 154.202 991135
3 154.877 990895
3 154.877 986650
3 154.877 984805
3 154.877 984565
3 155.399 980252
3 155.399 963291
3 156.233 959924
3 156.233 957562
3 161.761 957295
3 162.184 956237
3 162.595 956158
3 163.008 955164
3 168.387 1253192
3 168.387 1247435
3 168.387 1239601
3 168.387 1176841
3 168.387 1114021
3 168.387 1104243
3 168.387 1090324
3 168.387 1090084
3 168.387 1063362
3 168.387 1043697
3 168.387 1012357
3 168.387 1006408
3 169.371 1002868
3 169.371 998237
3 169.371 997653
3 169.371 990541
3 169.371 980692
3 171.876 979008
3 171.876 978424
3 172.327 978161
3 172.327 975887
3 172.327 971433
3 172.327 971362
3 172.814 970421
3 172.814 970350
3 173.257 969277
3 182.195 1110378
3 182.195 1087634
3 182.195 1056816
3 182.195 1044414
3 182.195 1044302
3 182.195 1040152
3 182.195 1023191
3 182.609 1012621
3 182.609 1011191
3 182.609 1007500
3 182.609 1006696
3 182.609 1004073
3 182.981 1002867
3 182.981 991108
3 182.981 985379
3 182.981 984344
3 182.981 977370
3 185.117 971692
3 196.195 1098893
3 196.195 1075113
3 196.195 1061604
3 196.195 1052369
3 196.195 1051295
3 196.195 1042704
3 196.195 1029229
1 196.638 1025705
3 196.638 1022605
3 196.638 1019261
3 196.638 1012429
3 196.638 1001999
3 196.638 1000926
3 197.086 999392
3 197.086 991195
3 197.086 989246
3 197.43 988850
3 197.43 984199
3 197.43 978601
3 197.772 978428
3 197.772 975467
3 197.772 975389
1 198.094 973202
3 198.094 972155
3 198.094 965386
3 201.284 961798
3 201.57 958233
3 201.57 957566
3 201.57 956794
3 202.163 955058
3 202.163 953907
3 202.163 947447
3 202.163 941259
3 202.163 939276
3 202.563 938721
3 203.102 938443
3 210.229 1081401
3 210.229 1072389
3 210.229 1043776
3 210.229 1041903
3 210.229 1036119
3 210.229 1028783
3 210.229 1019832
3 210.229 1017021
3 210.229 1008850
3 210.229 1002413
3 210.229 995378
1 210.773 985724
3 210.773 967911
3 211.096 962179
3 211.096 960679
3 211.671 955179
3 211.671 954145
3 212.222 953899
3 212.222 952762
3 212.222 952328
3 212.222 950950
3 224.161 1131468
3 224.161 1068708
3 224.161 1067875
3 224.161 1067252
3 224.161 1026314
3 224.161 1025790
3 224.161 1011660
3 224.161 1002418
3 224.161 988394
3 224.659 980223
3 224.95 970342
3 225.236 960166
3 238.073 1052298
3 238.073 1012593
3 238.073 997594
3 238.073 996521
3 238.073 995138
3 238.073 993193
3 238.073 992952
3 238.073 987223
3 238.862 986575
3 238.862 983483
3 238.862 974407
3 238.862 973334
3 238.862 971576
3 239.279 971505
3 246.803 971265
3 246.803 968064
3 252.013 1123005
3 252.013 1060185
3 252.013 1044650
3 252.013 1030782
3 252.013 1007152
3 252.013 1002125
3 252.013 992153
3 252.595 989808
3 252.898 984565
3 252.898 981021
3 252.898 972748
3 253.559 970968
3 253.855 969743
3 253.855 965418
3 253.855 961821
3 266.024 1067623
3 266.024 1035058
3 266.024 1032754
3 266.024 1032370
3 266.024 1029790
3 266.024 1028653
3 266.024 1023086
3 266.024 1013166
3 266.024 1012029
3 266.024 1011789
3 266.024 1008467
3 266.917 997028
3 266.917 995955
3 267.847 991747
3 268.298 975573
3 268.298 974436
3 268.298 973338
3 269.23 970993
3 270.886 967231
3 270.886 960182
3 272.204 959048
3 280.363 1120980
3 280.363 1116621
3 280.363 1101300
3 280.363 1085468
3 280.363 1075619
3 280.363 1075379
3 280.363 1071713
3 280.363 1065816
3 280.363 1057645
3 280.363 1048209
3 280.363 1038360
3 280.363 1027930
3 281.183 1022201
3 281.183 1012402
3 281.183 1010684
3 281.183 1007011
3 281.183 1003703
3 281.767 994425
3 282.643 994382
3 283.115 986992
3 283.115 986154
3 283.596 984206
3 283.596 983709
3 283.596 982572
3 284.12 980444
3 284.12 979611
3 284.12 979008
3 284.625 971440
3 287.053 969277
3 294.361 1234558
3 294.361 1210412
3 294.361 1201993
3 294.361 1186994
3 294.361 1174672
3 294.361 1111852
3 294.361 1049092
3 294.361 1047573
3 294.361 1037397
3 294.361 999772
3 294.361 998635
3 294.361 994010
3 295.2 993811
3 295.649 974370
3 296.115 973654
3 296.115 969172
3 296.115 962783
3 296.115 954949
3 297.832 954709
3 305.489 951895
3 305.489 950758
3 305.966 950287
3 305.966 949685
3 308.08 1075768
3 308.08 1063817
3 308.08 1060234
3 309.052 1056306
3 309.052 1051539
3 309.052 1046715
3 309.589 1039360
3 309.589 1012933
3 310.078 1005041
3 310.078 1004762
3 310.078 1001293
3 310.621 1001053
3 310.621 999570
3 310.621 992263
3 311.142 988080
3 311.142 986274
3 311.142 982691
3 311.142 979764
3 311.142 979270
3 311.142 978902
3 311.142 976371
3 311.792 974026
3 311.792 973797
3 312.268 972515
3 313.108 965469
3 313.108 964636
3 322.348 1019549
3 322.348 1005556
3 322.348 992712
3 322.348 984556
3 322.348 981468
3 322.937 975231
3 322.937 965171
3 322.937 964818
3 323.855 961548
3 324.345 960968
3 336.141 1231785
3 336.141 1230712
3 336.141 1215831
3 336.141 1200296
3 336.141 1166926
3 336.141 1156187
3 336.141 1149680
3 336.141 1086920
3 336.141 1076744
3 336.739 1035267
3 336.739 1033840
3 336.739 1025669
3 336.739 1003546
3 336.739 997109
3 336.739 994411
3 336.739 992631
3 336.739 990286
3 337.271 989600
3 337.271 983618
3 337.601 983378
3 337.601 981460
3 337.601 980559
3 337.601 970857
3 337.601 970330
3 338.033 970220
3 338.336 969235
3 338.336 965663
3 339.186 965259
3 340.031 965233
3 340.33 965013
3 340.33 963876
3 350.196 1057581
3 350.196 1022092
3 350.196 1018509
3 350.196 1008184
3 350.196 1006041
3 350.196 1004177
3 350.196 996386
3 350.196 978242
3 351.318 973446
3 364.162 1116525
3 364.162 1109483
3 364.162 1100042
3 364.162 1098767
3 364.162 1081910
3 364.162 1069066
3 364.162 1067807
3 364.162 1030204
3 364.162 1029396
3 364.162 1019293
3 364.162 1005743
3 364.162 1003398
3 364.162 996146
3 364.74 988078
3 364.74 986871
3 364.74 980004
3 364.74 978931
3 364.74 978224
3 364.74 976705
3 378.313 1032280
3 378.313 1028786
3 378.313 1022855
3 378.313 1010011
3 378.313 1009473
3 378.928 1005542
3 378.928 1003444
3 378.928 1001339
3 378.928 998126
3 379.486 996708
3 379.486 993168
3 379.486 991156
3 379.981 987805
3 379.981 985463
3 380.469 983239
3 380.469 977510
3 381.748 974961
3 392.238 1224474
3 392.238 1208402
3 392.238 1198132
3 392.238 1189961
3 392.238 1160043
3 392.238 1154890
3 392.238 1092130
3 392.238 1091553
3 392.238 1090150
3 392.238 1081377
3 392.238 1079362
3 392.238 1078289
3 392.765 1074106
3 392.765 1061890
3 392.765 999070
3 392.765 994035
3 392.765 970047
3 393.452 962511
3 393.452 961225
3 393.77 960166
3 406.092 1069569
3 406.092 1061468
3 406.092 1060395
3 406.092 1034448
3 406.092 1028994
3 406.092 1015102
3 406.092 1000130
3 406.092 990191
3 406.63 972807
3 406.63 967214
3 406.63 962783
3 409.208 960787
3 409.495 956794
3 411.057 956522
3 413.3 955782
3 413.3 954949
3 413.3 953271
3 413.618 953031
3 414.135 950950
3 414.416 947687
3 414.948 946550
3 420.144 1042524
3 420.144 1020694
3 420.144 1020560
3 420.144 1009961
3 420.144 1007240
3 420.144 991620
3 420.144 989903
3 420.144 986794
3 420.94 985714
3 420.94 985112
3 420.94 982013
3 420.94 981429
3 420.94 980288
3 421.367 975538
3 421.367 971955
3 422.326 970928
3 434.018 1062297
3 434.018 1053466
3 434.018 1051121
1 434.018 1050064
3 434.018 1047325
3 434.018 1039634
3 434.018 1034923
1 434.71 1032646
3 434.71 1019901
3 435.217 1017556
3 435.217 1016483
3 435.217 977038
3 435.217 972938
3 435.217 967723
3 435.813 966890
3 435.813 963020
3 435.813 961947
3 435.813 955300
3 435.813 954450
3 438.812 950311
3 439.25 946633
3 439.25 940339
3 448.192 1008753
3 448.192 1008262
3 448.192 1000500
3 448.192 996224
3 448.192 995336
3 448.192 991926
3 448.192 989607
3 448.192 981841
3 448.192 973874
3 448.725 971516
3 448.725 963754
3 462.028 1189477
3 462.028 1188404
3 462.028 1139685
3 462.028 1133288
3 462.028 1070468
3 462.028 1070062
3 462.028 1061682
3 462.028 1056503
3 462.028 1051679
3 462.028 1032681
3 462.028 1032441
3 462.028 1020433
3 462.809 1013171
3 462.809 1000069
3 463.279 997193
3 463.738 975165
3 464.199 968860
3 464.199 961885
3 464.681 961752
3 465.924 960227
3 465.924 959381
3 466.369 958204
3 476.266 1049680
3 476.266 1039708
3 476.266 1039552
3 476.266 1018541
3 476.266 1013312
3 476.266 1012754
3 476.871 1004049
3 476.871 996219
3 476.871 994599
1 476.871 978687
3 476.871 976737
3 476.871 975904
3 476.871 975891
3 477.522 974271
3 477.522 974031
3 490.297 1124858
1 490.297 1081801
3 490.297 1077663
3 490.297 1067357
3 490.297 1022726
3 490.297 1012332
3 490.297 1004161
3 490.876 996561
3 490.876 995424
3 490.876 990684
3 491.387 988592
3 491.387 988300
3 491.884 986635
3 491.884 985395
3 491.884 979065
3 492.389 975502
3 492.389 975196
3 494.04 975070
3 494.451 973013
3 494.861 966292
3 504.278 1058979
3 504.278 1043147
3 504.278 1042907
3 504.278 1029916
3 504.278 1020163
3 504.278 1018449
3 504.278 996602
3 504.278 990873
3 504.926 984001
3 504.926 983761
3 505.875 980530
3 506.309 979530
3 506.759 978163
3 507.209 974801
3 509.515 974216
3 518.029 1023833
3 518.029 1017984
3 518.029 1010989
3 518.029 1002818
3 518.029 1001745
3 518.029 1001206
3 518.029 997044
3 518.029 996692
3 518.513 990155
3 518.513 980381
3 518.842 980270
3 518.842 979076
3 519.146 977603
3 519.146 975493
3 519.968 969872
3 523.071 968450
3 525.867 963824
3 532.08 1054368
3 532.08 1045150
3 532.08 1042772
3 532.08 1042532
3 532.08 1032874
3 532.08 1027321
3 532.08 1026719
3 532.08 1026009
3 532.08 1023949
3 532.558 1022799
3 532.558 1017975
3 532.558 1003876
3 532.558 1000293
3 532.558 999082
3 532.558 989802
3 533.024 989006
3 533.024 987660
3 533.024 986092
3 533.024 981213
3 533.024 979489
3 533.024 978762
3 533.461 978352
3 546.155 1057358
3 546.155 1054323
3 546.155 1032737
3 546.155 1031904
3 546.155 1011213
3 546.155 1000783
3 546.794 986537
3 546.794 973474
3 546.794 971129
3 547.593 970988
1 549.696 970738
3 550.027 970080
3 550.362 968943
3 550.362 966786
3 560.143 1095621
3 560.143 1079698
3 560.143 1071936
3 560.143 1067206
3 560.143 1034950
3 560.143 1030627
3 560.769 1027886
3 560.769 1023515
3 560.769 1020668
3 561.266 1017687
3 561.266 1014104
3 561.266 1012184
3 561.266 1012165
3 561.266 1005963
3 561.718 1003618
3 561.718 994583
3 561.718 993772
3 561.718 990363
3 561.718 986040
3 561.718 985539
3 562.767 984391
3 562.767 983558
3 562.767 979724
3 562.767 979484
3 562.767 978453
3 562.767 977316
3 563.3 974971
3 574.247 1271496
3 574.247 1224204
3 574.247 1223067
3 574.247 1185778
3 574.247 1179121
3 574.247 1173471
3 574.247 1137639
3 574.247 1127463
1 574.247 1126010
3 574.247 1124937
3 574.247 1116766
3 574.996 1086910
3 574.996 1081078
3 574.996 1065025
3 574.996 1055943
3 574.996 1046165
3 574.996 1038966
3 574.996 1027588
3 574.996 1022879
3 575.577 1021500
3 575.577 1002771
3 575.577 998331
3 575.577 994199
3 575.992 988128
3 575.992 981355
3 576.328 978433
3 576.328 977399
3 577.821 976555
3 578.123 959081
3 578.123 955498
3 578.44 953398
3 588.233 1165943
3 588.233 1149582
3 588.233 1141861
3 588.233 1132060
3 588.233 1128366
3 588.233 1120292
3 588.233 1084460
3 588.233 1083627
3 588.233 1070783
3 588.233 1008023
3 588.233 998635
3 588.792 993811
3 588.792 993071
3 589.176 988885
3 589.912 985154
3 589.912 983836
3 589.912 976560
3 589.912 976088
3 589.912 975015
3 590.718 970220
3 591.095 970217
3 591.095 969572
3 602.128 1034520
3 602.128 1032805
3 602.128 1025203
3 602.128 1021247
3 602.128 1018835
3 602.128 1010199
3 602.128 1009840
3 602.128 1008510
3 602.128 1001806
3 602.128 995914
3 602.128 988516
3 602.128 981493
3 602.988 978017
3 602.988 977802
3 602.988 975457
3 602.988 967598
3 602.988 966461
3 603.552 965499
3 616.116 1171092
3 616.116 1151315
3 616.116 1146923
3 616.116 1131091
3 616.116 1073965
3 616.116 1068181
3 616.116 1067941
3 616.116 1057751
3 616.116 1040790
3 616.116 1040550
3 616.116 1014620
3 616.803 1012600
3 616.803 1006927
3 616.803 999958
3 616.803 991998
3 617.211 989173
3 617.211 988077
3 617.211 985901
3 617.211 962880
3 617.666 958741
3 618.012 954709
3 630.006 1054997
3 630.006 1049298
3 630.006 1046707
3 630.006 1044715
3 630.006 1022942
3 630.006 1022316
3 630.006 1018311
3 630.006 1004939
3 630.006 996248
3 630.006 993604
3 630.006 983279
3 630.006 983048
3 630.006 972618
3 630.694 971109
3 630.694 968764
3 630.694 965986
3 630.694 964938
3 631.072 958157
3 631.072 952094
3 644.334 1061733
3 644.334 1034278
3 644.334 1026214
1 644.334 1022600
3 644.334 1020829
3 644.334 1018428
3 644.334 1011590
3 644.334 1009883
3 644.334 1007050
3 645.072 1004108
3 645.072 984755
3 645.567 981985
3 645.567 981934
3 645.567 981378
3 645.567 979153
3 646.099 969343
3 646.099 964181
3 658.174 1143582
3 658.174 1118928
3 658.174 1110757
3 658.174 1057095
3 658.174 1055282
3 658.174 1046184
3 658.174 1034585
3 658.174 1030928
3 658.174 1027345
3 658.174 1012373
3 658.928 1012133
3 658.928 1002284
3 658.928 995172
3 659.459 990541
3 659.922 985463
3 659.922 985251
3 660.854 984659
3 660.854 984589
3 660.854 983586
3 660.854 982964
3 660.854 974071
3 661.458 968995
3 662.724 966821
3 662.724 966212
3 663.205 963876
3 663.205 962894
3 663.669 962061
3 664.129 961512
3 664.129 958933
3 664.129 955956
3 670.18 955164
3 672.138 1239279
3 672.138 1226877
3 672.138 1164057
3 672.138 1161009
3 672.138 1098249
3 672.138 1089603
3 672.138 1058508
3 672.138 1028372
3 672.138 1021077
3 672.138 1018798
3 672.835 991794
3 672.835 988942
3 672.835 983958
3 673.334 975173
3 676.197 974141
3 676.197 973967
3 676.665 972894
3 677.098 971362
3 677.098 969277
3 686.106 1061303
3 686.106 1053132
3 686.106 1048469
3 686.106 1047037
3 686.106 1036230
3 686.106 1028059
3 686.106 1020299
3 686.106 1010810
3 686.778 1009191
3 686.778 1000918
3 687.648 992394
3 687.648 991861
3 690.753 990728
3 690.753 989655
3 691.212 981484
3 691.212 970046
3 692.467 968842
3 694.874 965879
3 696.469 960939
3 700.233 1022278
3 700.233 1003154
3 700.233 997559
3 700.233 990541
3 700.233 989076
3 700.233 977774
3 700.233 972256
3 700.233 969681
3 701.672 962783
3 702.486 960970
3 711.085 960431
3 714.11 1060223
3 714.11 1049615
3 714.11 1043991
3 714.11 1032573
3 714.11 1024503
3 714.11 1024386
3 714.11 1011768
3 714.11 1008683
3 714.11 1006985
3 714.763 1004745
3 714.763 1004735
3 714.763 995488
3 714.763 993143
3 715.243 986863
3 715.243 984142
3 715.243 972430
3 715.623 969572
3 715.907 966344
3 715.907 965121
3 715.907 959317
3 717.029 959077
3 718.591 958842
3 718.591 956497
3 728.201 1067490
3 728.201 1042384
3 728.201 1013291
3 728.201 1009393
3 728.201 997520
3 728.201 986869
3 728.201 986119
3 728.748 983518
3 728.748 976472
3 729.068 968301
3 729.068 965455
3 729.667 965402
3 729.667 962572
3 742.08 1094579
3 742.08 1064056
3 742.08 1053880
3 742.08 1044534
3 742.08 1038410
3 742.08 1035703
3 742.08 1030879
3 742.723 1017020
3 742.723 1005435
3 742.723 1003090
3 742.723 998667
3 743.66 996916
3 743.66 996529
3 743.66 993772
3 743.66 992477
3 744.192 991404
3 744.192 987189
3 744.64 982884
3 745.472 977311
3 745.472 972891
3 745.919 972722
3 745.919 970377
3 745.919 969549
3 756.078 1114635
3 756.078 1106561
3 756.078 1089177
3 756.078 1074178
3 756.078 1020150
3 756.664 1020127
3 756.664 1011117
3 756.664 1010537
3 756.664 1008384
3 757.188 1006484
3 757.188 1005116
3 757.188 995460
3 757.661 989731
3 770.257 1057333
3 770.257 1030638
3 770.257 1028718
3 770.257 1000624
3 770.257 997467
3 770.257 994573
3 770.829 991941
3 770.829 991108
3 770.829 985205
3 770.829 980381
3 771.36 975890
3 771.786 973061
3 771.786 967841
3 784.106 1030894
3 784.106 1021045
3 784.106 1007188
3 784.106 1005331
3 784.106 1001245
3 784.106 997160
3 784.557 990048
3 784.557 984977
3 784.557 980153
3 784.86 975849
3 785.125 969503
3 785.396 968568
3 785.396 968430
3 798.088 1094973
3 798.088 1075066
3 798.088 1048970
3 798.088 1036587
3 798.088 1032392
3 798.088 1017161
3 798.088 1014640
3 798.088 1008711
3 798.088 1003578
3 798.614 999777
3 798.614 992876
3 798.614 992636
3 798.614 986907
3 798.614 980573
3 798.614 979810
3 799.056 979442
3 799.056 978598
3 799.056 977089
3 799.056 973722
3 799.516 967587
3 800.406 966447
3 800.686 965802
3 812.072 1033541
3 812.072 1032390
1 812.072 1022682
3 812.072 1015922
3 812.072 1014252
3 812.561 1010027
3 812.561 995271
3 812.561 995135
3 812.907 989646
3 812.907 989325
3 812.907 988188
3 812.907 986638
3 813.267 985811
3 813.267 985019
3 813.267 983882
3 813.267 983049
3 813.267 980943
3 813.689 977035
3 813.689 970407
3 826.1 1025282
3 826.1 1023306
3 826.1 1019484
3 826.1 1017519
3 826.1 1007970
3 826.1 1001316
3 826.1 1000576
3 826.1 995879
3 826.1 992503
3 826.1 982709
3 826.1 972533
3 826.942 968727
3 826.942 964459
3 840.39 1075996
3 840.39 1070475
3 840.39 1059602
3 840.39 1041377
3 840.975 1040304
3 840.975 1039922
3 840.975 1038684
3 840.975 1038511
3 840.975 1014742
3 841.972 1002994
3 841.972 991059
3 841.972 990381
3 841.972 982619
3 841.972 974683
3 841.972 973687
3 841.972 972590
3 841.972 972294
3 843.649 971245
3 843.941 961692
3 843.941 961281
3 844.263 954209
3 844.263 953110
3 854.013 1058832
3 854.013 1041871
3 854.013 1037643
3 854.013 1017362
3 854.013 1005947
3 854.013 1000329
3 854.013 988575
3 854.013 982907
3 854.509 981486
3 854.509 981246
3 855.996 978913
3 855.996 975245
3 857.027 974256
3 857.027 972143
3 857.429 971292
3 857.429 971070
3 866.805 968058
3 866.805 966038
3 866.805 964901
3 868.152 1122144
3 868.152 1114233
3 868.152 1103908
3 868.152 1071760
3 868.152 1029749
3 868.152 1014199
3 868.152 1013299
3 868.152 1002831
3 868.152 1000132
3 868.676 999973
3 868.676 997293
3 868.676 994025
3 868.676 990392
3 869.033 989327
3 869.033 978229
3 869.033 977092
3 869.033 976894
3 869.498 976285
3 869.498 975148
3 882.052 1030332
3 882.052 1025669
3 882.052 1025429
3 882.052 1021670
3 882.052 1018884
3 882.052 1018095
3 882.052 1015016
3 882.672 1013943
3 883.104 996033
3 883.918 994536
3 883.918 993463
3 883.918 993446
3 883.918 986815
3 896.234 1123013
3 896.234 1105347
3 896.234 1081601
3 896.234 1063260
3 896.234 1049379
3 896.234 1047882
3 896.234 1047642
3 896.234 1041493
3 896.234 1032434
3 896.234 1031774
3 896.234 1029429
3 896.234 1022680
3 896.234 1017427
3 896.234 1005793
3 896.234 996791
1 896.234 995941
3 896.234 984525
3 896.234 983555
3 897.123 981811
3 897.123 979481
3 897.123 979112
3 897.6 977975
3 910.131 1116030
3 910.131 1064209
3 910.131 1057071
3 910.131 1048900
3 910.131 1040146
3 910.131 1034642
3 910.131 1025282
3 910.131 1002465
3 910.131 991775
3 910.836 987493
3 912.793 985284
3 914.414 981764
3 914.85 981700
3 915.27 972449
3 924.088 1135200
3 924.088 1128088
3 924.088 1108962
3 924.088 1108722
3 924.088 1065088
3 924.088 1043838
3 924.088 1028539
3 924.088 1016587
3 924.088 1013610
3 924.088 999118
3 924.088 992821
3 924.754 989184
3 924.754 987527
3 925.108 979639
3 925.108 971468
3 927.318 969277
3 938.119 1064164
3 938.119 1058194
1 938.119 1053721
3 938.119 1039903
3 938.119 1022942
3 938.119 1012053
3 938.119 1002374
3 938.119 1001301
3 938.119 990751
3 938.119 990089
3 938.119 989553
3 938.648 982441
3 938.648 977664
3 938.648 976323
3 938.648 974081
3 939.063 972944
3 952.015 1008828
3 952.015 1008050
3 952.015 1007030
3 952.015 1006722
3 952.392 997725
3 952.7 997224
3 952.7 989552
3 966.226 1010623
3 966.226 1007080
3 966.226 1002593
3 966.226 998163
3 966.226 995682
3 966.734 995593
3 966.734 991241
3 966.734 988160
3 966.734 987089
3 967.224 986417
3 967.224 984432
3 967.224 983452
3 967.224 975758
3 967.224 974234
3 967.618 974015
3 980.122 1049689
3 980.122 1046700
3 980.122 1026039
3 980.122 1018473
3 980.122 1014071
3 980.122 1005847
3 980.122 1002447
3 980.949 999994
3 980.949 999189
3 980.949 990646
3 981.39 988864
3 982.223 986987
3 982.223 978667
3 982.223 973819
3 982.223 972938
3 982.818 970026
3 994.075 1076686
3 994.075 1069461
3 994.075 1041685
3 994.075 1040852
3 994.075 1040612
3 994.075 1022354
3 994.658 1018159
3 994.658 1017906
3 994.658 1016769
3 994.658 1003925
3 994.658 1003730
3 995.192 1003355
3 995.192 994257
3 995.192 990891
3 995.192 986253
3 996.572 979441
3 996.572 978557
3 999.404 963753
3 1008.05 1072248
3 1008.05 1036525
3 1008.05 1025437
3 1008.05 1021739
3 1008.05 1014719
3 1008.05 1014141
3 1008.05 1013527
3 1008.05 1010257
3 1008.72 1005059
3 1008.72 989673
3 1008.72 989346
3 1008.72 973811
3 1009.24 970964
3 1009.65 968082
3 1022.08 1208651
3 1022.08 1145891
3 1022.08 1141067
3 1022.08 1117982
3 1022.08 1107806
3 1022.08 1081823
3 1022.08 1075419
3 1022.08 1074586
3 1022.08 1065488
3 1022.08 1065248
3 1022.08 1053982
3 1022.08 1044394
3 1022.84 1036454
3 1022.84 1035381
3 1022.84 1009286
3 1022.84 999110
3 1022.84 996729
3 1022.84 977465
3 1022.84 972517
3 1022.84 969703
3 1022.84 968791
3 1036.04 1032674
3 1036.04 1025634
3 1036.04 1015622
3 1036.04 1013277
3 1036.04 1003465
3 1036.04 1002632
3 1036.04 991462
3 1036.68 991222
1 1039.55 985344
3 1040.02 980996
3 1040.02 979711
3 1040.02 976888
3 1040.02 975483
3 1040.02 974004
3 1040.59 971981
3 1040.59 971659
3 1041.04 967471
3 1041.45 962366
3 1041.45 961293
3 1042.3 960201
3 1048.9 957874
3 1049.34 957208
3 1049.34 955266
3 1049.8 955093
3 1049.8 953956
3 1049.8 952787
3 1049.8 952085
3 1050.32 1058420
3 1050.32 1048515
3 1050.32 1046692
3 1050.32 1040591
3 1050.32 1038803
3 1050.32 1037880
3 1050.32 1032946
3 1050.32 1032812
3 1050.99 1021942
3 1051.45 1013397
3 1051.45 1012903
3 1051.45 1006571
3 1051.45 1004154
3 1051.45 1001870
3 1052.04 1001677
3 1052.04 995266
3 1052.04 985777
3 1052.04 984554
3 1052.59 981318
3 1052.59 968256
3 1052.59 968080
3 1053.15 966495
3 1053.63 966255
3 1064.14 1146057
3 1064.14 1108432
3 1064.14 1107359
3 1064.14 1100247
3 1064.14 1073925
3 1064.14 1065754
3 1064.14 1061689
3 1064.14 1058519
3 1064.14 1037255
3 1064.81 1029671
3 1064.81 1028534
3 1064.81 1024166
3 1065.31 1013730
3 1065.31 1003100
3 1065.31 994944
3 1065.31 990120
3 1065.84 985075
3 1065.84 984747
3 1066.33 979346
3 1066.33 978273
3 1066.33 974830
3 1066.33 972738
3 1066.33 970754
3 1066.89 969921
3 1066.89 959402
3 1066.89 958588
3 1066.89 955219
3 1066.89 954578
3 1067.85 950950
3 1078.07 1216659
3 1078.07 1182413
3 1078.07 1161265
3 1078.07 1098505
3 1078.07 1088533
3 1078.07 1085747
3 1078.07 1034393
3 1078.07 1034186
3 1078.07 1033103
3 1078.07 1032030
3 1078.07 1027964
3 1078.8 1025619
3 1078.8 1025192
3 1078.8 1024236
3 1078.8 1024119
3 1079.37 1017294
3 1079.37 1013943
3 1079.37 1010892
3 1079.37 1009860
3 1079.37 1000758
3 1079.37 995395
3 1079.37 987633
3 1079.37 984087
3 1080.44 983371
3 1080.9 979768
3 1081.34 975725
3 1081.34 966788
3 1081.79 960352
3 1081.79 959440
3 1092.03 1051714
3 1092.03 1043370
3 1092.03 1036489
3 1092.03 1032993
3 1092.03 1032935
3 1092.03 1031243
3 1092.03 1026419
3 1092.03 1015685
3 1092.68 1014612
3 1092.68 1007269
3 1092.68 1001042
3 1092.68 996944
3 1092.68 987979
3 1092.68 979808
3 1094.54 975894
3 1094.98 975854
3 1094.98 974800
1 1097.36 970255
3 1097.36 970163
3 1103.16 968025
3 1106.21 998999
3 1106.21 991237
3 1106.21 988379
3 1106.21 987757
3 1106.21 978203
3 1107.62 973646
3 1108.52 973003
3 1108.52 969160
3 1108.97 966815
3 1108.97 961939
3 1109.86 960802
3 1120.14 1070679
3 1120.14 1024114
3 1120.14 1024104
3 1120.14 1021281
3 1120.14 1017062
3 1120.14 1015287
3 1120.14 1014527
3 1120.14 1009703
3 1120.14 1009100
3 1120.14 989561
3 1120.88 982230
3 1121.37 981157
3 1121.82 978322
3 1134.15 1056001
3 1134.15 1036336
3 1134.15 1026487
3 1134.15 1016311
3 1134.15 1011895
3 1134.15 1009055
3 1134.15 1006809
3 1134.15 1003443
3 1134.76 994877
3 1134.76 986556
3 1135.27 985396
3 1135.27 983786
3 1135.75 981441
3 1135.75 980304
3 1137.07 972507
3 1137.07 967049
3 1137.54 961320
3 1137.54 960628
3 1137.54 959491
3 1148.32 1182982
3 1148.32 1166867
3 1148.32 1143731
3 1148.32 1142925
3 1148.32 1135541
3 1148.32 1134468
3 1148.32 1071648
3 1148.32 1061472
3 1148.32 1046840
3 1148.32 1046600
1 1148.32 1036985
3 1148.32 1030659
3 1149.13 1030064
3 1149.13 1027407
3 1149.13 1025062
3 1149.13 1017685
3 1149.13 1009514
3 1149.13 1005378
3 1149.7 1000554
3 1149.7 999721
3 1151 990958
3 1151 989521
3 1152.21 981759
3 1152.62 981469
3 1152.62 976696
3 1152.62 970270
3 1153.84 967925
3 1162.09 1150507
3 1162.09 1112230
3 1162.09 1087687
3 1162.09 1068022
3 1162.09 1050629
3 1162.09 1038744
3 1162.09 1037607
3 1162.09 1030522
3 1162.73 1013327
3 1162.73 996366
3 1163.62 992661
3 1164.06 983950
3 1164.06 982337
3 1164.06 981200
3 1164.06 973836
3 1164.06 969066
3 1164.57 968380
3 1164.57 963994
3 1164.57 963648
3 1164.57 961572
3 1164.57 959842
3 1165.47 959140
3 1165.47 958706
3 1165.47 954949
3 1166.33 954709
3 1167.83 950647
3 1167.83 949510
3 1167.83 948437
3 1168.3 945077
3 1176.31 1188816
3 1176.31 1125996
3 1176.31 1063236
3 1176.31 1062274
3 1176.85 1058044
3 1176.85 1037526
3 1176.85 1031742
1 1176.85 1028959
3 1176.85 1014011
3 1176.85 1002538
3 1177.86 1002292
3 1177.86 1001663
3 1178.31 1001155
3 1180.59 1001121
3 1181.03 995213
3 1181.03 995064
3 1181.03 992076
3 1182.26 988179
3 1182.26 987828
3 1182.26 982460
3 1190.27 1006334
3 1190.27 1001308
3 1190.27 993649
3 1190.27 992310
3 1190.27 975137
3 1191.64 974064
3 1194.44 970553
3 1204.27 1103009
3 1204.27 1063906
3 1204.27 1032893
3 1204.27 1027880
3 1204.27 1018434
3 1204.83 1016449
3 1204.83 1015616
3 1204.83 1006665
3 1204.83 1003435
3 1205.37 1001298
1 1205.37 1000858
3 1205.37 996955
3 1205.37 995590
3 1205.91 994450
3 1206.34 993729
3 1207.13 991435
3 1207.13 987232
3 1207.13 985706
3 1207.61 984999
3 1207.61 984583
3 1208.41 980892
3 1208.81 980646
3 1208.81 978717
3 1208.81 978301
3 1218.22 1124228
3 1218.22 1106589
3 1218.22 1092008
3 1218.22 1091617
3 1218.22 1090797
3 1218.22 1053172
3 1218.22 1048102
3 1218.22 1037295
3 1218.22 1032500
3 1218.22 1032030
3 1218.22 1025558
3 1218.99 1013392
3 1218.99 1008187
3 1218.99 996793
3 1218.99 995921
3 1218.99 995276
3 1218.99 980758
3 1218.99 977175
3 1218.99 964689
3 1219.7 959637
3 1219.7 958564
3 1219.7 956794
3 1232.35 1045714
1 1232.35 1018807
3 1232.35 978533
3 1232.35 976188
3 1232.35 971652
3 1232.35 967438
3 1232.35 960717
3 1232.95 959644
3 1234.2 958970
3 1237.59 955999
3 1238 955029
3 1238 951247
3 1238 950764
3 1238.86 945572
3 1241.85 945321
3 1242.25 945252
3 1242.68 940497
3 1242.68 939360
3 1246.01 1067408
3 1246.01 1057232
3 1246.01 1042233
3 1246.01 1037199
3 1246.01 1018858
3 1246.01 1018272
3 1246.01 1008805
3 1246.66 1008783
3 1247.11 1007710
3 1247.11 1005159
3 1247.11 1004127
3 1247.67 998251
3 1247.67 994927
3 1248.18 991607
1 1248.18 965559
3 1248.66 964726
3 1248.66 964272
3 1248.66 964032
3 1260 1116456
3 1260 1111886
3 1260 1085550
3 1260 1060871
3 1260 1055930
3 1260 1054857
3 1260 1036885
3 1260 1027396
3 1260 1017568
3 1260 1012182
3 1260 1001341
3 1260 998965
3 1260 987893
3 1260.8 984518
3 1261.23 984098
3 1261.73 983943
3 1261.73 983857
3 1261.73 973708
3 1262.65 972790
3 1262.65 970830
3 1271.93 969873
3 1271.93 963318
3 1274.3 1163247
3 1274.3 1153071
3 1274.3 1138099
3 1274.3 1122564
3 1274.3 1059744
3 1274.3 1052896
3 1274.3 1023040
3 1274.3 1005470
3 1274.97 1000030
3 1274.97 977400
3 1274.97 968214
3 1274.97 967381
3 1274.97 966970
3 1275.56 963534
3 1275.56 962522
3 1275.56 961449
3 1276.07 954709
3 1288.02 1025375
3 1288.02 1021527
3 1288.02 1018973
3 1288.52 1011351
3 1288.52 1005289
3 1288.52 999078
3 1288.52 988503
3 1288.52 987366
3 1289.06 979195
3 1289.5 974086
3 1302.1 1081370
3 1302.1 1046767
3 1302.1 1022563
3 1302.1 1021907
3 1302.1 1011185
3 1302.1 1011155
3 1302.1 1009112
3 1302.1 1004857
3 1302.1 1000030
3 1302.1 997764
3 1302.83 995181
3 1302.83 994679
3 1302.83 981159
3 1303.34 980017
3 1303.34 978342
3 1303.34 976369
3 1303.34 975208
3 1303.34 974447
3 1303.34 971625
3 1303.95 970809
3 1303.95 966531
3 1304.43 966108
3 1316.37 1156374
3 1316.37 1131720
3 1316.37 1130887
3 1316.37 1130647
3 1316.37 1120471
3 1316.37 1093031
3 1316.37 1083182
3 1316.37 1063517
3 1316.37 1055799
3 1316.37 1044987
3 1316.37 1040504
3 1316.37 1018414
3 1317.18 1005772
3 1317.18 1003202
3 1318.15 1002059
3 1318.15 996330
3 1318.15 987814
3 1318.15 987313
3 1318.15 986240
3 1328.9 981696
3 1328.9 981206
3 1328.9 979859
3 1329.79 968699
3 1330.23 1068086
3 1330.23 1065741
3 1330.23 1065648
3 1330.23 1055378
3 1330.23 1044074
3 1330.23 1028359
3 1330.23 1018465
3 1330.23 1014774
3 1330.23 1013637
3 1330.23 1000793
3 1330.23 993935
3 1330.23 990031
3 1331.01 984578
3 1331.01 984037
3 1331.01 983505
3 1331.01 978761
3 1331.57 976721
3 1331.57 974376
3 1331.57 973537
3 1332.1 971375
3 1332.95 969948
3 1332.95 968811
3 1333.41 966396
3 1334.21 964374
3 1334.21 964051
3 1336.56 963301
3 1338.11 960492
3 1344.12 1074210
3 1344.12 1069611
3 1344.12 1069383
3 1344.12 1054568
3 1344.12 1022840
3 1344.12 1020487
3 1344.12 1017111
3 1344.12 1014626
3 1344.78 1014386
3 1344.78 1006300
3 1344.78 1004673
3 1344.78 1004089
3 1344.78 1003823
3 1345.37 1003033
3 1345.37 1001744
3 1345.37 998094
3 1345.37 986716
3 1345.37 977227
3 1345.37 968086
3 1345.37 965233
3 1346 963291
3 1358.24 1064864
3 1358.24 1051389
3 1358.24 1045840
3 1358.24 1033438
3 1358.24 1026449
3 1358.24 1020977
3 1358.83 1019394
3 1358.83 1013867
3 1358.83 1011514
3 1358.83 1009701
3 1358.83 1005379
3 1358.83 998328
3 1358.83 987629
3 1359.48 985385
3 1359.48 979611
3 1359.48 979458
3 1360.79 978583
3 1363.13 977417
3 1363.54 976062
3 1372.09 1179840
3 1372.09 1143609
3 1372.09 1131483
3 1372.09 1072537
3 1372.09 1062420
3 1372.09 1053469
3 1372.09 1034645
3 1372.09 1033804
3 1372.09 1028907
3 1372.75 1025093
3 1372.75 1024020
3 1372.75 1022817
3 1372.75 1015055
3 1372.75 1006884
3 1372.75 988566
3 1372.75 974391
3 1373.38 972163
3 1373.83 967411
3 1375.45 965248
3 1375.88 964252
3 1386.11 1064942
3 1386.11 1064702
3 1386.11 1049730
3 1386.11 1046216
3 1386.11 1043871
3 1386.73 1039393
3 1386.73 1020165
3 1386.73 1006739
3 1386.73 1003934
3 1386.73 985599
3 1386.73 970063
3 1386.73 968926
3 1386.73 968736
3 1386.73 964288
3 1386.73 963455
3 1386.73 963215
3 1388.25 959400
3 1389.09 957735
3 1400.15 1271279
3 1400.15 1261103
3 1400.15 1244142
3 1400.15 1229995
3 1400.15 1194163
3 1400.15 1179842
3 1400.15 1163277
3 1400.15 1125988
3 1400.15 1070550
3 1400.79 1063228
3 1400.79 1009193
3 1400.79 1003464
3 1400.79 1000408
3 1401.37 998730
3 1401.37 990896
3 1401.86 990656
3 1401.86 986372
3 1402.35 977661
3 1404.33 973830
3 1404.33 973774
3 1404.33 970461
3 1414.17 1058711
3 1414.17 1034081
3 1414.17 1029842
3 1414.17 1028051
3 1414.17 1024468
3 1414.17 1022630
3 1414.17 1021326
3 1414.17 1007738
3 1414.85 1004803
3 1414.85 999043
3 1414.85 990777
3 1414.85 987665
3 1415.38 986794
3 1415.38 983018
3 1416.37 978526
3 1416.37 976593
3 1416.37 975520
3 1416.76 975210
3 1416.76 975179
3 1416.76 975115
3 1417.1 971013
3 1417.38 970355
3 1417.38 969513
3 1422.35 969396
3 1428.2 1106202
3 1428.2 1094076
3 1428.2 1084857
3 1428.2 1065174
3 1428.2 1061026
3 1428.2 1058436
3 1428.2 993152
3 1428.69 988752
3 1428.98 982137
3 1428.98 977581
3 1428.98 975236
3 1429.38 965516
3 1442.16 1015868
3 1442.16 1012320
3 1442.16 1009635
3 1442.16 1001413
3 1442.16 998254
3 1442.58 993549
3 1442.58 991905
3 1442.58 990768
3 1442.58 990314
3 1442.94 985697
3 1442.94 980033
3 1443.28 975441
3 1443.28 975209
3 1443.58 974247
3 1443.58 969445
3 1443.88 967100
3 1444.87 966627
3 1456.02 1050634
3 1456.02 1035919
3 1456.02 1024541
3 1456.02 1001342
3 1456.02 991853
3 1456.02 990906
3 1456.5 985949
3 1456.5 981677
3 1456.89 981460
3 1456.89 980905
3 1456.89 976081
3 1456.89 975519
3 1457.83 973826
3 1470.15 1011319
3 1470.15 1011057
3 1470.15 1003845
3 1470.15 997892
3 1470.15 992105
3 1470.15 988569
3 1470.15 984016
3 1470.58 983479
3 1471.58 982943
3 1471.85 982304
3 1472.87 981484
3 1473.15 980376
3 1484.15 1043897
3 1484.15 1027394
3 1484.15 997796
3 1484.15 994630
3 1484.55 993917
3 1484.55 992972
3 1484.87 990395
3 1485.42 985726
3 1485.71 980632
3 1485.71 980423
3 1498.3 1108541
3 1498.3 1037818
3 1498.3 1035874
3 1498.3 1035634
3 1498.3 1035058
3 1498.3 1034225
3 1498.3 1025865
3 1498.3 1021583
3 1498.96 1015210
3 1498.96 1013413
3 1498.96 1009722
3 1499.46 1009614
3 1499.46 1008477
3 1499.92 1004945
3 1499.92 997183
3 1500.37 991454
3 1500.37 973338
3 1500.82 972573
3 1500.82 971500
3 1502.4 966816
3 1502.4 966172
3 1511.05 958586
3 1511.46 956363
3 1511.46 952605
3 1511.46 951217
3 1512.29 1069420
3 1512.29 1064596
3 1512.29 1064587
3 1512.29 1044712
3 1512.29 1042367
3 1512.29 1039406
3 1512.29 1027075
3 1512.92 1018062
3 1512.92 1009147
3 1512.92 1009011
3 1512.92 1007075
3 1512.92 997226
3 1512.92 994881
3 1513.51 988604
3 1513.51 982559
3 1513.51 979128
3 1513.51 975727
3 1514.04 974129
3 1514.04 973526
3 1514.04 973296
3 1514.04 966918
3 1514.54 965958
3 1514.54 955782
3 1514.54 955179
3 1514.54 954949
3 1514.54 952850
3 1514.54 951777
3 1526.21 1178698
3 1526.21 1158314
3 1526.21 1095554
3 1526.21 1087383
3 1526.21 1066093
3 1526.21 1052782
3 1526.21 1030643
3 1526.21 1019700
3 1526.21 1016871
3 1526.21 1007382
3 1526.21 999983
3 1526.21 999211
3 1526.21 997124
3 1526.21 976190
3 1526.86 975053
3 1526.86 962555
3 1527.19 959381
3 1527.48 958972
3 1527.48 955782
3 1527.48 954949
3 1540.22 1067294
3 1540.22 1059220
3 1540.22 1057794
3 1540.22 1032176
3 1540.22 1026470
3 1540.22 1019774
3 1540.22 1005360
3 1540.22 1004145
3 1540.22 995029
3 1540.22 985079
3 1540.22 984015
3 1540.22 977579
3 1540.76 975932
3 1540.76 972755
3 1541.08 970944
3 1541.08 970410
3 1541.4 969973
3 1541.69 967421
3 1541.69 964244
3 1542.02 963876
1 1552.29 962894
3 1552.29 962061
3 1552.29 961821
3 1553.64 958693
3 1553.64 955164
3 1554.21 1021165
3 1554.21 1016341
3 1554.21 1007760
3 1554.21 998095
3 1554.21 992464
3 1554.21 987474
3 1554.21 982206
3 1554.21 976003
3 1554.69 973764
3 1554.69 967320
3 1554.69 964230
3 1554.69 959406
3 1568.03 1116594
3 1568.03 1113011
3 1568.03 1064437
3 1568.03 1054625
3 1568.03 1045363
3 1568.03 1035221
3 1568.03 1027050
3 1568.03 1025317
3 1568.03 1020369
3 1568.7 1019076
3 1568.7 1005921
3 1568.7 1002838
3 1568.7 1002720
3 1569.09 999356
3 1569.09 991565
3 1569.09 987806
3 1569.47 974136
3 1569.47 971559
3 1569.47 971189
3 1569.47 966545
3 1569.94 966365
3 1569.94 962035
3 1574.58 961152
3 1574.58 958078
3 1574.91 956969
3 1582.14 1116932
3 1582.14 1048668
3 1582.14 1047673
1 1582.14 1047088
3 1582.14 1044546
3 1582.14 1041359
3 1582.14 1039653
3 1582.14 1006073
3 1582.14 1003382
3 1582.14 1002512
3 1582.14 994729
3 1582.8 994341
3 1582.8 987533
3 1582.8 986490
3 1583.27 984115
3 1583.57 978285
3 1583.57 975058
3 1583.89 974188
3 1584.44 974002
3 1585.08 973939
3 1596.16 1048606
3 1596.16 1043823
3 1596.16 1042155
3 1596.16 1030975
3 1596.16 1027732
3 1596.16 1026595
3 1596.16 996581
3 1596.16 995237
3 1596.16 993710
3 1596.16 991773
3 1596.92 988750
3 1596.92 987295
3 1597.42 986405
3 1597.42 981246
3 1597.42 978643
3 1597.94 973632
3 1597.94 972694
3 1610.26 1069556
3 1610.26 1066790
3 1610.26 1033574
3 1610.26 1019325
3 1610.26 1012253
3 1610.26 1003859
3 1610.26 1001475
3 1610.26 993304
3 1610.26 992018
3 1610.26 991778
3 1611.01 991762
3 1611.01 990047
3 1611.01 989417
3 1611.01 980692
3 1611.01 973529
3 1611.01 958839
3 1611.6 956837
3 1611.6 955680
3 1612.1 954492
3 1612.1 953840
3 1612.56 952767
3 1613 949282
3 1613 946512
3 1613 946430
3 1624.15 1139598
3 1624.15 1131427
3 1624.15 1090051
3 1624.15 1072411
3 1624.15 1065905
3 1624.62 1059563
3 1624.62 1042983
3 1624.62 1040259
3 1624.62 1033147
3 1624.62 1029829
3 1624.62 1029674
3 1625.19 1021956
3 1625.19 1009718
3 1625.19 1004995
3 1625.19 1003469
3 1625.19 999869
3 1625.73 994367
3 1625.73 993402
3 1625.73 988575
3 1625.73 988454
3 1626.27 982485
3 1627.42 980549
3 1627.42 979565
3 1627.75 977067
3 1628.1 971139
3 1628.1 969716
3 1628.72 969563
3 1629.39 967911
3 1629.72 961733
3 1630.32 960900
3 1630.64 960660
3 1635.44 956522
3 1638.37 1066809
3 1638.37 1051810
3 1638.37 1041634
3 1638.37 1011620
3 1638.37 1010547
3 1638.37 1007258
3 1638.37 997382
3 1638.37 996962
3 1639.07 992327
3 1639.07 990803
3 1640.06 989666
3 1640.96 989162
1 1641.45 980767
3 1641.45 979694
3 1641.45 979550
3 1642.41 977459
3 1652.17 1193294
3 1652.17 1188462
3 1652.17 1150837
3 1652.17 1127464
3 1652.17 1064704
3 1652.17 1057423
3 1652.17 1053840
3 1652.17 1041193
3 1652.17 1035586
3 1652.17 1031704
3 1652.17 1027415
3 1652.17 1018391
3 1652.17 1005465
3 1652.17 1005303
3 1653.1 997458
3 1653.1 996068
3 1653.62 994995
3 1653.62 994434
3 1653.62 988251
3 1653.62 986348
3 1654.16 985638
3 1654.16 981521
3 1654.63 976654
3 1654.63 971196
3 1655.1 969171
3 1655.1 965588
3 1666.35 1055546
3 1666.35 1049497
3 1666.35 1036959
3 1666.35 1036715
3 1666.35 1036534
3 1666.35 1031710
3 1666.35 1029790
3 1666.35 1027145
3 1666.35 1025969
3 1666.35 1024832
3 1667.11 1021551
3 1667.11 1008393
3 1667.11 1007256
3 1667.11 1003673
3 1667.64 1003503
3 1667.64 1000409
3 1667.64 998264
3 1667.64 997928
3 1667.64 983904
3 1668.99 972847
3 1670.19 970627
3 1670.62 968333
3 1671.47 967589
3 1680.02 1046192
3 1680.02 1045752
3 1680.02 1033348
3 1680.02 1029513
3 1680.02 1028360
3 1680.02 1020189
3 1680.02 1014310
3 1680.02 1011017
3 1680.02 1010577
3 1680.53 998752
3 1680.53 987067
3 1681.1 974745
3 1694.29 1154565
3 1694.29 1147997
3 1694.29 1121798
3 1694.29 1116557
3 1694.29 1111557
3 1694.29 1107899
3 1694.29 1045079
3 1694.94 1044006
3 1694.94 1033830
3 1695.45 1008301
3 1695.91 1006902
3 1695.91 994500
3 1695.91 973740
3 1696.44 971579
3 1696.44 969207
3 1696.91 968053
3 1697.72 967957
3 1697.72 962359
3 1708.26 1197485
3 1708.26 1134725
3 1708.26 1124533
3 1708.26 1121398
3 1708.26 1113340
3 1708.26 1109022
3 1708.26 1071136
3 1708.26 1035304
3 1708.26 1034545
3 1708.26 1025067
3 1708.26 1020130
3 1708.26 1007857
3 1708.26 1004405
3 1708.26 1004165
3 1709.11 998545
3 1709.11 997813
3 1709.11 997392
3 1709.11 977517
3 1709.11 976799
3 1709.74 971070
3 1710.18 968616
3 1710.18 962359
3 1722.02 1106931
3 1722.02 1088788
3 1722.02 1047157
3 1722.02 1044709
3 1722.02 1037592
3 1722.02 1037352
3 1722.02 1033326
3 1722.02 1027603
3 1722.02 1008182
3 1722.02 997752
3 1722.72 989041
3 1722.72 989035
3 1722.72 985344
3 1723.61 980725
3 1724.42 980504
3 1724.84 980498
3 1724.84 978558
3 1727.18 973288
3 1728.37 969597
3 1736.22 1093457
3 1736.22 1073309
3 1736.22 1060272
3 1736.22 1046447
3 1736.22 1039180
3 1736.22 1035256
3 1736.22 994698
3 1736.85 993561
3 1737.65 991274
3 1740.82 990001
3 1740.82 987375
3 1740.82 986042
3 1741.33 985209
3 1741.33 984969
3 1741.33 981459
3 1741.33 978820
3 1741.85 978507
3 1741.85 977199
3 1742.69 976065
3 1742.69 971572
3 1742.69 971244
3 1742.69 968374
3 1750.33 1160352
3 1750.33 1130917
3 1750.33 1125719
3 1750.33 1116523
3 1750.33 1106054
3 1750.33 1098211
3 1750.33 1095180
3 1750.33 1084934
1 1750.33 1043504
3 1750.33 1024431
3 1750.33 1024094
3 1751.1 1014069
3 1751.1 1007238
1 1751.1 999097
3 1751.1 998857
3 1752.44 981227
3 1752.44 980733
3 1752.44 979596
3 1752.44 978016
3 1752.44 970890
3 1752.44 966363
3 1758.5 966133
3 1758.5 965893
3 1758.5 962780
3 1758.5 957182
3 1762.65 953914
3 1762.65 952786
3 1762.65 951437
3 1762.65 949904
3 1763.18 948884
3 1763.64 948849
3 1763.64 947854
3 1764.1 1085728
3 1764.1 1056342
3 1764.1 1038571
3 1764.1 1035840
3 1764.1 1030178
3 1764.1 1023458
3 1764.1 1015435
3 1764.1 1014282
3 1764.74 1011355
3 1765.19 1010355
3 1765.19 996085
3 1765.19 993014
3 1765.19 991535
3 1769.65 985700
3 1771.24 985508
3 1771.68 984435
3 1772.11 977121
3 1778.15 1088700
3 1778.15 1026078
3 1778.15 1017907
3 1778.15 1017709
3 1778.15 1007682
3 1778.73 1001625
3 1778.73 999280
3 1778.73 997364
3 1778.73 992361
3 1778.73 991486
3 1778.73 991246
3 1778.73 988132
3 1778.73 987403
3 1779.33 986266
3 1780.16 985787
3 1780.16 976784
3 1780.16 976079
3 1780.16 973768
3 1792.02 1026629
3 1792.02 1019124
3 1792.02 1008516
3 1792.02 999572
3 1792.52 999369
3 1792.52 997378
3 1792.52 995604
3 1792.52 995033
3 1792.52 988469
3 1793.45 987419
3 1793.45 985457
3 1794.3 983255
3 1794.3 979728
3 1795.6 977095
3 1795.6 974426
3 1795.6 966664
3 1806.36 1113001
3 1806.36 1074543
3 1806.36 1059571
3 1806.36 1041455
3 1806.36 1040382
3 1806.93 1032713
3 1806.93 1019569
3 1806.93 1013961
3 1806.93 1003785
1 1815.91 1001608
3 1819.21 998889
3 1819.64 995306
3 1819.64 988626
3 1819.64 981911
3 1820.14 1061588
3 1820.14 1031732
3 1820.14 1030666
3 1820.68 1029593
3 1820.68 1010889
3 1820.68 1000139
3 1820.68 994124
3 1820.68 983948
3 1821.25 983309
3 1822.05 973248
3 1822.49 972111
3 1834.2 1165419
3 1834.2 1151538
3 1834.2 1088778
3 1834.2 1067767
3 1834.2 1054175
3 1834.2 1041031
3 1834.2 1022147
3 1834.2 1012234
3 1834.2 1012101
3 1834.2 1010204
3 1834.2 1004475
3 1834.2 1003930
3 1834.2 997100
3 1835.02 991971
3 1835.02 991666
3 1835.02 984747
3 1835.02 980796
3 1835.02 979381
3 1835.56 973111
3 1835.56 972038
3 1835.56 965484
3 1837.21 964243
3 1837.63 962880
3 1848.34 1036025
3 1848.34 1025377
3 1848.34 1022467
3 1848.34 1021784
3 1848.34 1009021
3 1848.34 1006438
3 1848.96 998696
3 1848.96 996460
3 1848.96 996122
3 1848.96 984428
3 1848.96 984037
3 1848.96 977503
3 1849.56 971584
3 1849.98 966814
3 1849.98 965741
3 1849.98 964755
3 1850.48 961172
3 1850.48 957674
3 1850.48 954338
3 1862.1 1084683
3 1862.1 1036254
3 1862.1 1024219
3 1862.1 1014221
3 1862.1 1004732
3 1862.1 1003595
3 1862.1 1002522
3 1862.72 999989
3 1862.72 998835
3 1862.72 993051
3 1862.72 985168
3 1863.24 983632
3 1863.24 975335
3 1863.68 970576
3 1863.68 969743
3 1863.68 969503
3 1863.68 966126
3 1864.2 964930
3 1864.2 964097
3 1864.67 962960
3 1864.67 961981
3 1865.13 959676
3 1876.09 1104912
3 1876.09 1097001
3 1876.09 1090666
3 1876.09 1068051
3 1876.09 1022523
3 1876.09 1015397
3 1876.09 1008277
3 1876.54 1000895
3 1876.54 980460
3 1876.85 980267
3 1878.15 970091
3 1890.02 1094498
3 1890.02 1032179
3 1890.02 1031678
3 1890.02 1031198
3 1890.02 1021408
3 1890.02 1020561
3 1890.02 1015802
3 1890.47 1015562
3 1890.76 1007442
3 1890.76 1001243
3 1890.76 999537
3 1891.11 994479
3 1891.11 986717
3 1891.11 986183
3 1891.47 984565
3 1892.27 976364
3 1892.27 972666
3 1892.27 971432
3 1892.58 968198
3 1892.58 967766
3 1892.58 966933
3 1892.89 966693
3 1892.89 962408
3 1892.89 960027
3 1896.41 958567
3 1896.72 958124
3 1896.72 957667
3 1896.72 954492
3 1896.72 948544
3 1896.72 946430
3 1902.8 940460
3 1903.33 938721
3 1903.33 938443
3 1904.15 1081172
3 1904.15 1075884
3 1904.15 1054541
3 1904.15 1044857
3 1904.15 1044216
3 1904.15 1024551
3 1904.15 1024311
3 1904.15 1021604
3 1904.15 991590
3 1904.64 990453
3 1904.64 982691
3 1904.64 976645
3 1904.64 976405
3 1905.24 975959
3 1905.24 968135
3 1918.1 1043492
3 1918.1 1034103
3 1918.1 1029279
3 1918.1 1008135
3 1918.1 1005790
3 1918.1 984487
3 1918.52 979899
3 1918.52 979880
3 1920.31 979195
3 1920.31 973961
3 1920.62 973751
3 1920.62 970601
3 1920.93 970244
3 1920.93 969574
3 1932.03 1088649
3 1932.03 1055449
3 1932.03 1049126
3 1932.03 1045655
3 1932.03 1027315
3 1932.03 1025220
3 1932.62 1016269
3 1933.04 998815
3 1933.04 996796
3 1933.04 996470
3 1933.9 985906
3 1933.9 983982
3 1942.79 983626
3 1944.37 983411
3 1944.37 971707
3 1944.82 970999
3 1944.82 968654
3 1946.12 1181783
3 1946.12 1156057
3 1946.12 1112532
3 1946.12 1105783
3 1946.12 1101175
3 1946.12 1094063
3 1946.12 1080111
3 1946.12 1017291
3 1946.12 1017246
3 1946.12 1014640
3 1946.12 1011420
3 1946.8 1010515
3 1946.8 1009442
3 1946.8 1009202
3 1946.8 1009157
3 1946.8 1008911
3 1946.8 1007937
3 1946.8 1004898
3 1947.43 998756
3 1947.43 998615
3 1947.43 997111
3 1947.94 994174
3 1947.94 981532
3 1948.77 979453
3 1952.76 977454
3 1953.18 976496
3 1953.18 974072
3 1953.65 967649
3 1960.25 1078440
3 1960.25 1070269
3 1960.25 1031940
3 1960.25 1025180
3 1960.25 1010987
3 1960.25 1001692
3 1960.25 1001498
3 1960.25 1000425
3 1960.94 991147
3 1960.94 987297
3 1961.46 974453
3 1967.33 974113
3 1967.33 972630
3 1968.21 971768
3 1969.41 971557
3 1974.16 1131812
3 1974.16 1101979
3 1974.16 1086980
3 1974.16 1086147
3 1974.16 1069186
3 1974.16 1069068
3 1974.16 1031443
3 1974.16 1031321
3 1974.16 1028478
3 1974.16 1027341
3 1974.88 1019170
3 1974.88 1015479
3 1974.88 1000675
3 1975.81 991352
3 1975.81 987376
3 1976.68 985097
3 1988.21 1204720
3 1988.21 1167431
3 1988.21 1152459
3 1988.21 1089639
3 1988.21 1082527
3 1988.21 1072582
3 1988.21 1071395
3 1988.86 1062711
3 1988.86 1025376
3 1988.86 1019099
3 1988.86 1011025
3 1988.86 1005733
3 1988.86 1001552
3 1989.47 996659
3 1989.47 993329
3 1989.47 992840
3 1989.47 992256
3 1989.47 984345
3 1989.47 982630
3 1990.06 979565
3 1990.06 973152
3 1990.06 969716
3 1990.58 969563
3 1990.58 968175
3 1994.85 966522
3 1994.85 966389
3 1994.85 961886
3 1994.85 961733
3 1995.24 960660
3 2002.01 1053114
3 2002.01 1036054
3 2002.01 1032508
3 2002.01 1024128
3 2002.01 1023295
3 2002.01 1021781
3 2002.01 1020950
3 2002.01 1020710
3 2002.01 1016717
3 2002.79 1013739
3 2002.79 1009260
3 2002.79 1005677
3 2002.79 1001126
3 2002.79 990950
3 2002.79 977939
3 2002.79 974728
3 2002.79 973626
3 2003.28 972633
3 2003.28 972463
3 2003.28 970123
3 2003.66 962432
3 2004.22 961817
3 2005.58 959232
3 2006.44 958111
3 2006.75 954779
3 2007.06 954174
3 2016.26 1064137
3 2016.26 1032101
3 2016.26 1022194
3 2016.26 1013269
3 2016.26 1010128
3 2016.26 1007783
3 2016.26 1005507
3 2016.26 1001924
3 2016.26 989244
3 2016.82 988755
3 2016.82 984094
3 2016.82 980009
3 2017.74 970900
3 2030.03 1059980
3 2030.03 1045524
3 2030.03 1037857
3 2030.03 1024884
3 2030.03 1024512
3 2030.03 1022029
3 2030.03 1021568
3 2030.03 1001903
3 2030.03 998755
3 2030.03 997941
3 2030.03 993117
3 2030.56 990496
3 2030.56 987663
3 2030.56 986913
3 2030.93 975017
3 2030.93 973932
3 2031.27 967239
3 2031.27 966166
3 2031.86 963825
3 2033.18 961157
3 2033.18 958812
3 2033.18 957739
3 2044.09 1105845
3 2044.09 1105315
3 2044.09 1095343
3 2044.09 1088953
3 2044.09 1062063
3 2044.09 1062053
3 2044.09 1060588
3 2044.09 1050422
3 2044.09 1039504
3 2044.09 1010118
3 2044.64 998748
3 2044.64 995418
3 2044.64 995165
3 2047.76 994520
3 2048.07 989256
3 2048.07 986460
3 2048.41 978289
3 2048.72 977858
3 2048.72 974603
3 2048.72 963155
3 2048.72 962322
3 2049.11 957882
3 2049.11 951992
3 2049.41 949711
3 2049.7 949471
3 2058.1 1149398
3 2058.1 1146205
3 2058.1 1118830
3 2058.1 1113375
3 2058.1 1108580
3 2058.1 1088915
3 2058.1 1085107
3 2058.1 1076184
3 2058.1 1061212
3 2058.1 1047391
3 2058.1 1040279
3 2058.63 996925
3 2058.63 987974
3 2058.96 987954
3 2058.96 978684
3 2059.28 978042
3 2059.56 977784
3 2059.56 974459
3 2064.26 972305
3 2064.54 971200
3 2064.54 968508
3 2066.91 966830
3 2072.25 1073204
1 2072.25 1069588
3 2072.25 1057426
3 2072.25 1047250
3 2072.25 1018301
3 2072.25 1015956
3 2072.25 1013141
3 2072.83 1009712
3 2072.83 1003983
3 2072.83 1003433
3 2073.18 998866
3 2074 992912
3 2074 992621
3 2074.57 991989
3 2074.85 987940
3 2075.66 985656
3 2075.94 985351
3 2086.19 1121085
3 2086.19 1094287
3 2086.19 1093214
3 2086.19 1063200
3 2086.19 1040901
3 2086.19 1035172
3 2086.19 1031351
3 2086.19 1029666
3 2086.19 1026951
3 2086.19 1016626
3 2086.19 1004472
3 2086.19 999648
3 2086.76 988495
3 2086.76 987910
3 2100.11 1195345
3 2100.11 1193229
3 2100.11 1185169
3 2100.11 1183053
3 2100.11 1168172
3 2100.11 1166208
3 2100.11 1156236
3 2100.11 1093416
3 2100.11 1092237
3 2100.11 1046105
3 2100.11 1032916
3 2100.11 1029733
3 2100.11 1028287
3 2100.11 1024158
3 2100.7 1016990
3 2100.7 1016150
3 2100.7 1015955
3 2101.05 1013805
3 2101.05 1008981
3 2101.05 1005107
3 2101.05 996213
3 2101.05 992813
3 2101.41 985055
3 2101.69 982813
3 2101.69 982485
3 2101.69 980168
3 2101.69 977055
3 2102.03 973686
3 2102.32 968088
3 2103.11 965976
3 2103.11 962359
3 2114.16 1026227
3 2114.16 1021667
3 2114.16 1014484
3 2114.16 1014238
3 2114.16 1011722
3 2114.16 1011456
3 2114.16 1006337
3 2114.16 999320
3 2114.16 998183
3 2114.67 995289
3 2114.67 988570
3 2114.67 985339
3 2128.32 1101128
3 2128.32 1080972
3 2128.32 1062829
3 2128.32 1043518
3 2128.32 1037719
3 2128.32 1036886
3 2128.32 1035833
3 2128.32 1026181
3 2128.98 1004058
3 2128.98 1003840
3 2128.98 1003600
3 2129.47 1000017
3 2129.89 991568
3 2142.07 1159473
3 2142.07 1153744
3 2142.07 1090984
3 2142.07 1074623
3 2142.07 1044395
3 2142.07 1040997
3 2142.07 1036258
3 2142.07 1027023
3 2142.07 1014618
3 2142.07 996226
3 2142.82 991866
3 2143.25 991492
3 2143.25 985522
3 2143.25 982381
3 2143.25 980334
3 2143.78 980328
3 2143.78 980036
3 2144.66 979155
3 2144.66 977999
3 2144.66 975654
3 2145.21 971986
3 2145.67 969504
3 2146.11 967011
3 2146.11 963428
3 2146.59 962857
3 2147.42 957607
3 2156.34 1134384
3 2156.34 1121982
3 2156.34 1084357
3 2156.34 1048525
3 2156.34 1038349
3 2156.34 1035031
3 2156.34 1011986
3 2156.34 1010780
3 2156.34 1009613
3 2156.34 1000124
3 2156.34 994179
3 2156.34 993809
3 2157.06 992899
3 2157.06 985638
3 2157.06 977727
3 2157.06 976894
3 2157.06 976654
3 2159.62 975938
3 2160.05 973971
3 2160.05 973731
3 2160.51 972774
3 2160.51 972696
3 2160.51 965345
3 2160.98 964345
3 2160.98 963000
3 2170.22 1010034
3 2170.22 1009201
3 2170.71 1008961
3 2170.71 999406
3 2170.71 999115
3 2170.71 997960
3 2170.71 994826
3 2170.71 994568
3 2171.7 991998
3 2171.7 983287
3 2172.62 980699
3 2173.04 974970
3 2173.04 971850
3 2173.04 968267
3 2173.51 966354
3 2173.51 965875
3 2173.96 961051
3 2174.36 960026
3 2184.11 1040030
3 2184.11 1030619
3 2184.11 1026705
3 2184.11 1022544
3 2184.11 1020199
3 2184.11 1019695
3 2184.76 1019241
3 2184.76 1014791
3 2184.76 1013852
3 2184.76 1010596
3 2184.76 999988
3 2185.33 989953
3 2185.33 988535
3 2185.33 987462
3 2186.66 987204
3 2187.13 983438
3 2187.13 982495
3 2187.13 981077
3 2187.64 980004
3 2198.01 1076735
3 2198.01 1054534
3 2198.01 1043002
3 2198.01 1030578
3 2198.01 1029600
3 2198.01 1028500
3 2198.01 1025315
3 2198.66 1017195
3 2198.66 1011403
3 2198.66 1009024
3 2198.66 1008508
3 2198.66 1004925
3 2198.66 1002768
3 2199.26 994749
3 2199.26 993676
3 2201.05 992028
3 2201.05 986711
3 2201.05 984411
3 2201.05 980828
3 2204.82 979184
3 2212.01 1030882
3 2212.01 1013803
3 2212.01 1004629
3 2212.01 997517
3 2212.01 997226
3 2212.01 988239
3 2212.01 984863
3 2212.64 975447
3 2212.64 974614
3 2213.09 974374
3 2213.09 966522
3 2213.55 962314
3 2214.77 959969
3 2226.05 1185691
3 2226.05 1122931
3 2226.05 1094844
3 2226.05 1082990
3 2226.05 1045365
3 2226.05 1037194
3 2226.05 1024792
3 2226.05 1019581
3 2226.67 1017529
3 2226.67 981350
3 2226.67 977067
3 2226.67 975234
3 2227.19 970410
3 2228.75 967885
3 2228.75 963876
3 2232.71 963120
3 2233.91 962880
3 2235.05 959504
3 2240.2 1030503
3 2240.2 1023861
3 2240.2 1016762
3 2240.2 1016066
3 2240.2 1006352
3 2240.2 997725
3 2240.2 996186
3 2240.82 992124
3 2240.82 989979
3 2240.82 984478
3 2241.27 979740
3 2241.27 975560
3 2241.27 974153
3 2242.89 973590
3 2242.89 965419
3 2243.35 965307
3 2243.79 962716
3 2243.79 960483
3 2251.01 957029
3 2251.78 955615
3 2254.17 1038947
3 2254.17 1018768
3 2254.17 1018149
3 2254.17 1008583
3 2254.17 1007446
3 2254.17 1000001
3 2254.17 987157
3 2254.17 981309
3 2254.68 973657
3 2254.68 971182
3 2255.02 969697
3 2255.02 969059
3 2256.11 965815
3 2256.11 965796
3 2256.42 963451
3 2259.68 962439
3 2261.49 962386
3 2261.77 959273
3 2261.77 955418
3 2262.1 954449
3 2268.09 1235309
3 2268.09 1172489
3 2268.09 1109729
3 2268.09 1101573
3 2268.09 1053021
3 2268.09 1023888
3 2268.09 1011760
3 2268.09 1003702
3 2268.09 997653
3 2268.53 993154
3 2268.53 992870
3 2268.53 989459
3 2268.53 982199
3 2268.53 973617
3 2268.53 970406
3 2268.97 962061
3 2268.97 960067
3 2268.97 957342
3 2268.97 956205
3 2269.34 956092
3 2271.53 955852
3 2282.12 1085199
3 2282.12 1076220
3 2282.12 1040391
3 2282.12 1030215
3 2282.12 1024697
3 2282.12 1018968
3 2282.56 1012192
3 2282.56 1006124
3 2283.18 998856
3 2283.47 996001
3 2283.76 995455
3 2283.76 994864
3 2283.76 991495
3 2283.76 987132
3 2283.76 977643
3 2284.43 977595
3 2284.43 977242
3 2285.27 976570
3 2286.83 973042
3 2287.65 971789
3 2287.65 968449
3 2296.19 1229133
3 2296.19 1226853
3 2296.19 1216677
3 2296.19 1206828
3 2296.19 1182382
3 2296.19 1180116
3 2296.19 1129591
3 2296.19 1119562
3 2296.19 1091986
3 2296.19 1089720
3 2296.19 1088887
3 2296.19 1077984
3 2296.19 1068541
3 2296.74 1065864
1 2296.74 1025293
3 2296.74 1017122
3 2296.74 999395
3 2296.74 999352
3 2297.13 993407
3 2297.13 985085
3 2297.13 984012
3 2297.49 964885
3 2297.49 958741
3 2297.78 956306
3 2297.78 955777
3 2298.09 954949
3 2298.63 954709
3 2302.03 954506
3 2302.31 954104
3 2302.31 953031
3 2302.31 952511
3 2302.31 950950
3 2302.68 946550
3 2310.07 1107122
3 2310.07 1098951
3 2310.07 1077687
3 2310.07 1076547
3 2310.07 1076307
3 2310.07 1054607
3 2310.07 1017318
3 2310.07 1009993
3 2310.07 1008856
3 2310.07 989191
3 2310.07 985695
3 2310.07 980742
3 2310.07 980246
3 2310.07 975422
3 2310.07 973077
3 2310.68 971139
3 2312.32 969155
3 2313.68 963876
3 2316.01 962894
3 2316.01 961821
3 2316.3 959047
3 2317.12 955164
3 2324.19 1092439
3 2324.19 1091606
3 2324.19 1050339
3 2324.19 1041360
3 2324.19 1041120
3 2324.19 1031758
3 2324.19 1030795
3 2324.66 999760
3 2324.97 991975
3 2324.97 985331
3 2324.97 984180
3 2324.97 983778
3 2325.36 982986
3 2325.68 975361
3 2338.07 1106764
3 2338.07 1043944
3 2338.07 1043878
1 2338.07 1015316
3 2338.51 1014243
3 2338.51 996403
3 2338.51 995902
3 2338.51 990634
3 2338.51 985438
3 2338.51 985152
3 2338.94 971382
3 2338.94 969246
3 2338.94 968627
3 2338.94 964378
3 2338.94 963934
3 2338.94 960471
3 2338.94 956338
3 2338.94 955566
3 2339.35 953430
3 2339.89 949922
3 2339.89 947358
3 2352.16 1168172
3 2352.16 1130883
3 2352.16 1078070
3 2352.16 1072341
3 2352.16 1068123
3 2352.16 1067290
3 2352.16 1023297
3 2352.16 1019714
3 2352.16 1011921
3 2352.16 1007126
3 2352.16 991882
3 2352.16 990532
3 2352.71 970302
3 2353.01 965471
3 2353.29 960577
3 2353.29 959504
3 2366.12 1091949
3 2366.12 1086751
3 2366.12 1062809
3 2366.12 1047366
3 2366.12 1041840
3 2366.12 1012454
3 2366.12 990481
3 2366.12 986133
3 2366.12 979103
3 2366.12 971465
3 2366.62 970290
3 2366.62 967945
3 2366.62 966808
3 2366.62 966431
3 2366.97 966020
3 2366.97 957849
3 2367.3 957573
3 2367.59 955529
3 2367.59 954504
3 2380.24 1131640
3 2380.24 1095774
3 2380.24 1069709
3 2380.24 1051593
3 2380.24 1039550
3 2380.24 1034726
3 2380.74 1028744
3 2380.74 1024773
3 2380.74 1019073
3 2380.74 1003184
3 2380.74 1003035
3 2380.74 1000666
3 2380.74 995121
3 2381.19 994944
3 2381.19 994909
3 2381.19 993601
3 2381.19 990018
3 2381.19 989575
3 2381.58 987832
3 2381.58 985578
3 2381.91 979810
3 2394.15 1093994
3 2394.15 1088195
3 2394.15 1075351
3 2394.15 1029358
3 2394.15 1028221
3 2394.15 1017652
1 2394.15 1013027
3 2394.6 1011736
3 2394.6 1001560
3 2394.92 995242
3 2394.92 992071
1 2396.29 971781
3 2408.04 1145702
3 2408.04 1109870
3 2408.04 1047110
3 2408.04 1031038
3 2408.04 1023204
3 2408.04 1007665
3 2408.04 1001671
3 2408.04 999023
3 2408.04 997886
3 2408.04 997386
3 2408.04 995301
3 2408.04 982889
3 2408.04 980324
3 2408.6 977979
3 2408.6 973155
3 2408.91 971541
3 2409.92 965812
3 2416.09 963301
3 2422.16 1099691
3 2422.16 1097257
3 2422.16 1080296
3 2422.16 1063859
3 2422.16 1055688
3 2422.16 1055685
3 2422.16 1052884
3 2422.61 1048075
3 2422.61 1034559
3 2422.61 1034335
3 2422.61 1030833
3 2423 1028914
3 2423 1023181
3 2423 1019920
3 2423.36 1008858
3 2423.66 991769
3 2423.66 991289
1 2424.23 989947
3 2424.52 983016
3 2424.52 980671
3 2425.59 977591
3 2425.59 977463
3 2425.59 976283
3 2425.59 974590
3 2425.96 972652
3 2426.36 972172
3 2426.36 968589
3 2436.21 1058851
3 2436.21 1031439
3 2436.21 1004952
3 2436.21 1004760
3 2436.21 994776
3 2436.64 990486
3 2436.64 989047
3 2436.64 982498
3 2436.98 980876
3 2436.98 976667
3 2437.3 969468
3 2437.3 968635
3 2437.3 968395
3 2439.7 967322
3 2439.7 965664
3 2450.23 1059576
3 2450.23 1052760
3 2450.23 1043962
3 2450.23 1029276
3 2450.23 1025693
3 2450.64 1023389
3 2450.64 1019437
3 2450.64 1016713
3 2450.64 1014843
3 2450.64 1011889
3 2450.64 1005412
3 2450.64 1004375
3 2450.64 1003623
3 2451.12 1003270
3 2451.12 996089
3 2451.12 993499
3 2451.12 979365
3 2451.12 977036
3 2451.12 975899
3 2451.55 969402
3 2455.46 963643
3 2464.07 1214180
3 2464.07 1204004
3 2464.07 1141244
3 2464.07 1109411
3 2464.07 1068123
3 2464.07 1054264
3 2464.07 1043677
3 2464.56 1028507
3 2464.56 1015188
3 2464.56 1010693
3 2464.56 1004256
3 2464.56 995523
3 2464.96 993788
3 2464.96 992824
3 2465.29 986026
3 2465.29 984335
3 2465.29 982648
3 2466.44 982438
3 2466.44 981531
3 2467.56 981428
3 2467.86 980998
3 2467.86 978345
3 2468.19 977717
3 2468.19 977208
3 2478.3 1228144
3 2478.3 1223927
3 2478.3 1197916
3 2478.3 1189324
3 2478.3 1169045
3 2478.3 1106285
3 2478.3 1090732
3 2478.3 1085491
3 2478.3 1078330
3 2478.3 1073218
3 2478.3 1063042
3 2479.07 1003432
3 2479.07 994939
3 2479.07 991729
3 2479.07 991231
3 2479.07 990896
3 2479.63 990656
3 2480.09 990501
3 2480.09 989364
3 2480.55 974203
3 2480.55 973329
3 2480.55 967244
3 2480.55 964182
3 2480.55 962420
3 2492.26 1100438
3 2492.26 1037618
3 2492.26 1037378
3 2492.26 996720
3 2492.26 992253
3 2492.26 971453
3 2492.26 961935
3 2492.26 955381
3 2493.68 954492
3 2494.47 949362
3 2494.96 948321
3 2494.96 947248
3 2495.44 946430
3 2506.38 1240235
3 2506.38 1232416
3 2506.38 1223093
3 2506.38 1217417
3 2506.38 1213697
3 2506.38 1176408
3 2506.38 1138783
1 2506.38 1130490
3 2506.38 1121329
3 2506.38 1094519
3 2506.38 1088790
3 2506.38 1087963
3 2507.22 1077787
3 2507.22 1053636
3 2507.22 1052803
3 2507.22 1035654
3 2507.76 1025329
3 2507.76 1025089
3 2507.76 1006973
3 2508.29 1005691
3 2508.29 999979
3 2508.29 996943
3 2508.29 990826
3 2508.29 989993
3 2508.87 989753
3 2508.87 984641
3 2508.87 969669
3 2509.37 968544
3 2509.8 968532
3 2511.05 967381
3 2511.49 967141
3 2511.49 965947
3 2520.28 1124719
1 2520.28 1119960
3 2520.28 1104961
3 2520.28 1102608
3 2520.28 1065154
3 2520.28 1033871
3 2520.28 1027098
3 2520.28 1016922
3 2520.28 993828
3 2521.01 989953
3 2521.47 985807
3 2521.47 984734
3 2524.34 983881
3 2524.34 983730
3 2524.34 982396
3 2524.84 979541
3 2525.27 971687
3 2525.27 965958
3 2525.72 965389
3 2534.09 1068108
3 2534.09 1051690
3 2534.09 1046115
3 2534.09 1043430
3 2534.09 1033105
3 2534.09 1025356
3 2534.09 1023860
3 2534.09 1016144
3 2534.09 1013784
3 2534.09 1010073
3 2534.09 1005309
3 2534.83 1004376
3 2534.83 994087
3 2534.83 993254
3 2534.83 987525
3 2537.38 986276
3 2537.8 985025
3 2537.8 984844
3 2548.26 1233381
3 2548.26 1206960
3 2548.26 1188581
3 2548.26 1125761
3 2548.26 1123186
3 2548.26 1085561
3 2548.26 1071173
3 2548.26 1052596
3 2548.26 1049521
3 2548.9 996249
3 2549.33 989101
3 2549.33 983886
3 2549.33 981546
3 2549.81 969783
3 2550.22 969138
3 2562.03 1064365
3 2562.03 1038530
3 2562.03 1012434
3 2562.03 1005899
3 2562.03 997709
3 2562.03 991980
3 2562.48 990344
3 2562.48 988546
3 2562.48 988397
3 2562.48 987475
3 2562.48 979906
3 2562.48 979304
3 2562.48 977948
3 2563.75 975603
3 2564.04 971844
3 2564.04 971740
3 2564.61 971037
3 2564.61 966916
3 2565.2 966596
3 2565.49 966570
3 2565.78 964225
3 2566.32 963452
3 2566.63 959185
3 2566.63 958143
3 2566.63 957160
3 2566.63 957006
3 2576.03 1041076
3 2576.03 1032969
3 2576.03 1017910
3 2576.03 1017310
3 2576.03 1007183
3 2576.03 1007164
3 2576.03 993148
3 2576.54 987124
3 2576.54 981183
3 2576.54 978668
3 2576.94 972104
3 2590.26 1008061
3 2590.26 1003876
3 2590.26 999049
3 2590.26 992541
3 2590.26 987717
3 2590.81 987332
3 2590.81 985076
3 2591.21 980898
3 2591.21 968604
3 2591.21 964682
3 2591.64 963489
3 2591.99 962352
3 2592.33 952327
3 2593.3 951355
3 2593.66 950881
3 2594.01 950278
3 2594.01 950263
3 2604.15 1035121
3 2604.15 1024809
3 2604.15 1014539
3 2604.15 1002482
3 2604.15 999427
3 2604.15 984163
3 2604.15 984091
3 2604.71 963398
3 2604.71 962827
3 2605.12 962261
3 2606.15 959634
3 2606.15 958810
3 2618.25 1062521
3 2618.25 1034745
3 2618.25 1029547
3 2618.25 1021376
3 2618.25 1019003
3 2618.25 1006983
3 2618.25 1005974
3 2618.25 1005944
3 2618.25 1005360
3 2618.25 1003902
3 2618.25 997009
3 2619.08 996033
3 2619.51 994536
3 2619.51 993234
3 2619.51 990894
3 2619.51 989412
3 2620.04 986070
3 2620.04 983725
3 2620.5 978324
3 2620.5 971139
3 2622.86 970228
3 2623.27 969924
3 2632.35 1071411
3 2632.35 1070338
3 2632.35 1057936
3 2632.35 1049651
3 2632.35 1047469
3 2632.35 1033786
3 2632.35 1033208
3 2632.35 1031019
3 2632.35 1028087
3 2633.12 1025615
3 2633.12 1011932
3 2633.12 1011796
3 2633.12 1000473
3 2633.66 996314
3 2633.66 995241
3 2633.66 994007
3 2634.16 993911
3 2634.6 993671
3 2634.6 991182
3 2636.28 990900
3 2637 989191
3 2637 988118
3 2637 987546
3 2637.87 986668
3 2638.16 985771
3 2638.16 985531
3 2638.16 973929
3 2638.16 971039
3 2638.16 970206
3 2638.16 969898
3 2638.16 967572
3 2638.16 966499
3 2646.02 1134613
3 2646.02 1127501
3 2646.02 1117325
3 2646.02 1107552
3 2646.02 1099718
3 2646.02 1076012
1 2646.02 1068260
3 2646.02 1011167
3 2646.02 995306
3 2646.02 976191
3 2646.02 972546
3 2646.68 970464
3 2646.99 970121
3 2647.55 968984
3 2660.24 1120990
3 2660.24 1111141
3 2660.24 1097249
3 2660.24 1082277
3 2660.24 1050276
3 2660.24 1043164
3 2660.24 1033315
3 2660.24 1028951
3 2660.24 1005463
3 2660.24 1003184
3 2660.98 1001765
3 2660.98 994347
3 2661.45 992878
3 2661.45 991504
3 2661.9 990411
3 2661.9 985587
3 2662.38 985380
3 2662.38 984204
3 2665.22 979596
3 2665.67 964092
3 2666.11 960027
3 2667.78 958567
3 2673.2 957884
3 2673.62 955439
3 2673.62 954709
3 2673.62 954492
3 2674.1 1089304
3 2674.1 1055747
3 2674.1 1054674
3 2674.1 1036326
3 2674.1 1027124
3 2674.1 1025239
3 2674.1 1022870
3 2674.1 1018341
3 2674.74 1010267
3 2674.74 1003246
3 2675.2 999883
3 2675.2 993051
3 2675.2 991609
3 2676.08 990394
3 2676.08 989010
3 2676.08 987937
3 2676.08 987866
3 2676.62 984206
3 2677.04 982328
3 2677.04 978230
3 2677.04 974037
3 2677.04 973971
3 2677.04 972817
3 2677.97 971692
3 2678.79 970481
3 2680.24 965821
3 2680.24 965386
3 2681.36 961770
3 2681.36 947402
3 2681.68 944434
3 2681.68 943863
3 2681.68 941325
3 2682.02 941047
3 2682.32 938443
3 2688.2 1180905
3 2688.2 1173793
3 2688.2 1163944
3 2688.2 1163111
3 2688.2 1162871
1 2688.2 1152336
3 2688.2 1127327
3 2688.2 1089516
3 2688.2 1080335
3 2688.2 1060670
3 2688.2 1059533
3 2688.72 1022913
3 2688.72 1010069
3 2688.72 1006723
3 2689.07 997610
3 2689.07 995265
3 2689.07 985433
3 2689.07 980366
3 2689.42 980286
3 2689.42 972115
3 2689.75 971537
3 2690.03 971218
3 2690.03 970041
3 2690.03 965173
3 2690.63 962336
3 2690.63 961503
3 2702.15 1086102
3 2702.15 1083757
3 2702.15 1064092
3 2702.15 1032276
3 2702.15 1026617
3 2702.15 1024105
3 2702.15 1023994
3 2702.15 1013780
3 2702.68 993611
3 2702.68 992474
3 2703.01 991029
3 2703.31 990857
3 2703.31 988512
3 2703.63 988388
3 2703.63 988103
3 2703.63 986794
3 2703.98 973055
3 2703.98 971347
3 2703.98 971173
3 2704.36 970036
3 2704.36 969383
3 2704.36 968928
3 2704.74 968734
3 2705.07 968052
3 2716.01 1052034
3 2716.01 1043878
3 2716.01 1033597
3 2716.01 1022989
3 2716.01 1008445
3 2716.01 999271
3 2716.01 998134
3 2716.01 986762
3 2716.01 983162
3 2716.01 957402
3 2716.58 954276
3 2730.16 1144277
3 2730.16 1135042
3 2730.16 1082151
3 2730.16 1074180
3 2730.16 1031306
3 2730.16 1021334
3 2730.82 1018743
3 2730.82 1009033
3 2730.82 996370
1 2730.82 994713
3 2731.45 994678
3 2731.45 991563
3 2731.45 989697
3 2731.45 988908
3 2731.45 988560
3 2731.45 987362
3 2732.51 987122
3 2733.37 986639
3 2733.8 986604
3 2734.13 982183
3 2734.13 981475
3 2744.23 1149239
3 2744.23 1141165
3 2744.23 1078405
3 2744.23 1063572
3 2744.23 1051832
3 2744.23 1050999
3 2744.88 1049348
3 2744.88 1048386
3 2744.88 1042657
3 2744.88 1035392
3 2744.88 999547
3 2745.5 997767
3 2745.5 992976
3 2745.5 984805
3 2746.01 970212
3 2746.01 962061
3 2746.01 961589
3 2758.38 1031077
3 2758.38 1030451
3 2758.38 1018736
3 2758.38 1012973
3 2758.38 1009517
3 2758.38 1005633
3 2758.38 999904
3 2759.11 992272
3 2759.11 991199
3 2759.11 984550
3 2759.11 981023
3 2759.66 969645
3 2761.41 968836
3 2761.41 964032
3 2772.3 1175762
3 2772.3 1165492
3 2772.3 1138473
3 2772.3 1129881
3 2772.3 1129238
3 2772.3 1120032
3 2772.3 1113819
3 2772.3 1083591
3 2772.3 1083351
3 2772.3 1069325
3 2772.3 1066990
3 2772.3 1004230
3 2773.12 996677
3 2773.12 991828
3 2773.12 989853
3 2773.12 987337
3 2773.12 986271
3 2773.12 979424
3 2773.12 977341
3 2773.12 976696
3 2773.12 975932
3 2773.12 975301
3 2773.85 972948
3 2773.85 971374
3 2773.85 969029
3 2773.85 968523
3 2773.85 965274
3 2774.46 960479
3 2774.46 958198
3 2775.31 957161
3 2775.71 955177
3 2786.05 1042180
3 2786.05 1040776
3 2786.05 1023809
3 2786.05 1021414
3 2786.05 1021087
3 2786.05 1018742
3 2786.05 1012608
3 2786.05 1002759
3 2786.05 993878
3 2786.78 989915
3 2786.78 982138
3 2787.27 979444
3 2787.27 977949
3 2787.27 975604
3 2787.94 973203
Score = 937506
