    Blocking waiting for file lock on package cache
    Blocking waiting for file lock on package cache
    Blocking waiting for file lock on package cache
    Blocking waiting for file lock on build directory
    Finished release [optimized] target(s) in 0.04s
     Running `target/release/tester ../a.out 0077`
3 0.017 1133822
3 0.017 1124648
3 0.017 1117750
3 0.017 1107264
3 0.017 1100366
3 0.017 1094862
3 0.017 1043203
3 0.017 1028231
3 0.017 1018055
3 0.553 998496
3 0.79 993530
3 1.023 981311
3 1.023 976551
3 1.023 969704
3 1.023 967004
3 1.023 961609
3 1.023 961353
3 1.529 959105
3 14.284 1044417
3 14.284 1043977
3 14.284 1023979
3 14.284 1016182
3 14.284 1010212
3 14.284 1000723
3 14.284 998649
3 14.284 989970
3 14.823 986387
3 14.823 984954
3 14.823 973543
3 14.823 964364
3 14.823 961040
3 14.823 958795
3 15.344 958462
3 15.344 957087
3 15.344 954834
3 28.02 1066126
3 28.02 1064313
3 28.02 1033635
3 28.02 1000191
3 28.02 994462
3 28.02 992906
3 28.488 991283
3 28.488 990771
3 28.914 983357
3 28.914 979595
3 29.349 976003
3 29.349 972590
3 32.179 970020
3 32.628 965510
3 32.628 964373
3 42.069 1037472
3 42.069 1036621
3 42.069 1032211
3 42.069 1029866
3 42.069 1022487
3 42.069 1022352
3 42.069 1005732
3 42.069 994354
3 42.397 991644
3 42.397 986820
3 42.397 985683
3 42.661 978004
3 42.661 970711
3 56.158 1207453
3 56.158 1156379
3 56.158 1143535
3 56.158 1137395
3 56.158 1100106
3 56.158 1085766
3 56.158 1084034
3 56.158 1082403
3 56.158 1068335
3 56.158 1058159
3 56.158 1055824
3 56.158 1047978
3 56.158 1047913
3 56.591 1040067
3 56.591 1032929
3 56.591 1027719
3 56.591 1024855
3 56.877 973196
3 63.207 965909
3 63.207 964339
3 63.632 964030
3 64.021 963520
3 64.021 958300
3 64.021 955955
3 64.52 954818
3 64.52 954309
3 70.02 1096584
3 70.02 1081626
3 70.02 1075792
3 70.02 1075546
3 70.02 1074409
3 70.02 1037039
3 70.02 1021118
3 70.02 996868
3 70.02 984466
3 70.02 978737
3 70.48 975312
3 70.48 974239
3 70.48 970314
3 70.781 965359
3 71.019 964801
3 71.019 964636
1 73.346 962442
3 73.346 961369
3 73.609 959085
3 73.853 959072
3 84.155 1043813
3 84.155 1042942
3 84.155 1039814
3 84.155 1036231
3 84.155 1034835
3 84.155 1025884
3 84.667 1016395
3 84.667 1004175
3 84.667 999351
3 84.667 992453
3 85.342 989201
3 85.342 988910
3 85.342 984468
3 85.342 983836
3 85.342 980559
3 85.707 980434
3 85.707 975280
3 85.707 970349
3 85.707 960266
3 85.707 955082
3 85.707 954009
3 85.707 953658
3 86.267 952356
3 98.182 1038515
3 98.182 1019573
3 98.182 1018436
3 98.182 1016392
3 98.182 1014342
3 98.182 1010197
3 98.182 1003822
3 98.182 1002989
3 98.511 974176
3 98.511 965582
3 98.511 958941
3 98.511 957873
3 98.919 957090
3 98.919 955953
3 112.13 1047895
3 112.13 1012029
3 112.13 999982
3 112.13 995113
3 112.435 994353
3 112.435 974112
3 112.867 973376
3 112.867 971914
3 112.867 967647
3 113.639 965172
3 113.639 962797
3 113.639 947825
3 113.639 943049
3 113.988 940151
3 126.063 1100222
3 126.063 1099389
3 126.063 1068490
3 126.063 1065172
3 126.063 1056319
3 126.063 1050164
3 126.063 1049924
3 126.063 1038845
3 126.063 1026980
3 126.063 1025018
3 126.063 1015782
3 126.507 1010046
3 126.849 996416
3 126.849 996168
3 127.172 991758
3 127.172 981328
3 127.172 980316
3 127.172 979483
3 127.503 979243
3 127.503 969067
1 135.802 961775
3 135.802 961716
3 135.802 960356
3 136.067 956665
3 140.17 1060009
3 140.17 1056426
3 140.17 1015631
3 140.17 1015571
3 140.17 1000613
3 140.17 989759
3 140.17 973720
3 140.811 969426
3 140.811 968896
3 140.811 966094
3 140.811 965854
3 140.811 958331
3 154.13 1056617
3 154.13 1031816
3 154.13 1017446
3 154.13 1011683
3 154.13 1010260
3 154.13 1006859
3 154.13 1006460
3 154.13 966504
3 154.663 960128
3 154.663 959108
3 154.663 955068
3 168.196 1149347
3 168.196 1107738
3 168.196 1063001
3 168.196 1058938
3 168.196 1029253
3 168.196 1028863
3 168.196 1013905
3 168.196 1004070
3 168.683 1000385
3 168.683 995457
3 168.683 991271
3 168.683 981856
3 168.683 975907
3 168.683 971466
3 168.978 970822
3 168.978 969989
3 169.232 963324
3 169.232 955262
3 169.232 955010
3 169.232 953245
3 169.232 952896
3 169.232 951568
3 169.524 951328
3 170.441 950719
3 170.441 949646
3 170.888 943074
3 182.258 1020028
3 182.258 1008887
3 182.258 996365
3 182.258 989217
3 182.258 988144
3 182.258 987985
3 182.258 986605
3 182.258 978843
3 182.258 976595
3 182.258 974546
3 182.82 968312
3 183.648 966796
3 183.648 966695
3 183.648 964535
3 183.648 961702
3 196.193 1095922
3 196.193 1044263
3 196.193 1035888
3 196.193 1025712
3 196.193 1022021
3 196.193 1019578
3 196.193 1017233
3 196.613 999066
3 196.613 997993
3 196.613 990983
3 196.613 976605
3 196.613 973167
3 197.658 971340
3 197.658 968379
3 197.658 968139
3 197.658 967027
3 197.943 964983
3 197.943 963383
3 198.465 960462
3 198.465 960187
3 198.465 959114
3 198.719 955907
3 198.952 952635
3 198.952 950068
3 199.195 949216
3 199.195 942291
3 199.195 941154
3 199.447 940998
3 210.284 1109876
3 210.284 1092476
3 210.284 1088428
3 210.284 1086872
3 210.284 1071914
3 210.284 1064610
3 210.641 1046449
3 210.641 1043489
3 210.641 1015730
3 210.641 1000772
3 210.641 981107
3 210.641 974450
3 210.948 971869
3 210.948 969524
3 211.891 969067
3 212.949 966099
3 213.197 957388
3 216.218 953697
3 224.131 1103713
3 224.131 1085303
3 224.131 1048014
3 224.131 1040902
3 224.131 1030726
3 224.131 1015489
3 224.131 1011061
3 224.662 966298
3 225.104 963953
3 225.104 957447
3 225.104 956900
3 227.136 954958
3 227.546 953821
3 227.546 952896
3 238.154 1053627
3 238.154 1052490
3 238.154 1029222
3 238.154 1027736
3 238.154 1017494
3 238.154 1011656
3 238.154 995097
3 238.154 994024
3 238.672 993676
3 238.672 993043
3 238.951 992779
3 238.951 986875
3 238.951 980116
3 238.951 976795
3 239.275 975722
3 239.275 972330
3 239.275 970641
3 239.275 968296
3 239.568 965173
3 240.571 964252
3 241.527 963022
3 241.527 959872
3 243.2 956066
3 243.2 955463
3 244.039 953687
3 252.359 1037819
3 252.359 1026441
3 252.359 1024778
1 252.359 1019723
3 252.359 1018530
3 252.359 1005295
3 252.359 1004979
3 252.889 997965
3 252.889 995315
3 252.889 994566
3 252.889 994503
3 252.889 983653
3 253.362 983186
3 253.362 981722
3 254.178 977598
3 254.587 969410
3 254.587 968454
3 254.587 968046
3 266.1 1057591
3 266.1 1053337
3 266.1 1043332
3 266.1 1043161
3 266.1 1040012
3 266.1 1020347
3 266.1 1012306
3 266.562 993264
3 266.562 990833
3 266.562 987761
3 266.562 984132
3 266.562 981183
3 266.952 979682
3 266.952 975985
3 266.952 975831
3 267.307 974679
3 267.307 972211
3 267.307 970939
3 267.605 959561
3 267.605 956671
3 267.605 953218
3 267.605 949849
3 280.227 1000207
3 280.227 991826
3 280.227 986097
3 280.562 977802
3 280.562 976540
3 280.85 976143
3 280.85 975015
3 280.85 972172
3 280.85 970940
3 281.129 959734
1 288.807 958351
3 293.391 957998
3 294.219 1029444
3 294.219 1028371
3 294.219 1009931
3 294.219 997529
3 294.219 985678
3 294.219 985638
3 294.715 980814
3 295.133 978801
3 295.133 976351
3 295.133 973892
3 295.133 966536
3 295.133 966296
3 295.133 966137
3 296.01 963821
3 296.885 958904
3 296.885 957577
3 296.885 953407
3 298.086 952605
3 298.086 945593
3 298.549 931999
3 298.772 930905
3 298.996 930862
3 308.209 1163206
3 308.209 1148248
3 308.209 1123584
3 308.209 1103698
3 308.209 1052624
3 308.209 1046101
3 308.209 1027829
3 308.209 1024378
3 308.209 986753
3 308.209 984608
3 308.209 981502
3 308.209 976762
3 308.588 973346
3 308.847 973161
3 309.115 969494
3 309.115 966769
3 309.115 963964
3 309.462 961525
3 309.745 959169
3 309.745 957942
3 309.745 955811
3 309.745 954738
3 322.097 1056173
3 322.097 1052281
3 322.097 1007989
3 322.097 1004730
3 322.097 995721
3 322.097 987580
3 322.097 978986
3 322.097 969435
3 322.467 959468
3 322.467 954644
1 322.467 954435
3 322.965 953768
3 322.965 952631
3 331.491 950531
3 332.177 943392
3 332.498 941552
3 332.901 940415
3 336.093 1048742
3 336.093 1041334
3 336.093 1039127
3 336.093 1025326
3 336.516 1017651
3 336.516 1009741
3 336.516 1008376
3 336.516 1004793
3 336.516 1003427
3 336.897 989204
3 336.897 988131
3 337.225 975378
3 337.225 972677
3 337.548 970143
3 337.548 969859
3 337.548 968786
3 337.872 968209
3 350.309 1070662
3 350.309 1065185
3 350.309 1064352
3 350.309 1058500
3 350.309 1016939
3 350.309 1013978
3 350.309 998463
3 350.309 990701
3 350.309 990461
3 350.841 988375
3 350.841 986039
3 350.841 977677
3 350.841 975332
3 350.841 974195
3 351.195 965909
3 355.392 961123
3 355.392 960717
3 355.711 960133
3 356.668 958440
3 356.668 957585
3 362.576 953202
3 362.576 952761
3 364.158 1042079
3 364.158 1033927
3 364.158 1024086
3 364.158 1020498
3 364.438 1020473
3 364.688 1017667
3 364.688 1016594
3 364.688 1008832
3 364.688 992596
3 364.688 992131
3 364.688 990747
3 365.023 988702
3 365.023 988402
3 365.271 987634
3 365.271 987094
3 365.271 985317
3 365.271 979040
3 365.553 978207
3 365.553 976695
3 365.802 975922
3 366.143 975496
3 366.143 974785
3 368.279 964609
3 378.431 1107968
3 378.431 1102239
3 378.431 1099466
3 378.431 1089290
3 378.431 1068118
3 378.431 1030829
3 378.431 1002632
3 378.431 983088
3 378.988 969284
3 378.988 965951
3 378.988 963809
3 378.988 963606
3 379.832 963383
3 387.357 962371
3 387.357 961298
3 392.471 1067170
3 392.471 1047284
1 392.471 1034882
3 392.471 1017910
3 392.471 1009956
3 392.471 1002971
3 392.471 1002387
3 392.471 987429
3 392.471 985653
3 393.062 983754
3 393.062 978315
3 393.062 978310
3 393.062 968290
3 393.062 965578
3 393.062 963471
3 393.565 963466
3 393.565 962334
3 393.986 958482
3 394.278 952504
3 394.278 949756
3 394.521 948619
3 394.972 947881
3 394.972 946015
3 394.972 945638
3 406.171 1003693
3 406.171 998136
3 406.171 995099
3 406.171 994850
3 406.171 990681
3 406.171 989671
3 406.548 980858
3 406.548 979996
3 406.548 973312
3 407.014 971783
3 407.014 963415
3 407.014 959832
3 407.419 959354
3 407.689 958319
3 407.689 955594
3 407.936 955236
3 407.936 952263
3 407.936 951804
3 407.936 951564
3 408.21 950643
3 408.21 949267
1 411.071 948897
3 411.071 948878
3 411.487 948795
3 411.882 948748
3 413.681 947041
3 414.841 946642
3 414.841 946354
3 414.841 945319
3 415.118 942594
3 415.118 936865
3 420.12 1026149
3 420.12 1011992
3 420.12 1009847
3 420.12 1008532
3 420.12 994644
3 420.12 991490
3 420.12 988201
3 420.12 979607
3 420.912 979488
3 420.912 973613
3 420.912 972313
3 420.912 960904
3 421.21 960545
3 421.677 949893
3 421.92 948820
3 422.209 948122
3 422.209 945827
3 424.717 945763
3 425.126 944358
3 434.323 1037054
3 434.323 1028343
3 434.323 1024995
3 434.323 1013760
3 434.323 1012179
3 434.323 1002202
3 434.323 995461
3 434.323 994076
3 434.848 993728
3 434.848 993574
3 434.848 984676
3 434.848 978947
3 435.307 975960
3 435.307 969858
3 436.917 967569
3 448.193 1158782
3 448.193 1135408
3 448.193 1128510
3 448.193 1122199
3 448.193 1102534
3 448.193 1101738
3 448.193 1056072
3 448.193 1021774
3 448.193 1018447
3 448.535 1017614
3 448.535 1017374
3 448.535 1004972
3 448.535 1001459
3 448.535 1000322
3 448.822 990000
3 449.054 975463
3 449.054 974819
3 449.054 966023
3 449.054 965701
3 449.054 964628
3 449.471 964149
3 449.933 960505
3 450.958 953898
3 450.958 953717
3 451.375 953240
3 462.188 1019229
3 462.188 1017073
3 462.188 1011517
3 462.188 1003864
3 462.188 998593
3 462.188 992755
3 462.188 990747
3 462.694 982808
3 463.526 982742
3 463.526 981751
3 463.947 979414
3 464.375 973685
3 464.375 973024
1 466.778 972852
3 466.778 966445
3 466.778 962286
3 468.07 962046
3 468.985 956120
3 468.985 953775
3 476.035 1081247
3 476.035 1071071
3 476.035 1033446
3 476.035 1026548
3 476.035 1016611
3 476.035 1010476
3 476.035 981045
3 476.035 977511
3 476.565 970196
3 476.565 969753
3 476.565 969749
3 476.565 966054
3 476.565 957492
3 477.416 950409
3 477.813 949171
3 478.587 948034
3 490.309 1029767
3 490.309 1023477
1 490.309 1021381
3 490.309 1010159
3 490.309 998851
3 490.309 997099
3 490.81 982141
3 491.102 966958
3 491.102 960917
3 491.102 959928
3 491.102 957242
3 491.102 956547
3 491.416 956169
3 504.095 1140077
3 504.095 1089003
3 504.095 1069117
3 504.095 1068327
1 504.095 1020667
3 504.095 1005134
3 504.095 1001719
3 504.095 999671
3 504.095 997288
3 504.45 993686
3 504.45 992853
3 504.45 989085
3 504.711 988845
3 504.948 980137
3 504.948 978367
3 504.948 974884
3 505.498 962482
3 505.498 961252
3 505.738 960800
3 505.97 959663
3 506.659 959580
3 506.659 953838
3 508.001 952457
3 518.246 1069859
3 518.246 1064130
3 518.246 1059415
3 518.246 1054588
3 518.246 1044734
3 518.246 1037811
3 518.246 1027662
3 518.246 1024340
3 518.246 1016808
3 518.789 1015671
3 519.199 1012320
3 519.199 1008756
3 519.199 1007683
3 519.199 1007331
3 519.65 998431
3 519.65 998315
3 519.65 997753
3 519.65 988347
3 519.65 988341
3 519.65 987766
3 520.162 986621
3 520.562 985671
3 524.562 984076
3 524.562 980256
3 532.098 1110192
3 532.098 1102462
3 532.098 1088581
3 532.098 1082860
3 532.098 1082027
3 532.098 1071851
1 532.098 1062900
3 532.098 1058076
3 532.098 1035799
3 532.585 1011181
3 532.585 1005943
3 532.585 989330
3 532.585 956566
3 532.585 955498
3 533.064 949769
3 533.064 949474
3 533.486 947487
3 533.486 946654
3 534.552 946414
3 541.094 945105
3 541.516 945086
3 546.112 1190197
3 546.112 1138538
3 546.112 1111508
3 546.112 1097209
3 546.112 1085390
3 546.112 1083030
3 546.112 1031956
3 546.112 1019410
3 546.112 1001248
3 546.112 994915
3 546.667 991187
3 546.667 988617
3 546.667 979194
3 546.667 978057
3 547.117 976220
3 548.78 971387
3 548.78 965359
3 549.285 964636
1 549.533 959072
3 550.817 958013
3 551.766 957010
3 551.766 955560
3 560.019 1104500
3 560.019 1088668
3 560.019 1074104
3 560.019 1071245
3 560.019 1053669
3 560.019 1047339
3 560.019 1032381
3 560.019 1024050
3 560.019 1023810
3 560.019 995765
3 560.019 993484
3 560.019 987173
3 560.019 981479
3 560.019 977226
3 560.567 976089
3 560.567 975518
3 560.567 970542
3 560.822 967854
3 561.054 958680
3 561.054 958440
3 561.29 957585
3 561.516 953999
3 561.739 953413
3 562.637 951328
3 574.355 998790
3 574.355 997045
3 574.355 986720
3 574.355 985647
3 574.355 969401
3 574.838 967204
3 576.875 961520
3 588.189 1071938
3 588.189 1064828
3 588.189 1041570
3 588.189 1033245
3 588.189 1021759
3 588.189 1009890
3 588.189 998512
3 588.594 978865
3 588.594 973113
3 588.594 970140
3 588.594 962887
3 602.177 1111854
3 602.177 1096896
3 602.177 1081924
3 602.177 1062331
3 602.177 1047642
3 602.177 1041913
3 602.177 1034866
3 602.177 1034626
3 602.177 1032258
3 602.177 1032184
3 602.177 1026033
3 602.561 1007876
3 602.561 974959
3 602.561 967917
3 603.195 962901
3 603.195 961764
3 604.851 960373
3 604.851 959147
3 605.266 958680
3 605.672 953418
3 606.072 952401
3 606.474 952280
3 607.247 951568
3 616.017 1062806
3 616.017 1049290
3 616.017 1034697
3 616.017 1019119
3 616.017 1002754
3 616.017 999454
3 616.017 997297
3 616.017 986975
3 616.017 981246
3 616.017 977328
3 616.45 969566
3 618.097 968678
3 618.097 967605
3 618.587 965673
3 619.003 964536
3 619.003 959668
3 619.835 959516
3 620.583 959499
3 621.072 959427
3 621.547 958437
3 624.751 958244
3 624.751 955899
3 625.134 954762
3 630.238 1070669
3 630.238 1037808
3 630.238 1020882
3 630.238 1018143
3 630.238 1014560
3 630.574 989754
3 630.574 988953
3 630.574 982173
3 630.841 969067
3 644.085 1024989
3 644.085 1023719
3 644.085 999582
3 644.085 986940
3 644.565 985492
3 644.565 979549
3 644.565 977414
3 644.565 973982
3 645.666 971155
3 645.993 967956
3 645.993 966968
3 646.431 966522
3 646.431 964373
3 658.169 1038544
3 658.169 1036925
3 658.169 1036199
3 658.169 1032705
3 658.169 1026890
3 658.169 1025817
3 658.169 1018184
3 658.545 1016032
3 658.545 1014439
3 658.545 1006251
3 658.545 1000930
3 658.83 999592
3 658.83 996098
3 659.098 992648
3 659.098 984802
1 659.098 976917
3 659.098 976332
3 659.374 973321
3 659.374 967715
3 659.651 965559
3 672.053 1047667
3 672.053 1038980
3 672.053 1032699
3 672.053 1030354
3 672.053 1014603
3 672.053 1014210
3 672.053 1013073
3 672.053 1003510
3 672.053 1002776
3 672.053 1001729
3 672.584 995734
3 672.584 991656
3 672.584 988054
3 672.584 983898
3 672.932 979197
3 672.932 975118
3 672.932 974771
3 672.932 973395
3 686.291 1064991
3 686.291 1057970
3 686.291 1057172
3 686.291 1053205
3 686.291 1023164
3 686.291 1007424
3 686.291 996163
3 686.291 991269
3 686.291 983660
3 686.291 976311
3 686.291 971953
3 686.291 971018
3 686.909 968917
3 687.293 968481
3 687.782 965724
3 688.021 965191
3 688.021 963909
3 688.428 958711
3 689.662 957700
3 690.718 956765
3 700.117 1073538
3 700.117 1027655
3 700.117 1022831
3 700.117 971172
3 700.117 966319
3 700.117 966079
3 700.855 964132
3 700.855 953186
3 701.552 951218
3 701.552 950841
3 714.225 1049673
3 714.225 1034715
3 714.225 1018844
3 714.225 1010196
3 714.69 1009123
3 714.69 1001345
3 715.175 1000637
3 715.175 994569
3 715.175 992703
3 715.175 990993
3 715.175 984095
3 715.175 983990
3 715.175 981692
3 715.175 981645
3 715.688 980374
3 715.688 979301
3 716.142 975300
3 716.965 973797
3 719.261 971393
3 719.261 968015
3 719.261 967724
3 719.794 959373
3 720.264 958971
3 725.411 957241
3 725.795 956424
3 725.795 955299
3 725.795 954148
3 726.238 953658
3 726.238 952356
3 728.307 1038495
3 728.307 1036678
3 728.307 1035865
3 728.307 1032662
3 728.307 1032305
3 728.307 1028905
3 728.307 1022709
3 728.307 1021444
3 728.307 1012327
3 728.307 996346
3 728.834 978150
3 728.834 972973
3 728.834 966078
3 728.834 963178
3 730.367 960930
3 730.367 960263
3 730.682 960064
3 730.682 947937
3 730.991 946800
3 731.411 946172
3 731.411 943964
3 742.208 1098056
3 742.208 1089982
3 742.208 1086664
3 742.208 1076488
3 742.208 1061530
3 742.208 1053511
3 742.208 1053374
3 742.208 1049490
3 742.208 1022835
3 742.208 1014286
3 742.57 1012510
3 742.57 1003916
3 742.57 1002402
3 742.57 987953
3 742.57 978285
3 742.57 970883
3 742.874 968518
3 742.874 966173
3 743.138 965122
3 743.138 963188
3 743.138 962777
3 743.138 958987
3 743.138 955066
3 743.419 954509
3 743.419 953372
3 743.419 952896
3 743.932 950765
3 743.932 950579
3 756.316 1070312
1 756.316 1064190
3 756.316 1056026
3 756.316 1046391
3 756.316 1046033
3 756.316 1027553
3 756.316 1021896
3 756.316 1017965
3 756.316 1015382
3 756.862 1009248
3 756.862 1001541
3 757.182 1000686
3 757.182 992409
3 757.5 979984
3 757.809 968322
3 757.809 967190
3 757.809 960720
3 760.866 960486
3 761.172 957271
3 761.81 956154
3 762.15 955202
3 762.15 954926
3 764.541 950256
3 770.123 1052858
3 770.123 1020208
3 770.123 1014884
3 770.123 999723
3 770.123 996294
3 770.123 985498
3 770.123 977079
3 770.123 976408
3 770.123 975364
3 770.123 965604
3 770.653 965096
3 771.066 964832
3 771.066 964592
3 771.066 961146
3 771.066 958801
3 771.066 954312
3 771.531 953239
3 771.943 951851
3 771.943 950714
3 771.943 948723
3 772.356 945031
3 772.848 939772
3 784.152 998851
3 784.152 984961
3 784.152 980735
3 784.152 974695
3 784.624 969056
3 784.624 967262
3 798.01 1013416
3 798.01 1009833
3 798.01 1004104
3 798.303 979700
3 798.303 977945
3 798.303 976653
3 798.616 976241
3 798.616 968242
3 812.355 994951
3 812.355 991763
3 812.355 989167
3 812.355 985783
3 812.355 983661
3 813.257 983501
3 813.257 977773
3 813.257 974190
3 813.755 972794
3 822.669 972424
3 823.498 967435
3 823.498 962459
3 824.323 960114
3 826.339 1055455
3 826.339 1049727
3 826.339 1045279
3 826.339 1043997
3 826.339 1042574
3 826.339 1031985
3 826.339 1025056
3 826.339 1021555
3 826.339 1012007
3 826.865 1009813
3 826.865 1001927
3 826.865 1001452
3 826.865 1000312
3 827.319 997544
3 827.319 997069
3 827.319 996424
3 827.758 990110
3 827.758 985030
3 828.171 984707
3 828.585 982395
3 828.585 981565
3 829.007 980631
3 829.007 973803
3 829.836 972440
3 829.836 965451
3 829.836 965102
3 830.282 962975
3 830.734 961481
3 830.734 961064
3 830.734 960605
3 831.051 958677
3 831.278 958386
3 840.043 1163875
3 840.043 1126921
3 840.043 1097065
3 840.043 1085964
3 840.043 1079066
3 840.043 1077993
3 840.043 1069919
3 840.043 1057075
3 840.043 1048626
3 840.591 1044636
3 840.591 1041776
1 840.591 1029024
3 840.591 1028409
3 840.985 1027576
3 840.985 1020316
3 840.985 1020248
3 840.985 1015039
3 840.985 1013902
3 840.985 1010072
3 841.276 993943
3 841.527 989119
3 841.527 987211
3 841.784 981372
3 842.05 980622
3 842.05 977643
3 842.05 973617
3 842.05 971440
3 843.038 967492
3 845.706 966059
3 854.023 1010303
3 854.023 1007156
3 854.486 1003478
3 854.486 1002405
3 854.911 1001128
3 854.911 988406
3 855.328 977371
3 855.328 976423
3 855.328 975286
3 855.754 974476
3 855.754 968747
3 855.754 967514
3 856.103 964404
3 856.103 958340
3 856.361 958286
3 856.361 957203
3 856.834 952637
3 856.834 951231
3 868.079 1034682
3 868.079 1018610
3 868.079 995339
3 868.079 995299
3 868.079 989462
3 868.079 980495
3 868.579 976978
3 868.987 966447
3 868.987 965310
3 869.771 965070
3 875.341 953605
3 882.126 1052208
3 882.126 1033659
3 882.126 1019481
3 882.126 1004482
3 882.126 1002519
3 882.126 987561
3 882.537 975927
3 882.537 973139
3 882.537 972364
3 883.032 972002
3 883.032 967675
3 893.119 967107
3 893.542 966420
3 893.542 965347
3 894.364 955777
3 896.262 1092576
3 896.262 1041502
3 896.262 1027301
1 896.262 1023610
3 896.262 1000763
3 896.262 999690
3 896.639 995279
3 896.884 986504
3 897.489 978019
3 897.489 975582
3 898.078 972495
3 898.078 971365
3 898.078 971358
3 910.32 1113748
3 910.32 1097676
3 910.32 1084605
3 910.32 1070933
3 910.32 1069561
3 910.32 1042734
3 910.32 1018588
3 910.32 1005848
3 910.32 993069
3 910.865 989682
3 910.865 980606
3 910.865 976227
3 910.865 975779
3 910.865 973206
3 910.865 972069
3 910.865 971029
3 911.361 970916
3 912.377 969566
3 914.697 967454
3 914.697 967381
3 914.957 965036
3 915.446 964270
3 915.446 964188
3 915.769 963293
3 915.769 960948
3 915.769 958117
3 915.769 958035
3 916.281 955176
3 916.526 947887
3 924.017 1155250
3 924.017 1104176
3 924.017 1084446
3 924.017 1077958
3 924.017 1047944
3 924.017 1046236
3 924.017 1036319
3 924.017 1033974
3 924.017 1015934
3 924.017 1015204
3 924.017 1005870
3 924.017 1004879
3 924.017 990412
3 924.017 987352
3 924.645 986279
3 924.645 985820
3 924.645 983409
3 924.645 983377
3 924.645 981226
3 924.645 979837
3 924.645 972875
3 925.139 972079
3 925.417 968611
3 925.417 964283
3 925.898 963008
3 925.898 961010
3 926.581 956610
3 927.524 953945
3 927.524 953677
3 927.524 952499
3 927.913 951786
3 938.215 1150790
3 938.215 1138848
3 938.215 1121782
3 938.215 1084493
3 938.215 1056687
3 938.215 1039109
3 938.215 1012010
3 938.215 1005464
3 938.215 991307
3 938.588 988228
3 938.588 985323
3 938.588 981986
3 938.588 977900
3 938.869 977445
3 938.869 977205
3 938.869 967013
3 939.161 964983
3 939.161 964270
3 939.161 964188
3 939.161 956109
3 939.161 951786
3 952.039 1083537
3 952.039 1079809
3 952.039 1077323
3 952.039 1074985
3 952.039 1023911
3 952.335 1003342
3 952.335 990838
3 952.335 987886
3 952.335 980725
3 952.615 978155
3 952.615 972277
3 952.615 971637
3 953.596 969785
3 954.518 969270
3 954.518 966208
3 955.05 961384
3 966.258 1173200
3 966.258 1121541
3 966.258 1113385
3 966.258 1093720
3 966.258 1078748
3 966.258 1063790
3 966.258 1052828
3 966.749 1042184
3 966.749 1037360
3 967.171 997594
3 967.171 996816
3 967.171 995983
3 967.171 970989
3 967.171 968875
3 967.171 966540
3 967.482 963833
3 967.721 961038
3 967.957 960947
3 967.957 957256
3 968.46 957208
3 968.46 956506
3 968.46 953148
3 968.711 952959
3 968.941 952401
3 969.172 951963
3 969.172 951568
3 969.172 951328
3 974.499 946477
3 974.909 945404
3 974.909 943538
3 980.168 1031121
3 980.168 1026397
3 980.168 1015903
3 980.168 1013558
3 980.454 1011665
3 980.454 991719
3 980.454 984172
3 980.726 970521
3 981.22 961934
3 981.22 961726
3 981.485 959381
3 982.211 954506
3 982.211 954266
3 982.211 950856
3 994.206 1075846
3 994.206 1064203
3 994.206 1034518
3 994.206 1028177
3 994.206 1026607
3 994.206 1011635
3 994.206 1008445
3 994.206 998956
3 994.206 996802
3 994.206 996171
3 994.206 994351
3 994.606 990437
3 994.606 988617
3 994.606 987027
3 994.877 981563
3 994.877 972074
3 994.877 966774
3 994.877 962063
3 1008.1 1146717
3 1008.1 1131745
3 1008.1 1080671
3 1008.1 1070495
3 1008.1 1067948
3 1008.1 1023211
3 1008.1 1004383
3 1008.1 986723
3 1008.1 981525
3 1008.1 975895
3 1008.1 975062
3 1008.1 974210
3 1008.74 971822
3 1008.74 970180
3 1008.74 969477
3 1008.74 966173
3 1009.2 965036
3 1009.66 956528
3 1010.11 954183
3 1010.5 953331
3 1010.5 953111
3 1010.91 950303
3 1011.33 949230
3 1022.22 1068883
3 1022.22 1044938
3 1022.22 1015253
3 1022.22 1009834
3 1022.22 1009815
3 1022.22 1001765
3 1022.22 1001370
3 1022.22 999390
3 1022.22 995699
3 1022.76 988424
3 1022.76 985329
3 1022.76 980309
3 1023.22 978099
3 1023.22 970356
3 1023.22 966888
3 1023.22 952372
3 1023.78 950678
3 1024.02 947095
3 1036.07 1105751
3 1036.07 1104678
3 1036.07 1059941
3 1036.07 1046496
3 1036.07 1029764
3 1036.38 1011744
3 1036.38 1007284
3 1036.38 1000680
3 1036.38 992079
3 1036.65 973412
3 1036.65 967768
3 1036.65 960550
3 1036.95 959709
3 1036.95 958440
3 1039.92 956863
3 1039.92 955726
3 1050.01 1046592
3 1050.01 1026530
3 1050.01 1025979
3 1050.01 1023634
3 1050.01 1021323
3 1050.01 1012229
3 1050.01 1001826
3 1050.01 996097
1 1050.01 970537
3 1050.33 970262
3 1050.79 968719
3 1050.79 966812
3 1051.04 966561
3 1051.04 965629
3 1051.04 964063
3 1051.3 963849
3 1051.53 956080
3 1051.53 955304
3 1064.09 1001098
3 1064.09 995667
3 1064.09 995572
3 1064.09 977283
3 1064.09 976146
3 1064.09 971319
3 1064.09 969860
3 1064.09 962650
3 1064.62 955642
3 1064.62 952527
3 1065.08 949530
3 1066.45 948707
3 1066.88 945317
3 1078.12 1046303
3 1078.12 1031331
3 1078.12 1021086
3 1078.12 1019497
3 1078.12 992204
3 1078.12 987513
3 1078.12 971511
3 1078.12 970011
3 1078.52 969878
3 1078.52 964149
3 1078.52 960259
3 1078.77 956146
3 1078.77 955764
3 1079.02 954136
3 1079.27 948944
3 1079.27 948703
3 1079.27 945907
3 1080.26 945428
3 1092.08 1036583
3 1092.08 1029842
3 1092.08 1029621
3 1092.08 1015461
3 1092.08 1012871
3 1092.08 999765
3 1092.08 997484
3 1092.08 996874
3 1092.54 988852
3 1092.87 974759
3 1093.12 969971
3 1093.44 968550
3 1093.44 967056
3 1093.44 963588
3 1093.44 960005
3 1093.91 954276
3 1093.91 953412
3 1093.91 950711
3 1094.34 950516
3 1096.81 948366
3 1097.31 947762
3 1097.31 947370
3 1097.31 946281
3 1106.1 1012757
3 1106.1 1007028
3 1106.1 1005955
3 1106.4 999489
3 1106.4 979603
3 1106.4 979030
3 1106.4 976123
3 1106.67 975507
3 1106.67 969372
3 1106.92 961298
3 1108.16 957576
3 1108.16 955560
3 1108.16 954615
3 1108.45 953387
3 1120.24 1047234
3 1120.24 1042400
3 1120.24 1041567
3 1120.24 1039222
3 1120.24 1038724
3 1120.24 1033225
3 1120.24 1024765
3 1120.8 1015924
3 1120.8 1015276
3 1121.24 1013168
3 1121.66 1010354
3 1122.11 1010303
3 1122.11 1007958
3 1122.11 1003134
3 1122.55 1002800
3 1122.55 1002605
3 1122.55 1001101
3 1122.55 1001056
3 1122.55 998623
3 1122.55 996420
3 1123.51 993767
3 1123.51 991422
3 1123.95 991182
3 1125.22 989112
3 1125.64 983838
3 1125.64 980255
3 1126.51 980129
3 1126.95 976624
3 1134.18 1174662
3 1134.18 1156846
3 1134.18 1147672
3 1134.18 1140774
3 1134.18 1089700
3 1134.18 1075543
3 1134.18 1067709
3 1134.18 1067469
3 1134.18 1057293
3 1134.18 1053615
3 1134.18 1051564
3 1134.78 1039162
3 1134.78 1029544
3 1134.78 1019910
3 1134.78 1015622
3 1134.78 1009496
3 1134.78 1003975
3 1134.78 997995
3 1134.78 983768
3 1134.78 974702
3 1134.78 972981
3 1135.36 969611
3 1135.36 968810
3 1135.61 968727
3 1135.85 967590
3 1135.85 964212
3 1136.1 961622
3 1136.1 958800
3 1136.59 953564
3 1136.59 949981
3 1148.11 1028985
3 1148.11 1019900
3 1148.11 1014040
3 1148.11 1005043
3 1148.41 990184
3 1148.41 984753
3 1148.41 983117
3 1148.92 972431
3 1149.88 968159
3 1151.54 965774
3 1151.96 965662
3 1151.96 964525
3 1152.4 963412
3 1152.82 961816
3 1162.07 1059782
3 1162.07 1022290
3 1162.07 1017466
3 1162.07 998986
3 1162.07 993431
3 1162.07 988239
3 1162.07 987406
3 1162.07 985366
3 1162.07 985126
3 1162.07 978841
3 1162.49 974094
3 1162.49 974017
3 1162.74 969700
3 1163.03 963373
3 1163.53 962446
3 1163.77 959110
3 1164.36 955855
3 1164.36 955615
3 1164.36 954767
3 1164.63 944398
3 1164.63 943213
3 1164.91 941730
3 1164.91 940457
3 1164.91 936319
3 1165.35 936220
3 1176.12 1005927
3 1176.12 999624
3 1176.12 984252
3 1176.12 981980
3 1176.12 981407
3 1176.63 981090
3 1176.63 978933
3 1176.63 970979
3 1176.63 970339
3 1176.63 965160
3 1177.12 965141
3 1177.12 963480
3 1177.94 958990
3 1178.74 958888
3 1179.54 953032
3 1180.25 951371
3 1180.7 950679
3 1180.7 946219
3 1180.7 945720
3 1180.7 945082
3 1180.97 944293
3 1181.43 943460
3 1190.26 1049635
3 1190.26 1048562
3 1190.26 1032621
3 1190.26 997549
3 1190.26 995793
3 1190.26 986667
3 1190.26 979805
3 1190.26 970628
3 1190.81 968506
3 1190.81 966527
3 1190.81 965694
3 1190.81 964916
3 1190.81 951667
3 1190.81 949765
3 1190.81 947890
3 1191.29 947057
3 1204.04 1115941
3 1204.04 1115108
3 1204.04 1104932
3 1204.04 1075153
3 1204.04 1074913
3 1204.04 1066562
3 1204.04 1033005
3 1204.04 1022022
3 1204.42 991235
3 1204.42 981746
3 1204.42 980178
3 1204.42 979857
3 1204.42 976056
3 1204.42 974612
3 1204.77 973811
3 1204.77 965629
3 1204.77 961586
3 1204.77 960486
3 1204.77 957542
3 1205.11 957505
3 1205.11 954162
3 1218.23 989253
3 1218.23 986291
3 1218.23 978577
3 1218.23 968869
3 1218.7 968248
3 1218.7 957749
3 1219.13 946097
3 1219.13 944179
3 1219.96 942713
3 1232.05 1088531
3 1232.05 1079296
3 1232.05 1042007
3 1232.05 1036076
3 1232.05 1021014
3 1232.05 1014686
3 1232.05 1006015
3 1232.05 1000243
3 1232.05 998491
3 1232.05 997418
3 1232.05 991689
3 1232.05 989037
3 1232.05 979067
3 1232.47 977254
3 1232.47 962878
3 1232.76 959181
3 1233.28 958495
3 1233.99 954284
3 1235.76 953805
3 1237.67 952896
3 1238.63 950990
3 1238.87 950390
3 1238.87 948997
3 1240.01 946545
3 1240.01 940589
3 1240.01 940403
3 1246.03 1114893
3 1246.03 1093504
3 1246.03 1073902
3 1246.03 1066792
3 1246.03 1044682
3 1246.03 1037444
3 1246.03 1028493
3 1246.03 1005354
3 1246.03 1000765
3 1246.03 985919
3 1246.03 978576
3 1246.03 974553
3 1246.03 973153
3 1246.59 971758
3 1246.59 969574
3 1249.12 968175
3 1251.01 961780
3 1260.2 1123943
3 1260.2 1103508
3 1260.2 1094162
3 1260.2 1093922
3 1260.2 1083746
3 1260.2 1043678
3 1260.2 1040095
3 1260.2 1010869
3 1260.2 1001705
3 1260.59 996712
3 1260.59 995672
3 1260.59 988139
3 1260.86 981828
3 1260.86 981599
3 1261.17 978612
3 1261.17 969966
3 1261.17 967621
3 1261.71 967499
3 1261.71 964074
3 1261.71 963041
3 1262.02 957741
3 1262.02 956668
3 1262.26 955853
3 1262.26 952018
3 1262.55 950985
3 1265.78 947258
3 1265.78 941696
3 1274.13 1029304
3 1274.13 1027161
3 1274.13 1018491
3 1274.13 1017987
3 1274.13 1017145
3 1274.13 1006236
3 1274.13 999825
3 1274.13 996134
3 1274.13 994051
3 1274.5 978116
3 1274.5 969522
3 1274.76 965173
3 1283.12 964810
3 1283.4 962465
3 1283.65 957641
3 1283.9 957429
3 1283.9 956989
3 1283.9 954429
3 1283.9 954408
3 1284.16 953335
3 1288.16 1028773
3 1288.16 1021661
3 1288.16 1015672
3 1288.16 998075
3 1288.16 987502
3 1288.16 985817
3 1288.16 985282
3 1288.16 973141
3 1288.49 965440
3 1288.49 964985
3 1288.79 964031
3 1288.79 959182
3 1288.79 956269
3 1288.79 956057
3 1288.79 955782
3 1289.12 953855
3 1291.45 953137
3 1291.7 952031
3 1291.7 950958
3 1292.43 949226
3 1292.66 940582
3 1292.91 939107
3 1302.1 1077672
3 1302.1 1055549
3 1302.1 1051852
3 1302.1 1034468
3 1302.1 1027895
3 1302.1 1020049
3 1302.1 1005050
3 1302.1 1003977
3 1302.1 996865
3 1302.1 993272
3 1302.58 990042
3 1302.58 982750
3 1302.58 981677
3 1303.03 979243
3 1303.03 969217
3 1303.9 965954
3 1303.9 957441
3 1304.17 956665
3 1316.24 1239675
3 1316.24 1229725
3 1316.24 1219549
3 1316.24 1160150
3 1316.24 1142280
3 1316.24 1107513
3 1316.24 1092541
3 1316.24 1040882
3 1316.24 1030912
3 1316.8 1029839
3 1316.8 1016540
3 1316.8 991815
3 1316.8 983698
3 1316.8 983659
3 1316.8 977639
3 1316.8 976254
3 1317.29 970525
3 1317.29 969372
3 1317.29 961461
3 1317.73 959485
3 1317.73 955446
3 1317.73 954309
3 1320.29 953387
3 1330.21 1038479
3 1330.21 1020833
3 1330.21 1017142
3 1330.21 1011413
3 1330.21 1007830
3 1330.21 1005993
3 1330.21 1001924
3 1330.73 985200
3 1331.21 981617
3 1331.21 980342
3 1331.21 976115
3 1331.76 972496
3 1333.62 971121
3 1334.05 968854
3 1334.05 966521
3 1334.33 965384
3 1344.29 1068879
3 1344.29 1061981
3 1344.29 1060168
3 1344.29 1056783
3 1344.29 1016678
3 1344.29 1006502
3 1344.68 1001658
3 1344.68 999227
3 1344.68 998074
3 1344.68 979146
3 1344.68 976801
3 1344.68 971114
3 1345.05 968649
3 1345.05 967576
3 1345.05 960526
3 1345.39 952868
3 1345.39 952709
3 1345.39 951494
3 1345.64 949149
3 1347.13 948766
3 1347.13 946243
3 1347.13 945410
3 1347.42 942201
3 1347.72 941870
3 1347.72 940058
3 1347.72 939525
3 1348.16 938489
3 1348.16 937582
3 1358.35 1122769
3 1358.35 1122478
3 1358.35 1115366
3 1358.35 1102964
3 1358.35 1095118
3 1358.35 1075645
3 1358.35 1073366
3 1358.35 1067142
3 1358.35 1057495
3 1358.35 1049421
3 1358.35 1021224
3 1358.35 1012524
3 1358.35 1002574
3 1358.82 989873
3 1358.82 986446
3 1359.06 983217
3 1359.06 978713
3 1359.06 977533
3 1359.32 972709
3 1359.32 969794
3 1359.32 964164
3 1359.58 962682
3 1363.41 959670
3 1363.82 959578
3 1363.82 958293
1 1364.63 956087
3 1364.63 950110
3 1372.04 1013321
3 1372.04 1001943
3 1372.04 998618
3 1372.04 997481
3 1372.04 996439
3 1372.04 989480
3 1372.36 983374
3 1372.36 975528
3 1373.35 972145
3 1373.83 964568
3 1373.83 964205
3 1374.21 963543
3 1374.46 961646
3 1374.46 958876
3 1374.46 958063
3 1374.73 953239
3 1386.24 1042799
3 1386.24 1039673
3 1386.24 1031079
3 1386.24 1030841
3 1386.24 1029490
3 1386.24 1025799
3 1386.24 1024302
3 1386.24 1023469
3 1386.58 1018615
3 1386.58 1013980
1 1386.58 1008719
3 1386.58 1008539
3 1386.58 1005029
3 1387.1 988844
3 1387.1 986017
3 1388.4 972048
3 1388.4 969810
3 1388.4 967465
3 1388.91 965455
3 1389.72 965403
3 1390.07 964383
3 1400.06 1182014
3 1400.06 1130940
3 1400.06 1115941
3 1400.06 1086498
3 1400.06 1085425
3 1400.06 1065760
3 1400.06 1057914
3 1400.06 1051603
3 1400.59 1045874
3 1400.59 1041883
3 1400.59 1038976
3 1401.03 987317
3 1401.03 984275
3 1401.03 976201
3 1401.03 975870
3 1401.03 969067
3 1401.5 956665
3 1401.89 956355
3 1402.3 954010
3 1414.21 1032389
3 1414.21 1017431
3 1414.21 1016294
3 1414.21 1011025
3 1414.21 1005067
3 1414.21 985181
3 1414.55 980950
3 1414.55 977343
3 1414.55 966372
3 1414.55 955032
3 1424.03 952527
3 1424.03 952100
3 1424.03 949184
3 1424.48 941151
3 1428.01 1048857
3 1428.01 1041274
3 1428.01 1035545
3 1428.01 994216
3 1429.31 991759
3 1429.31 981329
3 1430.62 974365
3 1430.62 973488
3 1430.62 966371
3 1442.4 1126184
3 1442.4 1112027
3 1442.4 1096328
3 1442.4 1086490
3 1442.4 1072333
3 1442.4 1066604
3 1442.4 1061406
3 1442.4 1054983
3 1442.4 1051129
3 1442.4 1048226
3 1442.4 1047393
3 1442.4 1017614
3 1443 1013644
3 1443 1001769
3 1443 998686
3 1443 991548
3 1443 989258
3 1443 987467
3 1443.48 979977
3 1443.48 975049
3 1443.48 974465
3 1444 973664
3 1452.6 972325
3 1452.6 972114
3 1452.92 970534
3 1452.92 969733
3 1452.92 969493
3 1452.92 968520
3 1452.92 967949
3 1452.92 965536
3 1452.92 952129
3 1456.19 1105674
3 1456.19 1102816
3 1456.19 1073131
3 1456.19 1048205
3 1456.19 1037312
3 1456.19 1035398
3 1456.19 1021480
3 1456.19 1017415
3 1456.19 997113
3 1456.19 988972
3 1456.19 982474
3 1456.19 982114
3 1456.61 980129
3 1456.61 980021
3 1456.61 978393
3 1456.61 970333
3 1456.61 964604
3 1456.61 960356
3 1470.1 1114871
3 1470.1 1101356
3 1470.1 1101116
3 1470.1 1098771
3 1470.1 1090177
3 1470.1 1086967
3 1470.1 1074952
3 1470.1 1068054
3 1470.1 1064901
3 1470.1 1060077
1 1470.1 1053131
3 1470.1 1020425
3 1470.1 1018080
3 1470.1 1008152
3 1470.53 1007130
3 1470.53 998589
3 1470.53 994480
3 1470.53 990381
3 1470.53 989244
3 1470.53 982190
3 1470.53 972428
3 1471.12 971593
3 1471.36 969988
3 1471.36 964917
3 1471.36 957105
3 1471.62 954741
3 1471.62 954501
3 1471.62 953405
3 1471.88 950918
3 1484.26 1035357
3 1484.26 1033303
3 1484.26 1027265
3 1484.26 1021608
3 1484.26 1015576
3 1484.26 1005251
3 1484.26 998041
3 1484.26 993055
3 1484.26 992325
3 1484.26 990115
3 1484.72 982413
3 1484.72 980378
3 1484.72 979305
3 1484.72 966903
3 1485.1 961623
3 1485.1 959625
3 1498.2 1032964
3 1498.2 1027690
3 1498.2 1024370
3 1498.2 1004408
3 1498.2 1000123
3 1498.2 999063
3 1498.2 998982
3 1498.2 998235
3 1498.62 988746
3 1499.12 983845
3 1499.12 974258
3 1499.42 970745
3 1499.42 968941
3 1500.66 968863
3 1500.91 966518
3 1500.91 965222
3 1501.17 964945
3 1501.65 962600
3 1502.62 962437
3 1512.16 1030847
3 1512.16 1023013
3 1512.16 1015165
3 1512.16 1013553
3 1512.16 1011400
3 1512.16 1010050
3 1512.16 990116
3 1512.16 975144
3 1513.2 974904
3 1514.85 963607
3 1514.85 960824
3 1515.28 954118
3 1515.68 947470
3 1516.07 944691
3 1516.47 944674
3 1517.25 941341
3 1517.25 941091
3 1517.65 939831
3 1526.16 1212362
3 1526.16 1202186
3 1526.16 1156193
3 1526.16 1105119
3 1526.16 1085454
3 1526.16 1034981
3 1526.16 1034916
3 1526.16 1004596
3 1526.16 997484
3 1526.16 997288
3 1526.16 990176
3 1526.16 989573
3 1526.16 989343
3 1526.52 989103
3 1526.52 989068
3 1526.85 986723
3 1527.25 981785
3 1527.25 976056
3 1527.25 970039
3 1527.25 969201
3 1527.7 967800
3 1528.49 967148
3 1530.09 960951
3 1530.53 960579
3 1540.09 1016999
3 1540.09 1002041
3 1540.09 992317
3 1540.09 991738
3 1540.09 983182
3 1540.57 974574
3 1540.57 974052
3 1540.57 971619
3 1540.57 971379
3 1541.8 971080
3 1541.8 970066
3 1541.8 969561
3 1541.8 962377
3 1554.08 1095078
3 1554.08 1075413
3 1554.08 1059885
3 1554.08 1015148
3 1554.08 1011584
3 1554.08 997764
3 1554.08 989690
3 1554.08 989061
3 1554.42 985863
3 1554.66 985828
3 1554.66 985719
3 1554.66 984691
3 1554.66 984451
3 1554.66 982106
3 1554.66 975598
3 1554.66 971179
3 1554.66 970100
3 1555.02 965276
3 1555.02 964979
3 1555.02 964739
3 1555.28 959392
3 1555.74 959156
3 1555.97 959089
3 1556.47 956977
3 1558.9 952622
3 1558.9 952100
3 1558.9 950289
3 1559.39 949216
3 1568.3 1132504
3 1568.3 1102819
3 1568.3 1094232
3 1568.3 1060470
3 1568.3 1050157
3 1568.3 1048990
3 1568.3 997331
3 1568.3 990783
3 1568.3 986506
3 1568.3 983547
3 1568.3 975414
3 1568.84 968197
3 1573.4 967824
3 1573.4 963000
3 1573.82 961863
3 1578.71 961384
3 1582.03 1013681
3 1582.03 1009379
3 1582.03 1005641
3 1582.03 1005046
3 1582.03 995557
3 1582.03 991974
3 1582.52 991955
3 1582.52 986944
3 1582.52 981779
3 1582.79 980931
3 1582.79 980266
3 1583.08 978683
3 1583.08 973763
3 1583.08 971458
3 1583.08 971218
3 1583.53 969832
3 1596.24 1024715
3 1596.24 1003446
3 1596.24 997717
3 1596.24 983106
3 1596.24 975344
3 1596.24 970520
3 1596.24 970290
3 1596.24 970217
3 1596.55 969217
3 1596.55 969067
3 1600.1 965954
3 1600.1 956665
3 1600.52 955038
3 1600.52 951455
3 1600.94 951450
3 1610.03 1026989
3 1610.03 1023406
3 1610.03 1010968
3 1610.03 1009081
3 1610.03 1007007
3 1610.03 1003424
3 1610.35 999733
3 1610.35 999510
3 1610.35 991873
3 1610.62 988782
3 1610.86 983313
3 1610.86 980968
3 1610.86 979235
3 1611.12 977615
3 1611.12 973507
3 1611.12 965433
3 1611.12 964360
3 1611.39 961628
3 1611.63 960491
3 1624.02 1026720
3 1624.02 1023834
3 1624.02 1014546
3 1624.02 1000634
3 1624.02 979963
3 1624.02 972173
3 1624.02 969315
3 1624.42 962167
3 1624.42 957343
3 1625.05 954986
3 1625.54 954593
3 1625.77 951403
3 1638.07 1053838
3 1638.07 1051519
3 1638.07 1019769
3 1638.07 1006547
3 1638.07 997312
3 1638.07 994611
3 1638.07 990383
3 1638.07 985207
3 1638.07 984005
3 1638.07 983095
3 1638.07 975333
3 1638.52 968414
3 1638.52 965280
3 1638.52 965040
3 1638.52 956983
3 1639 956961
3 1639.41 955907
3 1639.41 954834
3 1640.6 953369
3 1640.6 950610
3 1640.98 950060
3 1640.98 940811
3 1641.29 939539
3 1641.58 938466
3 1652.12 1120026
3 1652.12 1103954
3 1652.12 1094719
3 1652.12 1081875
3 1652.12 1069033
3 1652.12 1017374
3 1652.12 1004033
3 1652.12 1002402
3 1652.56 994351
3 1652.56 988622
3 1652.56 985294
3 1652.56 981184
3 1653.18 973504
3 1653.18 965742
3 1653.45 963221
3 1653.45 961059
3 1653.69 955542
3 1653.69 952896
3 1654.12 952401
3 1654.34 951328
3 1666.16 1199021
3 1666.16 1177182
3 1666.16 1162183
3 1666.16 1161991
3 1666.16 1156839
3 1666.16 1105180
3 1666.16 1090208
3 1666.16 1089198
3 1666.16 1038124
3 1666.16 1005005
3 1666.53 998019
3 1666.53 990257
3 1666.53 985112
3 1666.78 984279
3 1666.78 983276
3 1667.07 981311
3 1667.07 978214
3 1667.34 970140
3 1667.34 969880
3 1667.34 969307
3 1667.34 967535
3 1667.62 954493
3 1667.86 954019
3 1680.08 1043682
3 1680.08 1038858
3 1680.08 1029183
3 1680.08 1027519
3 1680.08 1026231
3 1680.08 1012093
3 1680.4 1011853
3 1680.4 1005589
3 1680.4 1003697
3 1680.4 1003455
3 1680.68 1000670
3 1680.68 999597
3 1680.68 991884
3 1680.68 989931
3 1680.68 986645
3 1680.68 980916
3 1680.68 979551
3 1681 972660
3 1681 968589
3 1683.13 966618
3 1683.13 961987
3 1683.4 960889
3 1694.36 1087522
3 1694.36 1061012
3 1694.36 1046013
3 1694.36 1043080
3 1694.36 1023415
3 1694.36 1022342
3 1694.36 1015564
3 1694.36 1000606
3 1694.89 986372
3 1694.89 977437
3 1694.89 977031
3 1695.38 976786
3 1695.38 976055
3 1695.38 973879
3 1695.38 971231
3 1695.83 970586
3 1695.83 968470
3 1695.83 967854
3 1695.83 965652
3 1695.83 963240
3 1696.27 962920
3 1696.27 952896
3 1705.39 950593
3 1705.63 949932
3 1706.82 948431
3 1708.24 1059670
3 1708.24 1049369
3 1708.24 1040134
3 1708.24 1028756
3 1708.24 1013457
3 1708.24 995116
3 1708.24 984990
3 1708.24 979261
3 1711.61 977176
3 1722.03 1057393
3 1722.03 1053638
3 1722.03 1050706
3 1722.03 1042112
3 1722.03 1033161
3 1722.03 1014894
3 1722.03 997495
3 1722.03 993787
3 1722.03 989292
3 1722.57 986947
3 1722.57 986789
3 1722.57 983471
3 1723.01 982334
3 1723.01 981131
3 1723.01 965100
3 1723.01 962966
3 1723.47 960434
3 1723.47 958598
3 1723.9 957525
3 1724.14 957219
3 1724.71 951328
3 1736.32 1107983
3 1736.32 1102204
3 1736.32 1092028
3 1736.32 1072380
3 1736.32 1051945
3 1736.32 1048438
3 1736.32 1039844
3 1736.32 1036443
3 1736.32 1025609
3 1736.32 1016796
3 1736.32 996772
3 1736.88 980940
3 1736.88 980700
3 1736.88 975153
3 1736.88 971211
3 1736.88 970632
3 1736.88 965808
3 1738.63 964379
3 1750.12 1040688
3 1750.12 1033717
3 1750.12 1021315
3 1750.12 1011446
3 1750.12 1007069
3 1750.12 998475
3 1750.53 995128
3 1750.53 990572
3 1750.53 989824
3 1750.53 974852
3 1751.35 974354
3 1751.35 971269
3 1751.8 969029
3 1751.8 967956
3 1754.21 966068
3 1754.21 965461
3 1754.21 965287
3 1755.21 964757
3 1764.03 1062060
3 1764.03 1051234
3 1764.03 1041058
3 1764.03 1035490
3 1764.03 1026303
3 1764.03 1014664
3 1764.63 1013167
3 1764.63 1012094
3 1764.63 1009057
3 1764.63 1006063
3 1764.63 992610
3 1765.17 989027
3 1765.59 987138
3 1765.59 981336
3 1766.36 974751
3 1766.95 969602
3 1766.95 969362
3 1772.22 967857
3 1778.19 1050075
3 1778.19 1046492
3 1778.19 1042607
3 1778.19 1041774
3 1778.19 1039526
3 1778.19 1004536
3 1778.19 1004532
3 1778.19 1001044
3 1778.19 999736
3 1778.19 999496
3 1778.77 997932
3 1779.19 992903
3 1779.19 984574
3 1779.19 982150
3 1779.19 979935
3 1779.19 978599
3 1779.19 975016
3 1779.19 973117
3 1779.19 967388
3 1779.19 959969
3 1779.19 957435
3 1779.72 956010
3 1779.72 955177
3 1779.72 954937
3 1792.13 1086617
3 1792.13 1063544
3 1792.13 1047822
3 1792.13 1045074
3 1792.13 1038489
3 1792.13 1034504
3 1792.13 1033683
3 1792.13 1024732
3 1792.13 1017412
3 1792.13 1016611
3 1792.13 1011075
3 1792.13 997555
3 1792.13 968102
3 1792.13 965194
3 1792.75 963827
3 1793.17 962457
3 1793.17 955726
3 1806.14 1035089
3 1806.14 1033952
3 1806.14 1024778
3 1806.14 1023547
3 1806.14 1015728
3 1806.14 1009197
3 1806.66 1005416
3 1806.66 1003117
3 1806.66 1000772
3 1807.09 999699
3 1807.9 997406
3 1807.9 990969
3 1807.9 981272
3 1807.9 966124
3 1808.37 952549
3 1820.01 1013172
3 1820.01 999537
3 1820.01 996718
3 1820.01 982649
3 1820.01 979467
3 1820.01 966969
3 1834.02 1036030
3 1834.02 1034957
3 1834.02 1020133
3 1834.02 1013001
3 1834.02 1011864
3 1834.02 1011283
3 1834.02 1010656
3 1834.02 1010445
3 1834.02 1005554
3 1834.02 996141
3 1834.39 982181
1 1834.39 978824
3 1834.39 976547
3 1834.39 970546
3 1834.39 965722
3 1835.17 960192
3 1835.17 956609
3 1835.43 951389
3 1836.65 950358
3 1836.65 950131
3 1836.99 949525
3 1837.22 949285
3 1848.27 1025324
3 1848.27 1014005
3 1848.27 1003829
3 1848.76 990505
3 1848.76 980180
3 1848.76 976425
3 1849.21 973436
3 1849.21 972433
3 1849.21 967141
3 1849.21 966423
3 1849.21 962038
3 1849.6 959527
3 1849.6 958629
3 1849.86 953805
3 1850.09 953413
3 1850.09 952896
3 1851.93 951328
3 1862.09 1171416
3 1862.09 1169071
3 1862.09 1129395
3 1862.09 1126537
3 1862.09 1118463
3 1862.09 1103505
3 1862.09 1052431
3 1862.6 1026105
3 1862.6 1003982
3 1862.6 996870
3 1862.6 981169
3 1863.07 979204
3 1863.07 977993
3 1863.07 977027
3 1863.07 969969
3 1863.07 969170
3 1863.53 959681
3 1863.53 959446
3 1864.74 958680
3 1865.22 958645
3 1865.46 958440
3 1866.38 957926
3 1866.38 955581
3 1866.38 955327
3 1868.04 955106
3 1868.28 954377
3 1876.36 1051890
3 1876.36 1049181
3 1876.36 1048044
3 1876.36 1033072
3 1876.36 1025542
3 1876.36 1018150
3 1876.81 1014637
3 1876.81 1008755
3 1876.81 1001219
3 1877.07 992569
3 1877.31 991765
3 1879.83 989378
3 1880.08 988738
3 1880.08 987601
3 1880.08 987288
3 1880.35 984636
3 1880.35 983914
3 1880.35 982777
3 1890.17 1012352
3 1890.17 1003857
3 1890.17 998726
3 1890.17 992504
3 1890.17 982179
3 1890.53 978022
3 1890.53 974244
3 1890.53 970319
3 1890.8 970139
3 1890.8 967098
3 1890.8 962039
3 1891.07 961957
3 1891.07 961629
3 1891.35 961497
3 1891.35 960902
3 1904.15 1096888
3 1904.15 1090174
3 1904.15 1085350
3 1904.15 1060933
3 1904.15 1053075
3 1904.15 1049725
3 1904.15 1032675
3 1904.15 1024081
3 1904.15 1023263
3 1904.79 1022790
3 1904.79 1012482
3 1904.79 1011409
3 1904.79 1004938
3 1904.79 997826
3 1905.23 997641
3 1905.51 986797
3 1905.51 983214
3 1905.51 980231
3 1905.51 969801
3 1905.51 967456
3 1905.9 966112
3 1905.9 964975
3 1905.9 964160
3 1906.47 963983
3 1906.85 962529
3 1907.18 961815
3 1918.1 1142998
3 1918.1 1091339
3 1918.1 1084178
3 1918.1 1054322
3 1918.1 1052825
3 1918.1 1032939
3 1918.1 1031866
3 1918.1 1022067
3 1918.1 1010937
3 1918.43 1009665
3 1918.43 1005830
3 1918.43 984672
3 1918.43 983764
3 1918.43 978839
3 1918.79 977448
3 1919.19 973249
3 1919.19 970961
3 1919.19 966097
3 1919.19 961503
3 1919.19 959406
3 1919.65 956610
3 1919.65 953945
3 1920.06 953677
3 1920.45 951786
3 1932.03 1096853
3 1932.03 1091769
3 1932.03 1061990
3 1932.03 1052478
3 1932.03 1051405
3 1932.03 1041229
3 1932.03 1031552
3 1932.03 1021227
3 1932.03 1005225
3 1932.03 1002987
3 1932.03 996170
3 1932.03 988324
3 1932.62 961903
3 1932.62 956123
3 1932.62 953192
3 1935.2 946881
3 1935.52 942458
3 1936.01 934948
3 1946.03 1093274
3 1946.03 1083098
3 1946.03 1082025
3 1946.03 1067053
3 1946.03 1052095
3 1946.03 1048135
3 1946.03 1040276
3 1946.52 1034991
3 1946.52 1012868
3 1946.52 1012337
3 1946.52 1008109
3 1946.52 986931
3 1946.52 984586
3 1946.52 983961
3 1947.45 981999
3 1947.45 979507
3 1947.88 976732
3 1948.28 970565
3 1948.28 968220
3 1948.62 967083
3 1949.15 966561
3 1949.15 964385
3 1949.15 962825
3 1949.47 958194
3 1949.47 958032
3 1949.47 957323
3 1953.21 957187
3 1953.45 955238
3 1953.93 951328
3 1960.23 984980
3 1960.23 983089
3 1960.23 978534
3 1960.68 974458
3 1960.68 971221
3 1960.68 966340
3 1960.68 965507
3 1960.68 960683
3 1961.07 958581
3 1961.07 954954
3 1961.32 953668
3 1962.24 950722
3 1962.5 948968
3 1974.18 1184846
3 1974.18 1170013
3 1974.18 1164815
3 1974.18 1143546
3 1974.18 1138737
3 1974.18 1137817
3 1974.18 1116697
3 1974.18 1065623
3 1974.18 1065383
3 1974.18 1065340
3 1974.18 1050411
3 1974.65 1020726
3 1974.94 1017774
3 1974.94 1012950
3 1975.27 1010846
3 1975.27 1007777
3 1975.27 984438
3 1975.55 981733
3 1975.55 973971
3 1975.8 973418
3 1975.8 970557
3 1975.8 969691
3 1975.8 968277
3 1976.09 968014
3 1976.09 967140
3 1976.42 959452
3 1976.77 954628
3 1976.77 954214
3 1976.77 953413
3 1988.15 1093321
3 1988.15 1085475
3 1988.15 1063636
3 1988.15 1063396
3 1988.15 1012322
3 1988.15 992436
3 1988.15 989152
3 1988.15 984924
3 1988.15 982579
3 1988.72 971464
3 1988.72 967621
3 1989.52 960125
3 1989.52 959496
3 1989.52 946014
3 1990.15 945567
3 1990.15 945105
3 1990.43 940403
3 2002.2 1109585
3 2002.2 1089920
3 2002.2 1076445
3 2002.2 1020116
3 2002.2 1012270
3 2002.2 1009874
3 2002.2 994824
3 2002.71 990017
3 2002.71 989616
3 2002.71 988543
3 2002.71 986198
3 2002.71 978270
3 2003.21 974949
3 2003.21 974828
3 2003.64 971271
3 2003.64 970386
3 2003.64 964183
3 2003.64 961276
3 2003.94 960203
3 2003.94 957392
3 2004.2 952129
3 2016.05 1125122
3 2016.05 1124049
3 2016.05 1115600
3 2016.05 1107230
3 2016.05 1106665
3 2016.05 1087000
3 2016.05 1060821
3 2016.05 1058938
3 2016.05 1054070
3 2016.05 1051736
3 2016.44 1047502
3 2016.44 1031650
3 2016.44 1030823
3 2016.44 1007814
3 2016.44 979749
3 2016.73 973412
3 2016.73 968875
3 2016.73 963230
3 2017.21 960063
3 2017.21 959513
3 2017.47 959147
3 2017.7 958598
3 2017.94 957525
3 2018.18 957219
3 2018.43 951328
3 2030.07 1161311
3 2030.07 1155582
3 2030.07 1118293
3 2030.07 1104924
3 2030.07 1104778
3 2030.07 1094348
3 2030.07 1091043
3 2030.07 1061187
3 2030.07 1059862
3 2030.07 1048744
3 2030.07 1041092
3 2030.07 1041053
3 2030.07 1033044
3 2030.07 1012134
3 2030.07 1011515
3 2030.64 1008933
3 2030.64 996393
3 2030.64 993551
3 2030.64 989183
3 2030.64 984592
3 2030.64 983177
3 2030.64 981347
3 2030.64 972143
3 2031.2 971840
3 2031.2 961953
3 2031.2 960373
3 2031.2 957528
3 2031.2 953468
3 2031.65 953228
3 2032.03 952952
3 2032.03 951798
3 2032.28 951568
3 2032.28 951328
3 2044.17 1055494
3 2044.17 1046272
3 2044.17 1042650
3 2044.17 1041513
3 2044.17 1034953
3 2044.17 999823
3 2044.17 992903
3 2044.7 990806
3 2044.7 975834
3 2045.03 975594
3 2047.54 968769
3 2058.19 1156700
3 2058.19 1151502
3 2058.19 1100428
3 2058.19 1091770
3 2058.19 1081340
3 2058.19 1051655
3 2058.19 1035208
3 2058.19 1004137
3 2058.19 1003000
3 2058.19 1002750
3 2058.55 968087
3 2058.8 963480
3 2059.03 961442
3 2059.03 956941
3 2072.32 1027772
3 2072.32 1023918
3 2072.32 1023678
3 2072.32 1001978
3 2072.32 1001140
3 2072.32 1000477
3 2072.86 998132
3 2072.86 997040
3 2072.86 985730
3 2073.3 983468
3 2073.72 982395
3 2073.72 981453
3 2073.72 976666
3 2073.72 973691
3 2073.72 973112
3 2086.27 1050875
3 2086.27 1050547
3 2086.27 1038807
3 2086.27 1036790
3 2086.27 1033449
3 2086.27 1011467
3 2086.27 1011390
3 2086.27 1009938
3 2086.27 1003737
3 2086.27 1001182
3 2086.87 994120
3 2087.12 989737
3 2087.12 987712
3 2087.12 987331
3 2087.12 983503
3 2087.12 981509
3 2087.41 981406
3 2087.41 981146
3 2087.41 978595
3 2087.68 976568
3 2087.68 975570
3 2087.68 974433
3 2088.18 974070
3 2088.42 971548
3 2088.66 968004
3 2088.66 962945
3 2088.66 962395
3 2088.66 961491
3 2088.66 958704
3 2088.66 957216
3 2088.96 952648
3 2100.09 1166180
3 2100.09 1138728
3 2100.09 1128261
3 2100.09 1098405
3 2100.09 1047331
3 2100.09 1046258
3 2100.09 1042929
3 2100.09 1025641
3 2100.09 1025401
3 2100.09 1023223
3 2100.09 1015800
3 2100.09 1008265
3 2100.09 1006239
3 2100.56 1002791
3 2100.56 976298
3 2100.56 968085
3 2100.56 964722
3 2100.84 959241
3 2114.22 1056693
3 2114.22 1046894
3 2114.22 1036713
3 2114.22 1034919
3 2114.22 1032985
3 2114.22 1032043
3 2114.22 1024391
3 2114.22 1023524
3 2114.22 1015350
3 2114.22 1013456
3 2114.22 1009238
3 2114.77 1006156
3 2114.77 1005017
3 2114.77 1003998
3 2114.77 988016
3 2114.77 985897
3 2114.77 985657
3 2115.25 979051
3 2115.25 970977
3 2115.25 961504
3 2115.25 953292
3 2115.25 952155
3 2116.1 951328
3 2128.34 1122439
3 2128.34 1118773
3 2128.34 1102483
3 2128.34 1084744
3 2128.34 1070813
3 2128.34 1047455
3 2128.34 1038348
3 2128.34 1031166
3 2128.34 1020034
3 2128.88 1014305
3 2128.88 1013092
3 2128.88 1005246
3 2128.88 1004016
3 2128.88 992640
3 2128.88 975615
3 2129.35 973826
3 2129.35 968433
3 2129.77 967896
3 2129.77 965401
3 2129.77 960817
3 2129.77 960254
3 2129.77 957368
3 2130.22 954284
3 2131.79 950963
3 2131.79 948618
3 2131.79 946014
3 2131.79 945105
3 2133.02 944555
3 2133.02 944189
3 2133.02 943722
3 2133.02 940403
3 2142.21 1011914
3 2142.21 1006716
3 2142.21 992559
3 2142.21 989799
3 2142.21 987842
3 2142.21 978839
3 2142.21 963867
3 2142.52 963378
3 2142.52 962366
3 2142.52 962022
3 2142.52 961782
3 2142.52 953521
3 2142.8 953114
3 2143.07 953071
3 2146.68 952405
3 2156.03 1059205
3 2156.03 1056460
3 2156.03 1050731
3 2156.03 1041242
3 2156.03 1040489
3 2156.03 1034659
3 2156.03 1022373
3 2156.03 1010221
3 2156.03 1005124
3 2156.54 1001816
3 2156.54 991353
3 2156.54 973390
3 2156.88 972012
3 2156.88 968939
3 2157.25 967741
3 2157.68 965112
3 2157.68 964559
3 2158.1 961132
3 2158.1 960025
3 2158.56 954682
3 2158.56 954442
3 2158.56 951272
3 2158.99 951253
3 2158.99 945173
3 2159.4 943426
3 2159.4 943173
3 2159.4 935172
3 2170.09 1074098
3 2170.09 1052714
3 2170.09 1001640
3 2170.09 986682
3 2170.09 980952
3 2170.43 978120
3 2170.43 975037
3 2170.43 974590
3 2170.43 974566
3 2170.43 972473
3 2171.64 968800
3 2171.88 967843
3 2171.88 964260
3 2171.88 961933
3 2171.88 953594
3 2174.48 950103
3 2174.48 946881
3 2176.52 946080
3 2184.34 1064421
3 2184.34 1037338
3 2184.34 1033755
3 2184.34 1003899
3 2184.34 1002402
3 2184.82 974047
3 2184.82 960522
3 2184.82 959089
3 2184.82 958064
3 2184.82 952609
3 2184.82 952401
3 2185.19 951568
3 2185.19 951328
3 2185.93 944147
3 2186.24 943074
3 2198.14 1056355
3 2198.14 1048281
3 2198.14 1018425
3 2198.14 1017543
3 2198.14 1010096
3 2198.14 999594
3 2198.14 986409
3 2198.14 986401
3 2198.47 985773
3 2198.47 984185
3 2198.47 979361
3 2198.47 967600
3 2199.92 964383
3 2199.92 961286
3 2200.18 960453
3 2200.18 960213
3 2200.48 952642
1 2212.05 1127916
3 2212.05 1115072
3 2212.05 1112727
3 2212.05 1111641
3 2212.05 1101189
3 2212.05 1071175
3 2212.05 1064786
3 2212.05 1045824
3 2212.05 1038918
3 2212.05 1024760
3 2212.63 1023364
3 2212.63 1007737
3 2212.63 997783
3 2212.63 993827
3 2212.63 992635
3 2212.63 988842
3 2213.13 988066
3 2213.13 986929
3 2213.13 985259
3 2213.13 976870
3 2226.11 980881
3 2226.11 980746
3 2226.11 959847
3 2226.11 956264
3 2226.11 951025
3 2226.58 950121
3 2226.58 948984
3 2227.05 948906
3 2227.28 947009
3 2227.28 945215
3 2227.28 944142
3 2227.61 939160
3 2227.61 938429
3 2227.61 936129
3 2228.7 935763
3 2228.94 932700
3 2240.16 1039733
3 2240.16 1034004
3 2240.16 1011928
3 2240.16 999084
3 2240.16 983205
3 2240.16 982132
3 2240.16 981384
3 2240.46 980645
3 2240.46 977964
3 2240.79 976827
3 2241.03 972003
3 2241.03 967295
3 2244.09 963135
3 2254.03 1002680
3 2254.03 1001607
3 2254.03 981251
3 2254.03 978078
3 2254.03 969398
3 2254.03 969379
3 2254.34 968920
3 2254.34 963410
3 2254.59 957968
3 2254.82 955027
3 2268.09 1024002
3 2268.09 1005522
3 2268.09 987356
3 2268.09 986355
3 2268.09 977318
3 2268.09 974748
3 2268.09 971431
3 2268.43 967310
3 2268.43 965054
3 2268.43 961471
3 2268.43 956473
3 2269.29 948410
3 2269.29 945562
3 2269.82 939261
3 2269.82 936062
3 2270.11 935320
3 2270.11 935229
3 2270.36 935049
3 2270.83 934809
3 2282.21 1165820
3 2282.21 1145676
3 2282.21 1145436
3 2282.21 1117860
3 2282.21 1105458
3 2282.21 1095745
3 2282.21 1076015
3 2282.21 1064269
3 2282.56 1038663
3 2282.56 1013195
3 2282.56 1001376
3 2282.56 995251
3 2282.56 993530
3 2282.89 992363
3 2282.89 986945
3 2282.89 981235
3 2282.89 979807
3 2282.89 977462
3 2282.89 969616
3 2283.19 968479
3 2291.14 967617
3 2291.14 961858
3 2294.45 959105
3 2296.06 1120094
3 2296.06 1107250
3 2296.06 1089792
3 2296.06 1079158
3 2296.06 1049473
3 2296.06 1010877
3 2296.06 1010637
3 2296.6 1006891
3 2296.6 1004686
3 2297.44 1000810
3 2297.44 995919
3 2297.44 994239
3 2297.89 979892
3 2297.89 969834
3 2297.89 965805
3 2298.15 964379
3 2298.85 957747
3 2310.11 1134263
3 2310.11 1114598
3 2310.11 1063524
3 2310.11 1033839
3 2310.11 985390
3 2310.11 979079
3 2310.11 975615
3 2310.77 972405
3 2311.14 970140
3 2311.14 968277
3 2311.14 967204
3 2311.58 956665
3 2324.24 1050861
3 2324.24 1030768
3 2324.24 1015361
3 2324.24 1005185
3 2324.24 999456
3 2324.24 974708
3 2324.24 973076
3 2324.24 969884
3 2324.79 967713
3 2324.79 965900
3 2325.62 963588
3 2325.62 961299
3 2325.62 960162
3 2325.62 953001
3 2325.62 949837
3 2325.62 947492
3 2325.62 943583
3 2338.13 1038437
3 2338.13 1037191
3 2338.13 1034846
3 2338.13 1028466
3 2338.13 1027107
3 2338.13 1013598
3 2338.57 1006477
3 2338.57 1003043
3 2338.57 990770
3 2338.57 983453
3 2338.57 982380
3 2338.57 979554
3 2339.06 977739
3 2339.06 975099
3 2339.06 974859
3 2339.06 969737
3 2339.06 968003
3 2339.06 967097
3 2339.55 966024
3 2352.24 1068360
3 2352.24 1065580
3 2352.24 1057479
3 2352.24 1034011
3 2352.24 1004326
3 2352.24 989368
3 2352.24 986391
3 2352.24 985273
3 2352.24 980711
3 2352.24 970535
3 2352.61 967702
3 2352.61 967373
3 2352.87 966540
3 2352.87 962878
3 2352.87 958694
3 2353.66 958454
3 2353.66 955421
3 2354.15 954284
3 2356.06 953805
3 2360.52 952896
3 2363.08 950344
3 2363.08 942582
3 2363.35 942396
3 2366.17 1091117
3 2366.17 1083206
3 2366.17 1070342
3 2366.17 1032717
3 2366.17 1010701
3 2366.17 1008969
3 2366.17 1003829
3 2366.17 1000003
3 2366.17 985846
3 2366.17 985045
3 2366.17 984805
3 2366.17 984531
3 2366.55 976476
3 2366.55 966300
3 2367.27 961652
3 2367.27 959147
3 2367.75 955247
3 2380.02 1010236
3 2380.02 998089
3 2380.02 994617
3 2380.47 984292
3 2380.47 984147
3 2380.47 981352
3 2380.47 975991
3 2380.94 971905
3 2394.12 1142340
3 2394.12 1104715
3 2394.12 1104475
3 2394.12 1061684
3 2394.12 1043465
3 2394.12 1029308
3 2394.12 1025318
3 2394.12 1015368
3 2394.12 1006417
3 2394.55 994626
3 2394.55 989183
3 2394.55 986737
3 2394.55 984717
3 2394.55 983583
3 2394.94 976561
3 2395.36 976099
3 2396.16 976056
3 2396.16 968291
3 2396.16 964063
3 2396.7 950757
3 2396.7 950380
3 2397.67 941786
3 2408.05 1084739
3 2408.05 1055054
3 2408.05 1041884
3 2408.05 1034038
3 2408.05 1032965
3 2408.05 1013300
3 2408.05 1006989
3 2408.05 997027
3 2408.05 990247
3 2408.05 984838
3 2408.05 980048
3 2408.63 969880
3 2408.63 969307
3 2409.06 967289
3 2409.46 966152
3 2422.14 1070110
3 2422.14 1032209
3 2422.14 1019966
3 2422.14 1007676
3 2422.14 991264
3 2422.14 987681
3 2422.14 974837
3 2422.14 974027
3 2422.14 972015
3 2422.55 967700
3 2423.49 967381
3 2423.74 966244
3 2423.74 956068
3 2423.74 955912
3 2436.21 1076255
3 2436.21 1069357
3 2436.21 1059868
3 2436.21 1056285
3 2436.21 1030693
3 2436.78 1022525
3 2436.78 1011147
3 2436.78 1011067
3 2436.78 1010907
3 2437.24 1007381
3 2437.24 997220
3 2437.24 980390
3 2437.57 956032
3 2437.82 955921
3 2437.82 955581
3 2437.82 953788
3 2437.82 952715
3 2450.11 980290
3 2450.11 979387
3 2450.11 977363
3 2450.11 967795
3 2450.11 965793
3 2450.63 964292
3 2450.63 960291
3 2450.63 956918
3 2451.07 955917
3 2451.47 955383
3 2451.47 954310
3 2451.47 952843
3 2451.89 951987
3 2451.89 948649
3 2452.71 945252
3 2453.13 944566
3 2453.55 941838
3 2453.55 940615
3 2464.12 1207221
3 2464.12 1200174
3 2464.12 1148515
3 2464.12 1135908
3 2464.12 1084834
3 2464.12 1060964
3 2464.12 1027634
1 2464.12 1026071
3 2464.12 1021857
3 2464.12 1019173
3 2464.12 1007795
3 2464.6 1002867
3 2464.6 994793
3 2465.04 988256
3 2465.04 986882
3 2465.04 986081
3 2465.48 983720
3 2465.48 977409
3 2465.48 976608
3 2465.92 974019
3 2465.92 973218
3 2465.92 971853
3 2466.4 968353
3 2466.4 963472
3 2466.4 957743
3 2466.4 957611
3 2466.4 950530
3 2466.4 950095
3 2466.89 942261
3 2466.89 941580
3 2466.89 941340
3 2467.28 940718
3 2467.28 938373
1 2473.56 932772
3 2478.15 1016168
3 2478.15 994045
3 2478.15 992972
3 2478.15 989138
3 2478.52 984117
3 2478.52 971312
3 2478.52 965637
3 2478.52 963883
3 2479.82 963643
3 2480.62 963203
3 2481.03 960627
3 2481.44 956375
3 2481.85 951081
3 2481.85 948736
3 2481.85 947663
3 2492.03 1098416
3 2492.03 1089379
3 2492.03 1074421
3 2492.03 1067309
3 2492.03 1059463
3 2492.03 1007804
3 2492.03 985965
3 2492.41 979893
3 2492.41 976565
3 2492.41 966079
3 2492.41 963221
3 2492.41 956900
3 2492.69 954330
3 2492.69 953193
3 2492.69 952896
3 2500.96 951730
3 2501.21 949932
3 2502.44 940523
3 2506.11 1044077
3 2506.11 1043244
3 2506.11 1036346
3 2506.11 1036106
3 2506.11 1024857
3 2506.11 997327
3 2506.59 990344
3 2506.59 987043
3 2506.59 984717
3 2506.59 968563
3 2506.87 966243
3 2506.87 960720
3 2507.11 956169
3 2507.35 955032
3 2516.74 949230
3 2520 1074884
3 2520 1051510
3 2520 1000436
3 2520 992866
3 2520 988042
3 2520 987041
3 2520.55 982267
3 2520.55 981355
3 2520.55 980771
3 2521.16 975623
3 2521.16 970799
3 2534.1 1017853
3 2534.1 1013451
3 2534.1 1011340
3 2534.1 1007549
3 2534.1 1004646
3 2534.1 1003302
3 2534.1 999719
3 2534.1 997246
3 2534.1 996614
3 2534.1 990493
3 2534.49 970828
3 2534.49 966573
3 2534.74 964100
3 2534.97 963402
3 2534.97 961051
3 2535.25 958578
3 2535.71 954736
3 2535.71 949007
3 2537.08 948430
3 2548.2 1037113
3 2548.2 1035586
3 2548.2 1025410
3 2548.2 1025164
3 2548.2 1021981
3 2548.2 1020908
3 2548.62 1013475
3 2548.62 1005713
3 2548.62 1004474
3 2548.93 1000192
3 2548.93 989596
3 2548.93 984511
3 2549.28 981226
3 2549.98 975197
3 2550.23 972288
3 2550.65 970588
3 2550.65 968791
3 2551.01 965764
3 2562.26 1153156
3 2562.26 1143921
3 2562.26 1092262
3 2562.26 1077304
3 2562.26 1066055
3 2562.26 1064282
3 2562.26 1054207
3 2562.26 1051745
3 2562.26 1050807
3 2562.85 1048590
3 2562.85 1038933
3 2562.85 1035633
3 2562.85 1020661
3 2562.85 1010485
3 2563.38 1007198
3 2563.38 1002374
3 2576.24 1008086
3 2576.24 1002576
3 2576.24 1001205
3 2576.24 998239
3 2576.24 993825
3 2576.24 991445
3 2576.73 986067
3 2576.73 983649
3 2590.08 1141744
3 2590.08 1120078
3 2590.08 1109204
3 2590.08 1098718
3 2590.08 1049421
3 2590.08 1047644
3 2590.08 1046881
3 2590.08 1030809
3 2590.08 1017154
3 2590.08 1015649
3 2590.08 1015512
3 2590.65 1015007
3 2590.65 1003629
3 2590.65 1001367
3 2591.11 999942
3 2591.11 998914
3 2591.55 996585
3 2591.55 983943
3 2604.02 1051204
3 2604.02 1041028
3 2604.02 1014607
3 2604.02 999635
3 2604.02 994704
3 2604.02 981860
3 2604.02 980340
3 2604.02 976967
3 2604.02 973365
3 2604.89 970655
3 2604.89 967072
3 2605.31 964368
3 2605.31 959366
3 2605.31 957783
3 2605.31 956719
3 2605.75 955957
3 2605.75 952574
3 2618.24 1049983
3 2618.24 1043790
3 2618.24 1032689
3 2618.24 1013776
3 2618.24 1003937
3 2618.73 988938
3 2618.73 987865
3 2619 974161
3 2619 971626
3 2619 964455
3 2619.27 960869
3 2619.27 958950
3 2632.24 1167290
3 2632.24 1157114
3 2632.24 1143034
3 2632.24 1129559
3 2632.24 1077900
1 2632.24 1028974
1 2632.24 1027894
3 2632.24 1025303
3 2632.24 1011620
3 2632.24 1003026
3 2632.24 986701
3 2632.24 985351
3 2632.84 984249
3 2632.84 981653
3 2632.84 979576
3 2632.84 977780
3 2633.29 973435
3 2633.29 972362
3 2633.29 970314
3 2633.72 969874
3 2646.02 1134783
3 2646.02 1133950
3 2646.02 1118992
3 2646.02 1118752
3 2646.02 1107343
3 2646.02 1100445
3 2646.02 1090015
3 2646.02 1059116
3 2646.02 1049179
3 2646.02 1048686
3 2646.02 1044951
3 2646.02 1042446
3 2646.02 1041427
3 2646.65 1035698
3 2646.65 998073
3 2646.65 979537
3 2646.65 977192
3 2647.11 962234
3 2647.11 957443
3 2650.2 946549
3 2650.51 943911
3 2650.51 938331
3 2660.37 987301
3 2660.37 980610
3 2660.37 972486
3 2660.37 968969
3 2660.9 968006
3 2660.9 967034
3 2661.4 962698
3 2661.4 961561
3 2661.4 958860
3 2661.96 958137
3 2662.24 956648
3 2662.24 950844
3 2662.49 947511
3 2663.33 946522
3 2663.74 941045
3 2664.15 938408
3 2664.15 935872
3 2674.13 1146405
3 2674.13 1137811
3 2674.13 1100186
3 2674.13 1086890
3 2674.13 1085228
3 2674.13 1080174
3 2674.13 1072766
3 2674.13 1068218
3 2674.13 1050815
3 2674.13 1040639
1 2674.13 1024980
3 2674.13 1011088
3 2674.61 1007022
3 2674.61 1004307
3 2674.61 1001209
3 2674.61 1000136
3 2674.88 994339
3 2674.88 985801
3 2675.14 973633
3 2675.38 972496
3 2688.16 1090463
3 2688.16 1087728
3 2688.16 1077886
3 2688.16 1047612
3 2688.16 1031791
3 2688.16 1019202
3 2688.16 1013578
3 2688.16 997576
3 2688.16 996086
3 2688.16 983684
3 2688.55 983327
3 2688.78 974575
3 2688.78 972085
3 2689.05 969694
3 2689.05 969689
3 2689.05 968856
3 2689.05 968616
3 2689.05 966235
3 2689.05 965503
3 2689.35 962012
3 2689.35 958293
3 2690.52 951608
3 2690.76 949903
3 2691.09 948763
3 2691.51 946412
3 2691.51 943190
3 2691.51 942389
3 2702.16 1207132
3 2702.16 1185432
3 2702.16 1166989
3 2702.16 1157540
3 2702.16 1152684
3 2702.16 1150433
3 2702.16 1144103
3 2702.16 1092444
3 2702.16 1091342
3 2702.16 1090595
3 2702.16 1039521
3 2702.63 1029722
3 2702.63 1022643
3 2702.63 1020298
3 2702.63 1014569
3 2702.63 999184
3 2702.63 997589
3 2702.63 993081
3 2702.63 992433
3 2703.21 991360
3 2703.62 982976
3 2703.62 981212
3 2703.62 981184
3 2703.96 967785
3 2704.4 966406
3 2714.69 964922
3 2716.11 1069736
3 2716.11 1036659
3 2716.11 1031995
3 2716.11 1031591
3 2716.39 1019254
3 2716.39 996289
3 2716.39 992741
3 2716.39 990541
3 2717.13 989459
3 2717.38 973481
3 2717.79 971118
3 2730.08 1069248
3 2730.08 1055527
3 2730.08 1047453
3 2730.08 1029151
3 2730.08 1015457
3 2730.08 1010409
3 2730.08 1009753
3 2730.55 1007079
3 2730.55 1006484
3 2730.55 1003760
3 2730.91 999311
3 2730.91 986153
3 2731.29 986014
3 2733.16 981860
3 2733.16 980922
3 2733.16 969798
3 2733.16 969641
3 2733.54 968404
3 2733.54 968354
3 2733.88 967154
3 2733.88 960910
3 2734.22 960537
3 2734.22 960077
3 2734.22 951586
3 2734.57 951126
3 2744.33 1081828
3 2744.33 1070627
3 2744.33 1052443
3 2744.33 1049758
3 2744.33 1044934
3 2744.33 1042965
3 2744.33 1039205
3 2744.33 1036668
3 2744.33 1027403
3 2744.33 1025058
3 2744.33 1022183
3 2744.33 1015984
3 2744.33 1001355
3 2744.33 990490
3 2744.33 989250
3 2744.77 988687
3 2745.03 986342
3 2745.03 981776
3 2746.18 973930
3 2746.18 972418
3 2746.71 968979
3 2746.94 965107
3 2747.17 963027
3 2747.4 962762
3 2747.4 961040
3 2751.04 960417
3 2751.04 958430
3 2758.12 1083905
3 2758.12 1065233
3 2758.12 1049161
3 2758.12 1044337
3 2758.12 1038864
3 2758.12 1027486
3 2758.12 1027246
3 2758.12 1008822
3 2758.12 1000126
3 2758.12 991442
3 2758.69 975372
3 2758.69 974616
3 2759.84 974272
3 2759.84 974032
3 2760.27 966355
3 2760.57 965321
3 2767.79 960899
3 2767.79 959203
3 2767.79 958066
3 2768.13 955445
3 2768.13 951279
3 2768.43 949120
3 2768.66 945766
3 2768.66 944629
3 2768.91 944470
3 2768.91 943486
3 2769.9 943262
3 2770.35 942125
3 2772.12 1008835
3 2772.12 1003828
3 2772.12 980755
3 2772.12 979192
3 2772.12 973988
3 2772.47 973812
3 2772.47 969364
3 2772.47 956496
3 2772.47 955532
3 2772.47 954831
3 2772.47 951672
3 2772.91 949102
3 2772.91 948029
3 2773.32 947486
3 2773.77 947408
3 2773.77 939646
3 2774.09 938573
3 2774.32 937161
3 2786.32 1026871
3 2786.32 1009665
3 2786.32 1003498
3 2786.32 993528
3 2786.32 988125
3 2786.32 985594
3 2786.66 983249
3 2786.66 978393
3 2786.66 974347
3 2786.66 971140
3 2786.66 964645
3 2787.06 962234
3 2787.06 959481
3 2787.06 957443
3 2787.49 955680
query_times: 2
Score = 931212
