    Blocking waiting for file lock on package cache
    Blocking waiting for file lock on package cache
    Blocking waiting for file lock on build directory
    Finished `release` profile [optimized] target(s) in 0.05s
     Running `target/release/tester ../a.out 0079`
3 0.022 1436573
3 0.022 1433760
3 0.022 1423440
3 0.022 1421390
3 0.022 1403415
3 0.022 1401695
3 0.022 1396012
3 0.813 1393810
3 0.813 1386813
3 0.813 1385065
3 1.42 1384660
3 1.42 1383270
3 1.42 1382490
3 2.522 1381570
3 2.522 1381507
3 3.154 1378458
3 3.154 1377644
3 3.729 1375462
3 4.276 1372556
3 8.521 1368871
3 8.521 1368842
3 9.12 1367070
3 9.681 1365951
3 10.752 1365882
3 10.752 1365215
3 11.9 1359390
3 11.9 1356739
3 11.9 1355491
3 12.537 1355438
3 12.537 1353520
3 12.537 1341198
3 13.22 1339028
3 13.22 1338543
3 13.835 1336493
3 14.416 1432625
3 14.416 1420089
3 14.416 1405655
3 14.416 1404448
3 14.416 1392068
3 14.416 1388970
3 15.161 1382732
3 15.161 1382014
3 15.161 1378694
3 15.161 1378447
3 15.161 1377328
3 15.161 1360159
3 15.161 1359612
3 15.889 1356083
3 15.889 1352280
3 15.889 1350367
3 16.55 1350073
3 16.55 1349612
3 16.55 1349479
3 16.55 1348510
3 16.55 1345344
3 17.221 1345064
3 17.221 1343261
3 17.221 1342767
3 17.833 1336724
3 19.434 1332401
3 19.984 1330742
3 20.535 1327836
3 20.535 1327397
3 21.11 1327159
3 21.11 1322344
3 21.11 1321297
3 21.728 1320639
3 21.728 1319806
3 22.902 1319182
3 24.495 1318226
3 25.044 1317427
3 25.044 1313927
3 25.621 1313882
3 26.197 1313478
3 26.197 1313164
3 26.197 1313031
3 28.398 1432682
3 28.398 1416581
3 28.398 1413777
3 28.398 1407218
3 28.398 1403714
3 28.398 1396630
3 28.398 1396497
3 28.398 1390432
1 29.204 1390053
3 29.204 1387199
3 29.204 1382076
3 29.204 1380948
3 29.204 1378397
3 29.204 1378135
3 29.204 1371735
3 30.116 1368083
3 30.116 1367990
3 30.116 1367036
3 31.471 1364905
3 31.471 1363544
3 35.305 1362531
3 35.305 1361284
3 35.305 1359131
3 36.127 1355444
3 36.127 1347464
3 42.018 1479028
3 42.018 1428214
3 42.018 1418069
3 42.018 1416523
3 42.018 1414417
3 42.018 1414375
3 42.82 1413771
3 42.82 1409403
3 42.82 1409173
3 42.82 1404739
3 42.82 1386285
3 42.82 1384461
3 42.82 1375538
3 42.82 1370960
3 43.62 1366324
3 43.62 1359559
3 43.62 1351140
3 43.62 1348922
3 43.62 1341806
3 43.62 1339209
3 44.376 1336670
3 44.376 1334935
3 44.991 1331783
3 44.991 1331003
3 51.989 1330032
3 52.57 1328770
3 53.182 1328264
3 53.182 1325864
3 56.487 1486518
3 56.487 1479266
1 56.487 1477981
3 56.487 1467836
3 56.487 1453766
3 56.487 1448314
3 56.487 1447107
3 56.487 1430018
3 56.487 1430009
3 56.487 1428766
3 56.487 1427647
3 57.413 1427054
3 57.413 1423995
3 57.413 1411729
3 57.413 1411451
3 57.413 1409453
3 57.413 1403040
3 57.413 1400442
3 58.181 1399439
3 58.181 1393993
3 59.334 1391613
3 59.334 1383030
3 59.334 1378682
3 60.01 1377439
3 60.01 1373462
3 60.633 1367669
3 60.633 1366355
3 61.25 1363172
3 61.25 1361626
3 61.25 1360236
3 61.25 1349269
3 61.25 1348222
3 61.25 1347200
3 61.998 1346325
3 61.998 1341477
3 62.605 1341337
3 62.605 1341109
3 62.605 1341003
3 63.269 1340841
3 63.269 1340755
3 63.269 1339674
3 63.916 1338956
3 63.916 1335596
3 63.916 1332484
3 65.086 1332206
3 65.086 1330716
3 65.683 1324132
3 65.683 1322082
3 65.683 1319856
3 65.683 1318159
3 66.352 1317674
3 66.975 1313858
3 66.975 1313651
3 67.59 1309806
3 67.59 1308691
3 70.396 1421486
3 70.396 1418712
3 70.396 1417994
3 70.396 1415017
3 70.396 1413149
3 70.396 1412411
3 70.396 1399262
3 70.396 1399136
3 70.396 1388933
3 70.396 1385835
3 70.396 1384592
3 70.396 1378389
3 71.327 1373410
3 71.327 1372692
3 72.5 1370586
3 72.5 1368791
3 72.5 1367548
3 72.5 1365395
3 72.5 1355702
3 72.5 1354840
3 73.264 1354227
3 73.264 1350527
3 73.264 1350093
3 73.264 1348974
3 73.916 1346821
3 73.916 1341445
3 73.916 1337852
3 74.545 1337513
3 74.545 1336924
3 74.545 1336645
3 74.545 1336466
3 74.545 1335570
3 78.427 1331077
3 78.427 1330317
3 79.537 1330020
3 79.537 1328360
3 80.705 1324798
3 81.287 1322796
3 81.287 1321210
3 81.928 1320643
3 84.107 1405095
3 84.107 1387808
3 84.107 1379908
3 84.107 1374929
3 84.107 1369217
3 84.107 1363394
3 84.107 1362455
3 84.107 1357774
3 84.107 1357442
3 84.107 1356567
3 85.013 1353567
3 85.013 1349761
3 85.013 1347615
3 86.28 1341403
3 86.28 1340977
3 86.918 1340805
3 86.918 1337974
3 86.918 1335737
3 86.918 1335068
3 86.918 1333158
3 87.617 1332368
3 88.178 1331650
3 88.742 1331169
3 88.742 1330407
3 90.409 1327012
3 90.409 1321847
3 91.546 1318576
3 92.1 1317420
3 92.1 1317351
3 98.212 1522305
3 98.212 1490849
3 98.212 1453373
3 98.212 1405671
3 98.212 1400237
3 98.212 1399232
3 98.212 1377394
3 98.99 1373702
3 98.99 1371934
3 98.99 1371924
3 98.99 1370717
3 98.99 1365556
3 99.711 1361241
3 99.711 1356401
3 99.711 1351395
3 99.711 1350028
3 100.365 1343030
3 100.365 1340124
3 100.365 1339724
3 100.365 1338481
3 100.365 1337942
3 100.365 1334844
3 100.365 1334391
3 101.246 1333905
3 102.07 1333735
3 102.07 1333110
3 102.972 1330577
3 102.972 1328482
3 102.972 1327837
3 102.972 1326460
3 102.972 1324953
3 104.015 1324173
3 104.94 1323416
3 104.94 1322279
3 104.94 1320386
3 105.851 1317373
3 108.341 1316800
3 108.341 1313823
3 108.341 1311438
3 108.341 1310235
3 109.276 1306079
3 110.107 1304872
3 110.919 1303883
3 110.919 1303397
3 112.693 1489749
3 112.693 1483177
3 112.693 1470141
3 112.693 1469989
3 112.693 1427354
3 112.693 1424440
3 112.693 1423043
3 112.693 1414609
3 112.693 1412456
3 113.811 1407990
3 113.811 1406783
3 113.811 1391641
3 113.811 1381676
3 113.811 1381487
3 114.792 1376984
3 114.792 1374078
3 114.792 1366178
3 114.792 1365954
3 114.792 1364835
3 114.792 1358270
3 115.798 1348506
3 115.798 1348116
3 115.798 1345553
3 115.798 1344773
3 115.798 1339697
3 117.655 1336777
3 117.655 1336360
3 118.586 1335730
3 119.396 1333125
3 122.632 1332006
3 126.616 1461703
3 126.616 1441629
3 126.616 1416554
3 126.616 1405283
3 126.616 1401063
3 126.616 1393775
3 127.657 1392357
3 127.657 1374601
3 127.657 1372833
3 127.657 1370777
3 127.657 1370366
3 127.657 1362333
3 128.66 1358357
3 128.66 1357923
3 128.66 1352667
3 128.66 1352197
3 129.576 1352124
3 129.576 1348848
3 131.277 1347909
3 131.277 1347129
3 132.251 1345501
3 132.251 1339047
3 133.194 1337452
3 133.194 1337276
3 133.194 1336293
3 134.087 1330750
3 134.087 1330592
3 134.967 1324623
3 135.8 1321658
3 136.616 1320392
3 137.467 1319273
3 138.286 1319272
3 138.286 1318963
3 138.286 1318683
3 138.286 1317852
3 138.286 1317750
3 140 1317543
3 140.808 1469651
3 140.808 1449164
3 140.808 1443737
3 140.808 1418662
3 140.808 1410496
3 140.808 1408517
3 140.808 1407195
3 140.808 1405350
3 140.808 1403203
3 141.938 1401996
3 141.938 1398898
3 141.938 1397188
3 141.938 1374887
3 141.938 1371991
3 141.938 1357723
3 142.924 1352214
3 142.924 1351496
3 142.924 1348143
3 142.924 1337989
3 143.869 1334877
3 154.349 1442826
3 154.349 1441707
3 154.349 1438055
3 154.349 1427623
3 154.349 1427145
3 154.349 1416193
3 154.349 1407923
3 154.349 1400310
3 155.421 1395105
3 155.421 1395078
3 156.293 1384480
3 156.293 1367457
3 157.167 1365882
3 158.013 1365878
3 158.013 1362918
3 159.815 1355368
3 162.28 1353662
3 162.28 1348812
3 162.28 1348501
3 163.176 1346733
3 168.759 1475961
3 168.759 1447816
3 168.759 1444689
3 168.759 1436225
3 168.759 1435242
3 168.759 1434674
3 168.759 1427308
3 169.815 1418393
3 169.815 1416365
3 170.701 1415247
3 170.701 1408163
3 170.701 1407128
3 170.701 1391130
3 170.701 1388032
3 171.701 1386789
3 175.028 1385073
3 175.028 1383975
3 175.028 1382965
3 175.028 1375985
3 176.857 1375795
3 177.731 1375547
3 177.731 1374641
3 177.731 1365553
3 178.641 1365367
3 181.079 1364196
3 181.907 1363412
3 181.907 1355333
3 182.786 1464861
3 182.786 1463618
3 182.786 1427328
3 182.786 1424351
3 182.786 1421993
3 183.756 1412352
3 183.756 1401531
3 183.756 1398785
3 183.756 1390202
3 183.756 1389102
3 183.756 1383592
3 183.756 1379759
3 184.771 1376782
3 185.591 1375026
3 185.591 1372166
3 185.591 1372140
3 185.591 1371914
3 185.591 1369741
3 186.573 1362936
3 187.478 1361527
3 188.333 1360693
3 188.333 1359792
3 188.333 1351373
3 189.277 1350419
3 189.277 1347321
3 190.199 1343773
3 190.199 1342654
3 193.5 1341382
3 193.5 1336603
3 194.386 1333311
3 194.386 1332137
3 194.386 1330334
3 195.278 1326872
3 196.496 1505142
3 196.496 1489261
3 196.496 1457541
3 196.496 1456399
3 196.496 1441348
3 196.496 1419031
3 196.496 1418425
3 196.496 1403836
3 196.496 1402789
3 196.496 1399883
3 196.496 1395933
3 197.441 1379721
3 197.441 1378060
3 197.441 1377566
3 197.441 1376734
3 197.441 1374251
3 198.267 1372098
3 198.267 1371435
3 198.267 1367661
3 198.267 1366456
3 198.267 1361292
3 198.267 1360245
3 199.587 1359327
3 199.587 1358609
3 201.834 1356415
3 202.403 1355863
3 202.403 1349842
3 202.403 1344868
3 202.403 1337519
3 202.403 1331542
3 203.126 1330921
3 203.126 1328778
3 203.126 1326546
3 203.776 1325644
3 203.776 1324763
3 204.376 1323696
3 204.376 1322527
3 205.516 1321287
3 205.516 1318587
3 206.115 1318104
3 207.28 1315681
3 207.28 1314680
3 210.079 1433456
3 210.079 1432504
3 210.079 1431623
3 210.079 1430576
3 210.079 1428700
3 210.079 1426736
3 210.079 1425753
3 210.882 1423823
3 210.882 1379723
3 210.882 1369704
3 210.882 1365316
3 211.563 1361593
3 211.563 1359842
3 211.563 1357868
3 211.563 1355088
3 211.563 1354134
3 212.289 1351036
3 212.289 1343195
3 212.289 1341123
3 217.171 1340675
3 217.171 1339432
1 218.423 1338732
3 218.423 1337354
3 218.423 1336307
3 219.107 1334154
3 219.107 1331870
3 219.107 1331381
3 219.792 1330688
3 224.285 1434224
3 224.285 1429691
3 224.285 1418546
3 224.285 1406280
3 225.249 1404127
3 225.249 1396439
3 225.249 1394661
3 225.249 1386761
3 225.249 1386285
3 225.249 1385042
3 225.249 1383855
3 225.249 1368834
3 226.852 1364453
3 226.852 1356681
3 226.852 1351870
3 226.852 1350556
3 227.733 1349143
3 227.733 1344908
3 227.733 1343131
3 227.733 1341592
3 227.733 1341280
3 227.733 1335937
3 228.529 1334439
3 228.529 1333125
3 228.529 1329435
3 228.529 1328087
3 228.529 1327959
3 228.529 1326716
3 229.992 1326425
3 230.574 1325911
3 230.574 1325824
3 230.574 1324182
3 230.574 1324073
3 230.574 1323671
3 232.449 1323331
3 237.595 1318066
3 238.431 1429988
3 238.431 1429900
3 238.431 1427166
3 238.431 1424189
3 238.431 1417835
3 238.431 1412470
3 238.431 1409372
3 239.54 1406466
3 239.54 1382544
3 239.54 1382180
3 240.634 1380630
3 243.156 1369298
3 244.021 1366639
3 244.021 1366146
3 244.021 1365592
3 246.137 1364464
3 246.137 1350385
3 248.024 1347489
3 248.949 1347142
3 248.949 1344989
3 249.89 1342083
3 252.501 1442694
3 252.501 1437533
3 252.501 1421464
3 252.501 1402892
3 252.501 1401002
3 252.501 1399739
3 252.501 1393210
3 252.501 1391188
3 252.501 1390073
3 253.716 1389026
3 253.716 1379344
3 253.716 1377295
3 253.716 1370531
3 254.729 1369536
3 255.611 1367345
3 256.52 1366036
3 258.283 1363059
3 258.283 1362633
3 259.221 1361940
3 266.149 1459407
3 266.149 1456430
3 266.149 1445242
3 266.149 1438269
3 266.149 1437445
3 266.149 1423614
3 266.149 1422407
3 266.149 1415091
3 266.149 1406279
3 266.149 1404007
3 266.149 1400427
3 266.149 1399184
3 266.149 1384335
3 266.149 1375252
3 266.149 1369812
3 267.531 1365880
3 268.371 1357980
3 268.371 1349841
3 268.371 1346432
3 269.299 1345632
3 270.129 1344810
3 270.129 1343320
3 270.129 1323923
3 270.129 1323712
3 270.129 1322932
3 271.113 1320971
3 271.113 1319988
3 272.008 1318781
3 272.008 1317780
3 272.902 1317107
3 273.704 1315844
3 273.704 1312332
3 273.704 1311213
3 273.704 1309445
3 273.704 1309111
3 275.994 1307873
3 276.606 1306929
3 280.441 1421510
3 280.441 1420481
3 280.441 1416633
3 280.441 1409352
3 280.441 1403597
3 280.441 1402495
3 280.441 1392700
3 281.246 1389048
3 281.246 1388367
3 281.246 1385289
3 281.246 1380805
3 281.246 1380633
3 281.976 1372050
3 281.976 1370305
3 281.976 1364262
3 281.976 1363807
3 281.976 1363054
3 281.976 1361776
3 281.976 1361338
3 282.804 1359706
3 282.804 1355489
3 282.804 1354023
3 282.804 1346928
3 282.804 1346184
3 283.51 1338204
3 283.51 1337511
3 283.51 1337456
3 284.146 1334988
3 284.146 1334364
3 284.784 1331181
3 286.438 1330575
3 287.009 1327326
3 287.594 1326464
3 287.594 1325707
3 288.222 1324118
3 288.222 1318349
3 290.071 1315490
3 290.071 1314443
3 290.071 1313503
3 291.834 1311156
3 292.976 1310898
3 294.102 1413847
3 294.102 1412948
3 294.102 1391959
3 294.102 1384394
3 294.102 1378158
3 294.102 1370838
3 294.888 1370593
3 294.888 1369174
3 294.888 1368456
3 294.888 1365255
3 294.888 1363207
3 294.888 1358070
3 295.635 1358066
3 295.635 1357164
3 296.243 1355160
3 296.243 1351290
3 296.855 1349836
3 300.181 1345948
3 300.761 1344781
3 300.761 1343423
3 301.378 1343179
3 301.378 1342818
3 302.009 1341373
3 302.607 1339912
3 302.607 1338705
3 306.559 1338041
3 307.177 1337570
3 308.309 1450546
3 308.309 1432517
3 308.309 1431470
3 308.309 1423894
3 308.309 1421449
3 308.309 1418112
3 308.309 1417328
3 308.309 1414022
3 308.309 1410814
3 309.159 1406915
3 309.159 1406592
3 309.159 1402797
3 309.159 1399715
3 309.159 1398761
3 309.889 1393314
3 310.481 1392596
3 310.481 1387869
3 310.481 1387544
3 310.481 1385020
3 311.171 1384793
3 311.764 1382611
3 311.764 1378525
3 312.397 1376568
3 312.397 1371206
3 312.397 1367554
3 312.397 1364456
3 312.397 1358054
3 312.397 1355060
3 313.193 1355039
3 313.193 1354894
3 313.193 1353825
3 313.842 1352114
3 314.436 1351871
3 315.039 1350726
3 315.039 1348556
3 315.66 1341743
3 315.66 1339909
3 316.829 1338837
3 317.411 1336684
3 322.434 1371505
3 322.434 1368407
3 322.434 1364810
3 322.434 1361432
3 323.301 1359546
3 323.301 1351278
3 323.301 1349537
3 323.301 1342656
3 323.301 1341781
3 323.301 1340727
3 323.301 1338047
3 323.301 1332706
3 324.255 1330696
3 325.03 1329335
3 325.03 1329181
3 325.805 1328401
3 326.556 1325206
3 326.556 1324221
3 326.556 1323859
3 326.556 1323359
3 326.556 1322354
3 326.556 1318698
3 327.562 1318461
3 327.562 1316842
3 331.185 1316284
3 331.185 1314592
3 336.358 1370580
3 336.358 1368565
3 336.358 1362522
3 336.358 1361608
3 336.358 1354473
3 336.358 1349977
3 337.973 1349768
3 337.973 1346952
3 337.973 1345744
3 339.274 1345253
3 339.274 1345218
3 339.975 1339868
3 341.328 1334537
3 341.328 1334147
3 341.328 1331114
3 343.172 1329041
3 343.172 1325647
3 343.802 1324011
3 343.802 1323189
3 343.802 1322235
3 350.563 1410813
3 350.563 1391132
3 350.563 1388218
3 350.563 1387734
3 350.563 1377580
3 351.441 1374351
3 351.441 1366936
3 351.441 1366687
3 352.228 1361226
3 352.228 1361037
3 352.228 1359983
3 352.228 1359376
3 352.228 1349759
3 352.228 1347606
3 352.228 1346441
3 353.157 1345394
3 353.157 1339330
3 353.157 1337500
3 353.861 1336747
3 353.861 1335540
3 353.861 1333289
3 354.714 1329637
3 354.714 1328090
3 356.003 1327455
3 356.605 1326761
3 356.605 1325836
3 357.274 1324524
3 358.478 1318811
3 359.089 1317580
3 359.089 1316533
3 359.746 1313196
3 361.566 1311889
3 361.566 1311171
3 364.166 1437607
3 364.166 1435557
3 364.166 1423728
3 364.166 1422225
3 364.166 1415141
3 364.166 1412988
3 364.166 1411566
3 365.128 1408660
3 365.128 1402335
3 365.128 1399869
3 365.795 1398626
3 365.795 1387769
3 365.795 1386628
3 365.795 1358791
3 365.795 1353661
3 366.661 1352905
3 366.661 1351858
3 367.333 1351407
3 373.895 1348600
3 374.808 1348309
3 374.808 1336484
3 374.808 1333689
3 374.808 1332642
3 375.866 1332478
3 375.866 1331184
3 376.826 1330608
3 376.826 1329561
3 377.74 1328930
3 378.61 1431438
3 378.61 1421483
3 378.61 1418385
3 378.61 1417605
3 379.58 1416451
3 379.58 1411038
3 379.58 1409795
3 379.58 1408676
3 379.58 1400904
3 379.58 1393664
3 379.58 1385164
3 379.58 1382482
3 379.58 1380038
3 379.58 1376386
3 379.58 1375404
3 379.58 1365845
3 380.77 1359609
3 380.77 1352586
3 380.77 1350257
3 383.303 1341587
3 383.97 1340804
3 384.541 1336699
3 384.541 1335825
3 392.451 1453609
3 392.451 1452911
3 392.451 1450005
3 392.451 1424212
3 392.451 1416312
3 392.451 1407570
3 393.258 1403786
3 393.258 1399764
3 393.258 1396634
3 393.258 1388527
3 393.258 1386678
3 393.258 1385703
3 393.258 1378736
3 394.004 1375127
3 394.004 1371475
3 394.004 1368273
3 394.004 1356007
3 394.004 1345796
3 396.233 1345697
3 396.233 1343785
3 396.848 1342073
3 396.848 1341344
3 396.848 1340879
3 400.729 1330734
3 406.434 1453966
3 406.434 1427859
3 406.434 1414792
3 406.434 1407152
3 406.434 1403503
3 406.434 1402260
3 406.434 1389994
3 406.434 1383694
3 406.434 1382486
3 406.434 1381340
3 406.434 1379491
3 406.434 1365690
3 407.657 1364226
3 408.496 1364105
3 408.496 1362055
3 409.17 1350259
3 409.735 1340833
3 410.298 1338081
3 410.851 1336793
3 412.503 1328468
3 413.069 1328322
3 415.338 1327013
3 415.338 1323552
3 415.338 1322345
3 415.982 1320884
3 417.082 1320680
3 417.082 1319962
3 417.751 1318817
3 420.522 1490504
3 420.522 1474435
3 420.522 1472667
3 420.522 1467153
3 420.522 1466367
3 421.35 1445448
3 421.35 1441302
3 421.35 1437808
3 423.38 1434970
3 423.38 1420198
3 424.262 1411953
3 424.262 1397754
3 424.262 1392724
3 424.262 1384305
3 425.151 1365413
3 425.151 1357116
3 425.151 1356870
3 425.151 1349336
3 425.983 1342821
3 425.983 1342649
3 425.983 1341849
3 426.736 1340247
3 427.338 1339413
3 427.338 1338111
3 427.936 1331793
3 427.936 1330778
3 428.528 1328390
3 428.528 1326018
3 432.436 1324946
3 432.436 1324716
3 434.127 1402522
3 434.127 1400231
3 434.127 1394526
3 434.127 1387442
3 434.801 1372611
3 434.801 1366930
3 434.801 1366254
3 434.801 1366181
3 435.532 1357522
3 435.532 1355577
3 435.532 1352925
3 436.202 1345597
3 436.803 1345429
3 440.913 1345050
3 441.529 1345002
3 441.529 1344716
3 442.102 1343669
3 442.715 1343633
3 442.715 1343183
3 442.715 1342550
3 443.902 1341938
3 445.619 1340637
3 445.619 1339785
3 448.394 1455062
3 448.394 1445374
3 448.394 1426120
3 448.394 1422772
3 448.394 1412618
3 448.394 1411231
3 448.394 1408254
3 448.394 1408242
3 448.394 1405639
3 448.394 1402334
3 449.267 1397274
3 449.267 1392300
3 449.267 1390086
3 449.267 1381582
3 449.267 1379695
3 449.267 1371813
3 449.267 1367906
3 450.038 1362381
3 450.038 1358428
3 450.038 1355316
3 450.038 1347416
3 450.697 1342340
3 451.255 1338668
3 451.255 1334883
3 451.255 1334281
3 452.378 1331469
3 453.983 1330727
3 454.543 1329224
3 455.121 1328880
3 455.121 1327149
3 455.121 1326109
3 455.742 1324481
3 455.742 1323503
3 457.386 1323498
3 457.944 1321666
3 462.202 1478867
3 462.202 1474564
3 462.202 1471431
3 462.202 1457026
3 462.202 1452820
3 462.938 1448313
3 462.938 1439202
3 463.589 1427912
3 463.589 1425674
3 463.589 1424555
3 463.589 1402750
3 463.589 1401340
3 463.589 1399572
3 464.319 1398640
3 464.319 1397506
3 464.319 1395882
3 464.964 1395102
3 464.964 1393211
3 464.964 1388541
3 464.964 1385349
3 464.964 1380188
3 465.701 1378945
3 465.701 1368791
3 466.317 1367584
3 467.995 1362612
3 468.597 1362256
3 468.597 1359154
3 469.218 1358737
3 469.218 1353665
3 470.365 1351552
3 470.365 1345316
3 470.365 1344725
3 472.662 1343967
3 473.761 1342146
3 476.486 1508094
3 476.486 1497241
3 476.486 1482179
3 476.486 1462228
3 476.486 1437153
3 476.486 1432635
3 476.486 1413406
3 476.486 1412945
3 476.486 1403997
3 477.257 1392095
3 477.257 1380148
3 477.257 1373384
3 477.257 1368149
3 477.257 1366772
3 477.257 1365638
3 477.962 1364174
3 477.962 1357284
3 477.962 1351974
3 477.962 1348408
3 478.607 1345502
3 478.607 1344455
3 479.736 1334310
3 480.82 1332979
3 480.82 1332909
3 480.82 1332694
3 480.82 1325149
3 480.82 1323906
3 480.82 1322888
3 481.507 1321702
3 490.309 1403616
3 490.309 1402081
3 490.309 1389307
3 490.309 1384461
3 490.309 1381967
3 490.309 1375329
3 490.309 1374883
3 490.309 1373640
3 491.074 1357903
3 491.074 1357606
3 491.074 1351836
3 491.074 1350217
3 491.718 1347461
3 491.718 1343543
3 491.718 1337867
3 492.582 1336804
3 493.789 1333871
3 493.789 1331396
3 493.789 1330277
3 493.789 1328789
3 493.789 1328509
3 494.475 1327662
3 494.475 1326944
3 496.083 1326853
3 499.672 1322736
3 504.325 1418860
3 504.325 1414666
3 504.325 1404225
3 504.325 1398556
3 504.325 1395857
3 504.325 1393577
3 504.325 1391187
3 504.325 1382302
3 504.325 1373948
3 504.325 1373676
3 505.129 1372148
3 505.129 1371624
3 505.129 1363326
3 505.129 1361074
3 505.756 1359384
3 506.298 1351484
3 506.843 1347517
3 506.843 1345364
3 507.467 1345361
3 507.467 1344581
3 507.467 1342508
3 507.467 1342302
3 507.467 1341921
3 508.135 1341604
3 508.135 1338153
3 508.692 1337343
3 508.692 1336625
3 508.692 1334065
3 509.283 1328396
3 509.283 1327839
3 509.283 1327699
3 509.875 1326473
3 510.409 1325469
3 510.962 1325230
3 510.962 1325063
3 510.962 1324109
3 511.57 1323048
3 512.1 1322563
3 513.193 1321266
3 513.744 1321239
3 513.744 1315196
3 513.744 1314663
3 518.434 1451487
3 518.434 1446326
3 518.434 1444173
3 518.434 1436273
3 518.434 1413722
3 518.434 1396628
3 518.434 1395043
3 518.434 1390308
3 518.434 1379339
3 519.244 1375153
3 519.244 1373059
3 519.244 1362688
3 519.244 1359641
3 519.244 1352597
3 519.918 1351697
3 519.918 1351354
3 519.918 1349313
3 519.918 1348986
3 519.918 1343336
3 520.576 1341738
3 521.125 1340531
3 521.67 1339764
3 522.22 1339129
3 522.22 1338645
3 522.793 1338607
3 523.386 1337927
3 532.259 1469928
3 532.259 1452421
3 532.259 1449444
1 532.259 1436377
3 532.259 1415915
3 532.259 1413762
3 532.259 1411742
3 532.259 1410650
3 532.259 1388155
3 533.145 1374076
3 533.145 1367232
3 533.762 1346947
3 534.34 1338557
3 534.34 1335459
3 535.508 1334886
3 535.508 1333932
3 535.508 1327661
3 536.152 1327339
3 536.152 1326292
3 536.152 1325574
3 536.806 1325145
3 536.806 1320642
3 537.431 1319531
3 537.986 1319498
3 538.582 1318255
3 538.582 1317417
3 538.582 1317133
3 539.239 1316415
3 539.809 1315432
3 540.364 1315384
3 546.368 1455646
3 546.368 1435184
3 546.368 1431543
3 546.368 1426382
3 546.368 1425316
3 546.368 1425034
3 546.368 1407078
3 547.16 1406865
3 547.16 1404925
3 547.16 1403734
3 547.16 1396865
3 547.16 1393213
3 547.16 1392049
3 547.16 1389955
3 547.16 1388187
3 547.16 1380616
3 547.16 1379497
3 548.002 1369544
3 548.625 1360428
3 548.625 1359399
3 549.234 1357223
3 549.234 1356493
3 549.843 1355858
3 549.843 1353872
3 549.843 1349694
3 550.516 1347825
3 550.516 1344415
3 551.743 1343432
3 551.743 1340455
3 556.593 1330887
3 557.173 1330487
3 557.173 1324132
3 558.511 1324011
3 559.84 1323403
3 560.419 1457439
3 560.419 1446620
3 560.419 1439611
3 560.419 1434723
3 560.419 1424578
1 560.419 1389436
3 560.419 1386829
3 560.419 1384113
3 561.269 1381559
3 561.269 1380605
3 561.923 1378714
3 561.923 1378546
3 561.923 1378060
3 561.923 1375235
3 561.923 1374028
3 561.923 1373741
3 561.923 1372198
3 561.923 1371566
3 562.797 1368589
3 562.797 1368558
3 562.797 1366884
3 563.423 1365700
3 563.423 1362054
3 563.423 1349127
3 563.423 1343409
3 564.086 1340432
3 564.65 1335998
3 564.65 1335271
3 572.49 1333256
3 572.49 1332445
3 572.49 1331740
3 572.49 1329604
3 573.815 1326492
3 574.393 1419510
3 574.393 1410309
3 574.393 1407395
3 574.393 1402795
3 574.393 1402385
3 574.393 1399367
3 574.393 1388063
3 574.393 1384149
3 575.203 1381172
3 575.203 1371027
3 575.203 1362252
3 575.203 1360484
3 575.886 1359766
3 575.886 1359707
3 575.886 1359021
3 576.547 1356468
3 577.107 1355973
3 577.677 1355255
3 577.677 1353069
3 578.3 1350901
3 578.3 1347487
3 579.439 1346833
3 580.02 1345796
3 580.02 1344543
3 580.633 1344333
3 581.187 1343496
3 588.452 1449846
3 588.452 1430642
3 588.452 1401076
3 588.452 1392842
3 588.452 1366765
3 588.452 1364997
3 588.452 1353748
3 589.633 1345567
3 590.538 1344893
3 590.538 1344655
3 591.416 1342386
3 592.279 1342231
3 602.022 1430032
3 602.022 1422392
3 602.022 1414379
3 602.022 1394200
3 602.022 1384046
3 602.022 1384045
3 603.196 1376145
3 603.196 1364661
3 603.196 1363109
3 603.196 1355382
3 603.196 1353604
3 603.196 1352487
3 604.221 1348072
3 604.221 1345266
3 604.221 1344061
3 605.158 1343493
3 605.158 1343464
3 605.158 1334150
3 606.058 1333907
3 606.058 1330930
3 606.058 1329233
3 606.981 1326393
3 609.348 1325908
3 612.558 1325696
3 612.558 1323416
3 613.466 1321937
3 613.466 1321481
3 613.466 1320502
3 616.704 1425312
3 616.704 1417332
3 616.704 1400767
3 616.704 1399906
3 616.704 1397753
3 616.704 1390181
3 616.704 1389695
3 616.704 1387282
3 617.913 1370733
3 617.913 1369680
3 618.813 1363547
3 619.817 1362873
3 619.817 1359686
3 619.817 1359620
3 619.817 1354525
3 621.001 1352696
3 621.976 1351978
3 623.606 1351619
3 630.734 1449745
3 630.734 1439313
3 630.734 1435047
3 630.734 1433604
3 630.734 1411489
3 630.734 1410785
3 630.734 1404129
3 630.734 1396327
3 630.734 1393586
3 630.734 1379643
3 630.734 1377100
3 631.987 1375498
3 631.987 1373667
3 632.868 1361751
3 632.868 1351869
3 632.868 1345341
3 633.793 1339298
3 635.534 1338309
3 636.405 1338072
3 636.405 1337060
3 637.317 1336615
3 637.317 1336282
3 638.27 1335843
3 638.27 1334796
3 638.27 1334361
3 639.237 1334101
3 640.111 1332982
3 644.35 1404287
3 644.35 1403569
3 644.35 1387553
3 644.35 1384576
3 645.356 1382722
3 645.356 1367243
3 646.278 1365987
3 647.175 1363834
3 647.175 1363493
3 654.459 1362249
3 657.313 1361862
3 657.313 1361138
3 657.313 1360619
3 657.973 1358466
3 657.973 1345191
3 658.603 1501062
3 658.603 1498062
3 658.603 1495847
3 658.603 1472377
3 658.603 1453148
3 658.603 1450242
3 658.603 1444006
3 658.603 1442194
3 658.603 1436626
1 658.603 1426956
3 658.603 1423600
3 659.522 1403973
3 659.522 1401923
3 659.522 1401697
3 659.522 1400153
3 659.522 1398585
3 659.522 1392542
3 660.271 1392090
3 660.271 1386402
3 660.271 1385684
3 660.271 1382515
3 660.271 1381138
3 660.271 1378578
3 660.98 1371813
3 660.98 1360207
3 660.98 1359918
3 661.615 1357012
3 661.615 1349775
3 662.23 1348548
3 662.23 1340815
3 662.23 1339572
3 662.23 1338407
3 662.23 1337852
3 662.23 1337851
3 663.021 1337433
3 663.021 1337317
3 663.021 1335280
3 663.021 1334409
3 663.021 1329618
3 663.776 1329318
3 664.342 1322927
3 664.342 1322178
3 664.342 1321961
3 664.971 1318309
3 665.543 1318026
3 665.543 1311335
3 672.213 1395928
3 672.213 1360290
3 672.213 1356953
3 672.213 1352555
3 672.213 1350536
3 672.213 1349247
3 672.213 1347094
3 673.028 1345370
3 673.028 1344374
3 673.028 1341037
3 673.028 1337366
3 673.028 1337100
3 673.028 1333938
3 673.028 1333636
3 673.79 1333599
3 673.79 1329542
3 674.417 1327501
3 674.995 1324220
3 674.995 1321616
3 675.598 1321258
3 676.705 1318668
3 680.509 1318160
3 681.094 1314850
3 681.094 1314577
3 681.094 1314132
3 681.71 1311924
3 686.356 1432057
3 686.356 1416028
3 686.356 1401007
3 686.356 1390053
3 686.356 1389877
3 686.356 1386499
3 686.356 1381520
3 686.356 1373773
3 686.356 1373620
3 686.356 1368287
3 686.356 1364685
3 687.439 1361033
3 687.439 1357935
3 688.04 1355878
3 688.04 1340657
3 688.04 1338147
3 692.406 1336700
3 693.071 1333423
3 693.071 1330325
3 693.81 1329629
3 694.376 1329551
3 695.578 1329426
3 695.578 1328646
3 696.717 1328244
3 696.717 1327993
3 697.371 1327406
3 697.939 1326768
3 697.939 1323659
3 697.939 1322941
3 698.587 1321698
3 699.175 1320411
3 699.175 1319637
3 699.175 1319525
3 699.843 1319204
3 699.843 1316809
3 700.438 1431309
3 700.438 1422357
3 700.438 1417422
3 701.103 1414178
3 701.103 1407268
3 701.103 1404042
3 701.103 1396448
3 701.103 1392022
3 701.849 1390369
3 701.849 1389322
3 701.849 1388758
3 702.584 1388574
3 702.584 1387202
3 702.584 1385049
3 704.051 1382999
3 704.637 1375897
3 704.637 1374151
3 705.259 1373997
3 705.259 1361731
3 705.889 1358436
3 705.889 1356386
3 707.612 1355161
3 708.218 1354484
3 708.218 1351372
3 708.815 1346211
3 709.379 1345381
3 709.946 1337669
3 714.175 1441717
3 714.175 1440670
3 714.175 1437820
3 714.175 1430516
3 714.175 1427911
3 714.175 1407373
3 714.175 1403276
3 714.175 1401463
3 714.968 1379889
3 714.968 1375466
3 714.968 1372368
3 714.968 1367346
3 715.688 1365637
3 715.688 1363008
3 715.688 1362208
3 716.331 1359911
3 716.331 1356578
3 716.331 1355223
3 717.016 1350082
3 717.609 1349793
3 718.183 1347486
3 718.943 1346025
3 719.687 1345464
3 720.263 1343414
3 720.263 1343402
3 720.263 1340451
3 720.953 1340302
3 720.953 1339522
3 722.072 1337647
3 722.072 1334746
3 722.072 1333144
3 722.74 1331740
3 722.74 1331331
3 723.843 1330757
3 725.034 1330458
3 725.034 1330161
3 728.402 1432638
3 728.402 1418559
3 728.402 1415222
3 728.402 1415001
3 728.402 1409511
3 728.402 1395907
3 728.402 1394807
3 728.402 1392625
3 728.402 1392051
3 729.218 1391572
3 729.218 1391333
3 729.218 1388569
3 729.218 1384172
3 729.873 1380176
3 729.873 1379051
3 729.873 1374605
3 729.873 1373622
3 729.873 1368994
3 729.873 1366812
3 730.58 1357721
3 730.58 1355703
3 730.58 1354242
3 730.58 1353702
3 731.224 1351759
3 731.224 1351611
3 731.224 1346154
3 731.224 1343141
3 732.385 1340235
3 732.385 1337975
3 734.6 1335792
3 735.899 1333860
3 736.562 1333708
3 737.165 1332248
3 738.81 1331802
3 738.81 1330095
3 741.709 1329416
3 742.279 1448873
3 742.279 1416831
3 742.279 1412765
3 742.279 1409765
3 742.279 1408110
3 742.279 1407402
3 742.279 1405278
3 742.279 1402423
3 742.279 1393453
3 743.172 1390476
3 743.172 1387570
3 743.172 1381334
3 743.172 1376759
3 743.172 1376538
3 743.881 1374508
3 743.881 1374192
3 743.881 1371466
3 743.881 1371298
3 743.881 1370907
3 743.881 1365228
3 744.596 1358144
3 744.596 1353678
3 744.596 1352435
3 745.739 1351554
3 745.739 1351322
3 746.316 1347670
3 746.868 1347347
3 747.423 1345380
3 747.423 1344333
3 747.423 1334656
3 748.288 1334229
3 748.288 1332910
3 748.288 1331956
3 748.288 1330636
3 748.288 1328950
3 749.235 1328454
3 749.235 1324099
3 750.838 1321193
3 756.241 1443705
1 756.241 1426411
3 756.241 1418262
3 756.241 1411144
3 756.241 1401401
3 756.241 1396505
3 756.241 1387963
3 756.241 1379823
3 756.241 1368002
3 756.241 1367079
3 756.241 1364796
3 757.399 1363749
3 757.399 1353418
3 757.399 1350181
3 757.399 1349587
3 759.017 1347745
3 759.8 1345423
3 759.8 1342051
3 760.737 1341004
3 760.737 1340286
3 761.601 1337677
3 761.601 1336786
3 762.434 1336370
3 764.023 1335292
3 765.595 1332386
3 767.898 1330085
3 768.697 1329704
3 770.238 1438448
3 770.238 1409826
3 770.238 1407673
3 770.238 1404771
3 770.238 1402280
3 770.238 1401808
3 770.238 1400583
3 770.238 1388589
3 770.238 1388117
3 770.238 1388009
3 770.238 1387804
3 771.388 1387477
3 771.388 1387248
3 771.388 1386674
3 771.388 1385467
3 771.388 1368161
3 771.388 1357762
3 771.388 1352734
3 771.388 1352459
3 771.388 1350277
3 772.443 1349177
3 773.298 1341537
3 773.298 1340595
3 774.165 1339356
3 774.165 1332430
3 775.868 1331100
3 775.868 1326972
3 775.868 1324243
3 778.268 1324088
3 781.364 1321943
3 784.448 1510388
3 784.448 1503597
3 784.448 1501627
3 784.448 1477562
3 784.448 1471555
3 784.448 1466936
3 784.448 1456791
3 785.431 1429048
3 785.431 1428255
3 785.431 1423299
3 785.431 1411942
3 785.431 1409564
3 785.431 1408357
3 785.431 1406781
3 785.431 1404480
3 785.431 1403867
3 786.533 1393123
3 786.533 1370436
3 786.533 1359079
3 786.533 1358197
3 786.533 1353782
3 786.533 1347086
3 787.524 1346849
1 787.524 1343935
3 787.524 1343217
3 788.467 1342437
3 788.467 1340387
3 788.467 1337787
3 789.461 1336844
3 789.461 1336461
3 789.461 1335270
3 789.461 1334308
3 790.392 1332944
3 790.392 1329974
3 790.392 1329921
3 790.392 1327543
3 791.283 1327386
3 791.283 1326023
3 792.13 1325139
3 792.13 1323569
3 792.13 1322789
3 793.003 1322282
3 793.003 1320100
3 793.003 1319375
3 795.352 1315828
3 798.455 1403864
3 798.455 1403265
3 798.455 1400738
3 798.455 1385246
3 798.455 1378339
3 798.455 1370712
3 798.455 1369135
3 798.455 1368664
3 798.455 1367316
3 799.52 1361017
3 799.52 1358835
3 800.374 1355425
3 800.374 1354454
3 800.374 1353022
3 801.239 1351087
3 802.988 1350503
3 804.96 1349692
3 805.515 1349461
3 805.515 1348399
3 805.515 1343238
3 806.19 1337710
3 806.19 1336640
3 806.796 1329292
3 807.875 1327900
3 807.875 1325182
3 807.875 1319227
3 808.506 1315706
3 808.506 1314864
3 812.287 1406123
3 812.287 1405434
3 812.287 1401273
3 812.287 1394313
3 812.287 1390116
3 812.287 1389690
3 812.287 1389097
3 812.287 1380550
3 813.259 1378360
3 813.259 1377642
3 813.259 1376734
3 813.942 1376040
3 813.942 1373678
3 813.942 1365853
3 814.597 1353606
3 814.597 1350525
3 814.597 1348810
3 815.222 1348453
3 815.222 1345936
3 815.222 1344106
3 815.841 1341591
3 815.841 1341561
3 815.841 1337513
3 816.465 1335782
3 817.628 1334906
3 818.199 1333942
3 818.199 1333138
3 826.455 1459041
3 826.455 1434052
3 826.455 1417983
3 826.455 1407838
3 826.455 1406551
3 826.455 1403262
3 826.455 1384712
3 827.442 1379416
3 827.442 1375551
3 827.442 1374962
3 828.176 1373178
3 828.176 1356943
3 829.423 1351288
3 837.108 1344562
3 837.736 1344559
3 837.736 1338452
3 837.736 1338056
3 838.389 1335903
3 838.389 1334696
3 839.022 1333453
3 840.153 1421446
3 840.153 1415956
3 840.153 1406981
3 840.153 1392161
3 840.153 1386703
3 840.153 1385115
3 840.153 1382213
3 840.153 1378426
3 840.153 1378033
3 840.153 1376282
3 841.109 1375564
3 841.109 1374509
3 841.762 1374362
3 841.762 1373514
3 841.762 1373133
3 842.442 1368201
3 842.442 1367451
3 842.442 1365408
3 843.126 1364545
3 843.126 1362113
3 843.126 1361395
3 843.126 1359180
3 844.359 1357937
3 844.359 1353650
3 845.521 1349998
3 854.8 1445064
3 854.8 1436084
3 854.8 1423249
3 854.8 1420446
3 854.8 1414439
3 854.8 1411616
3 854.8 1407770
3 854.8 1392387
3 854.8 1387869
3 854.8 1384963
3 854.8 1381223
3 856.015 1373889
3 856.015 1370022
3 856.015 1369039
3 856.015 1351377
3 856.015 1349900
3 857.041 1346362
3 857.041 1345315
3 857.041 1343547
3 857.964 1341650
3 857.964 1339723
3 857.964 1338882
3 858.857 1336620
3 859.683 1335413
3 859.683 1333645
3 859.683 1331249
3 859.683 1329843
3 859.683 1329429
3 859.683 1328600
3 861.485 1328189
3 861.485 1326270
3 861.485 1325217
3 861.485 1325086
3 861.485 1324103
3 861.485 1321960
3 861.485 1320536
3 862.528 1319635
3 862.528 1319582
3 862.528 1316457
3 862.528 1316432
3 864.939 1313287
3 866.795 1312569
3 866.795 1312160
3 866.795 1310336
3 866.795 1309062
3 867.703 1307819
3 868.274 1393981
3 868.274 1380244
3 868.274 1372058
3 868.274 1369642
3 868.274 1363018
3 868.274 1356697
3 868.274 1353799
3 869.192 1347848
3 869.192 1347365
3 869.192 1346647
3 869.972 1345199
3 870.539 1344620
3 870.539 1343795
3 870.539 1343296
3 870.539 1342171
1 871.729 1341645
3 871.729 1340042
3 871.729 1339324
3 871.729 1338663
3 872.376 1336347
3 872.376 1335824
3 872.376 1335762
3 872.376 1335044
3 875.08 1333948
3 875.623 1333007
3 875.623 1332429
3 876.198 1329569
3 876.198 1329568
3 876.198 1325608
3 876.828 1325557
3 876.828 1325309
3 876.828 1324890
3 882.524 1415515
3 882.524 1402598
3 882.524 1401650
3 882.524 1387752
3 882.524 1386769
3 883.26 1386590
3 883.26 1385872
3 883.26 1385732
3 883.26 1384333
3 883.26 1381235
3 883.26 1380711
3 883.979 1379283
3 885.157 1379010
3 885.157 1378961
3 885.157 1375895
3 885.888 1374912
3 885.888 1370976
3 885.888 1369318
3 886.594 1357153
3 886.594 1355465
3 886.594 1351886
3 887.224 1351574
3 887.224 1351038
3 887.224 1347701
3 887.224 1337680
3 887.849 1330596
3 888.41 1324553
3 888.978 1321647
3 888.978 1321237
3 889.586 1320609
3 889.586 1320029
3 896.434 1430166
3 896.434 1427544
3 896.434 1419934
3 896.434 1400558
3 896.434 1398147
3 896.434 1393589
3 896.434 1385068
3 897.216 1377400
3 897.216 1367246
3 897.216 1349665
3 897.216 1345404
3 899.03 1342306
3 903.571 1340264
3 906.885 1336520
3 907.453 1335313
3 910.198 1404473
3 910.198 1396406
3 910.198 1385185
3 910.198 1382916
3 910.198 1372149
3 910.915 1371691
3 910.915 1370844
3 911.518 1362811
3 911.518 1355639
3 911.518 1354056
3 911.518 1346790
3 911.518 1346220
3 912.201 1346021
3 912.807 1345414
3 912.807 1343728
3 912.807 1339973
3 912.807 1338205
3 912.807 1337466
3 913.488 1336737
3 913.488 1336019
3 914.126 1335710
3 914.761 1335271
3 914.761 1334294
3 915.43 1333574
3 916.669 1333571
3 917.25 1332684
3 917.25 1331966
3 918.35 1329235
3 921.186 1328832
3 921.186 1328583
3 922.359 1327378
3 922.359 1325130
3 923.982 1325128
3 924.547 1416378
3 924.547 1405167
3 924.547 1404401
3 924.547 1398260
3 924.547 1392135
3 924.547 1389229
3 925.268 1388026
3 925.268 1381296
3 925.268 1375060
3 925.268 1372586
3 925.268 1369899
3 925.95 1361480
3 926.54 1357400
3 926.54 1353857
3 927.161 1349800
3 927.161 1348205
3 927.161 1347899
3 927.161 1342048
3 927.817 1341875
3 927.817 1341001
3 928.404 1339017
3 928.404 1338095
3 928.404 1337850
3 930.199 1337066
3 930.199 1334358
3 930.896 1333985
3 930.896 1332481
3 932.052 1332255
3 932.052 1329795
3 932.052 1327690
3 932.695 1326608
3 932.695 1325561
3 932.695 1319786
3 933.334 1318899
3 934.932 1316606
3 935.68 1315787
3 936.321 1314716
3 936.321 1314544
3 938.02 1495279
3 938.02 1463823
3 938.02 1449556
3 938.02 1446832
3 938.02 1446444
3 938.02 1443855
3 938.02 1423393
3 938.02 1419741
3 938.02 1414762
3 938.02 1407678
3 938.866 1386104
3 938.866 1375444
3 938.866 1372467
3 939.504 1369355
3 939.504 1368854
3 939.504 1362953
3 940.632 1361347
3 940.632 1348311
3 940.632 1338166
3 941.219 1335819
3 941.219 1335014
3 941.808 1334708
3 942.356 1332968
3 942.356 1330413
3 942.356 1327989
3 943.524 1326576
3 943.524 1322103
3 944.106 1320860
3 944.106 1319375
3 944.681 1315723
3 952.019 1423103
3 952.019 1397310
3 952.019 1395419
3 952.019 1390258
3 952.019 1383433
3 952.019 1380527
3 952.019 1375597
3 952.019 1371638
3 952.019 1367274
3 952.998 1367104
3 952.998 1366057
3 952.998 1364297
3 952.998 1358061
3 953.682 1357217
3 953.682 1353880
3 953.682 1350636
3 953.682 1349178
3 954.328 1347730
3 954.869 1343886
3 954.869 1343453
3 954.869 1339830
3 955.466 1335400
3 956.515 1334954
3 957.058 1334614
3 957.058 1333169
3 957.058 1332648
3 957.655 1331930
3 957.655 1331208
3 957.655 1330018
3 957.655 1326319
3 958.281 1324742
3 958.281 1321272
3 958.848 1320554
3 960.412 1318751
3 960.412 1316598
3 960.981 1315355
3 962.611 1312250
3 962.611 1311572
3 962.611 1308666
3 966.214 1468878
3 966.214 1436952
3 966.214 1432208
3 966.214 1421864
3 966.896 1420154
3 966.896 1419173
3 966.896 1402816
3 967.571 1401805
3 967.571 1401448
3 967.571 1400847
3 968.223 1397749
3 968.813 1387221
3 968.813 1382503
3 968.813 1379391
3 968.813 1376826
3 968.813 1371751
3 971.724 1371105
3 971.724 1370387
3 971.724 1366772
3 972.348 1366619
3 975 1365581
3 975 1365004
3 975.582 1356881
3 975.582 1349336
3 976.164 1347183
3 976.7 1347177
3 977.915 1342638
3 978.473 1342198
3 980.059 1418426
3 980.059 1417466
3 980.059 1413734
3 980.059 1410828
3 980.059 1410740
3 980.059 1403656
3 980.833 1402245
3 980.833 1401516
3 981.474 1392592
3 981.474 1387121
3 981.474 1382127
3 981.474 1368600
3 981.474 1367646
3 982.125 1361317
3 982.125 1357492
3 982.125 1356285
3 982.125 1355024
3 982.125 1354970
3 982.125 1352064
3 982.838 1339798
3 983.919 1338538
3 985.022 1337726
3 985.659 1331364
3 985.659 1330642
3 986.345 1326889
3 993.903 1326354
3 994.458 1425665
3 994.458 1425001
1 994.458 1406550
3 994.458 1394033
3 994.458 1389425
3 994.458 1386313
3 994.458 1376159
3 994.458 1373983
3 994.458 1363780
3 995.233 1360803
3 995.233 1360070
3 995.233 1357705
3 995.233 1352726
3 995.233 1347814
3 995.906 1345920
3 995.906 1344443
3 996.509 1343767
3 996.509 1341579
3 996.509 1340372
3 997.115 1339280
3 997.115 1338322
3 998.204 1336069
3 998.204 1334301
3 998.778 1326528
3 998.778 1321713
3 998.778 1319316
3 998.778 1318376
3 999.404 1318341
3 999.404 1317186
3 999.968 1314074
3 1003.57 1313544
3 1003.57 1313075
3 1008.24 1471245
3 1008.24 1445580
3 1008.24 1433775
3 1008.24 1432568
3 1008.24 1390127
3 1008.24 1383724
3 1008.24 1382517
3 1008.24 1380984
3 1008.98 1380242
3 1008.98 1379524
3 1009.57 1376547
3 1009.57 1374830
3 1009.57 1372401
3 1009.57 1369788
3 1009.57 1369145
3 1010.23 1362256
3 1010.23 1361565
1 1010.82 1351362
3 1010.82 1348456
3 1011.41 1338874
3 1011.41 1337694
3 1011.41 1319880
3 1011.41 1318637
3 1011.41 1317857
3 1012.11 1316874
3 1012.11 1313604
3 1012.11 1313070
3 1012.72 1312116
3 1013.26 1312001
3 1013.26 1311283
3 1013.26 1310727
3 1013.87 1309575
3 1014.42 1309520
3 1022.29 1387184
3 1022.29 1385941
3 1022.29 1384894
3 1022.29 1383751
3 1022.29 1376667
3 1022.29 1372717
3 1023.03 1364952
3 1023.03 1363280
3 1023.03 1363184
3 1023.03 1363041
3 1023.91 1360571
3 1023.91 1350983
3 1023.91 1350029
3 1024.5 1346331
3 1024.5 1345613
3 1024.5 1339991
3 1025.1 1339299
3 1025.1 1335714
3 1025.1 1335633
3 1025.73 1335358
3 1025.73 1333900
3 1026.3 1333056
3 1027.35 1332746
3 1031.43 1331357
3 1036.09 1451310
3 1036.09 1445657
3 1036.09 1443793
3 1036.09 1438921
3 1036.09 1436015
3 1036.09 1431674
3 1036.09 1427211
3 1036.09 1417057
3 1036.09 1416339
3 1036.98 1407387
3 1036.98 1405601
3 1036.98 1405483
3 1036.98 1402838
3 1037.64 1401719
3 1037.64 1397630
3 1037.64 1396434
3 1037.64 1393953
3 1038.31 1373865
3 1038.31 1372958
3 1038.31 1366698
3 1038.31 1352813
3 1038.99 1351082
3 1039.56 1350364
3 1041.2 1350259
3 1041.2 1349036
3 1041.84 1345938
3 1042.41 1345510
3 1042.41 1343357
3 1043.56 1343282
3 1044.65 1342639
3 1045.23 1340493
3 1045.23 1336530
3 1045.83 1334377
3 1045.83 1334222
3 1046.45 1333464
3 1047.02 1332235
3 1048.66 1331124
3 1049.23 1330077
3 1049.23 1329011
3 1050.38 1545681
3 1050.38 1504784
3 1050.38 1497700
3 1050.38 1484936
3 1050.38 1463754
3 1050.38 1461684
3 1050.38 1451481
3 1050.38 1426406
3 1050.38 1424048
3 1050.38 1423330
3 1050.38 1422665
3 1050.38 1422120
3 1051.3 1383573
3 1051.3 1382330
3 1051.3 1378733
3 1051.3 1370233
3 1051.3 1363891
3 1051.3 1350663
3 1051.3 1346648
3 1051.3 1346262
3 1051.3 1345909
3 1052.22 1345633
3 1052.22 1345409
3 1052.22 1344732
3 1052.22 1343256
3 1053.01 1342436
3 1053.01 1334691
3 1053.01 1331785
3 1053.01 1329712
3 1054.23 1328798
3 1054.23 1328638
3 1054.23 1326609
3 1054.23 1323925
3 1054.88 1322971
3 1055.49 1321409
3 1056.1 1318557
3 1056.66 1318503
3 1061.39 1313380
3 1061.94 1313296
3 1061.94 1313273
3 1064.12 1466491
3 1064.12 1462374
3 1064.12 1460221
3 1064.12 1459276
3 1064.12 1458293
1 1064.12 1442467
3 1064.85 1416674
3 1064.85 1416655
3 1064.85 1406634
3 1064.85 1395730
3 1065.51 1393913
3 1065.51 1389259
3 1065.51 1374498
3 1065.51 1372459
3 1065.51 1365102
3 1065.51 1353320
3 1065.51 1346434
3 1065.51 1342966
3 1065.51 1337484
3 1065.51 1335331
3 1066.87 1334164
3 1066.87 1333827
3 1066.87 1332950
3 1066.87 1331737
3 1069.75 1331556
3 1071.35 1331371
3 1074.05 1330494
3 1078.23 1420114
3 1078.23 1411695
3 1078.23 1408027
3 1078.23 1394616
3 1078.23 1391710
3 1078.23 1389747
3 1078.23 1388764
3 1078.96 1385882
3 1078.96 1385296
3 1078.96 1380017
3 1078.96 1371057
3 1078.96 1362161
3 1079.64 1357963
3 1080.21 1353906
3 1080.77 1353543
3 1080.77 1350637
3 1080.77 1347923
3 1080.77 1344116
3 1082.45 1341202
3 1091.08 1339570
3 1091.08 1338327
3 1091.08 1338130
3 1092.26 1443517
3 1092.26 1442429
3 1092.26 1440433
3 1092.26 1428053
3 1092.26 1427660
3 1092.26 1403814
3 1093 1396202
1 1093 1380971
3 1093 1368744
3 1093 1361171
3 1093.66 1356010
3 1093.66 1351995
3 1093.66 1348897
3 1094.27 1348167
3 1094.27 1347869
3 1094.27 1347673
3 1094.27 1346955
3 1094.27 1346417
3 1094.93 1344913
3 1095.48 1337677
3 1095.48 1336694
3 1095.48 1335914
3 1096.09 1333407
3 1096.63 1331757
3 1097.18 1330995
3 1097.18 1325929
3 1098.26 1325211
3 1099.78 1324743
3 1100.33 1324142
3 1100.87 1323963
3 1100.87 1323459
3 1101.45 1322838
3 1102.02 1321969
3 1102.02 1321912
3 1103.85 1321201
3 1104.45 1320660
3 1105 1318928
3 1106.06 1421102
3 1106.06 1414193
3 1106.06 1404918
3 1106.06 1379763
3 1106.06 1377298
3 1106.06 1371344
3 1106.06 1367844
3 1106.06 1360810
3 1106.06 1357698
3 1106.87 1351085
3 1106.87 1349974
3 1107.5 1349664
3 1107.5 1348805
3 1107.5 1340484
3 1107.5 1336780
3 1108.16 1333184
3 1108.16 1330753
3 1108.76 1330647
3 1108.76 1329929
3 1108.76 1327961
3 1108.76 1327486
3 1108.76 1327391
3 1109.41 1324258
3 1109.41 1322028
3 1109.41 1318376
3 1109.41 1318349
3 1109.41 1316217
3 1110.09 1313523
3 1110.09 1312939
3 1110.09 1311670
3 1110.09 1310952
3 1110.74 1310144
3 1110.74 1309888
3 1110.74 1309639
3 1111.85 1307046
3 1111.85 1305858
3 1111.85 1305394
3 1112.45 1305131
3 1120.08 1449384
3 1120.08 1440801
3 1120.08 1437887
3 1120.08 1428832
3 1120.08 1422017
3 1120.08 1395116
3 1120.08 1393183
3 1120.08 1392136
3 1120.08 1388358
3 1120.08 1380694
3 1120.08 1375629
3 1120.08 1373660
3 1121.02 1369697
3 1121.02 1364994
3 1121.02 1355066
3 1121.02 1343795
3 1121.02 1342299
3 1121.02 1342175
3 1121.02 1339231
3 1121.02 1336822
3 1121.02 1335011
3 1121.02 1334242
3 1121.75 1333745
3 1122.28 1332791
3 1122.28 1327412
3 1122.28 1323232
3 1125.46 1321686
3 1126.01 1320443
3 1126.54 1320269
3 1130.6 1319837
3 1131.13 1318553
3 1131.13 1316012
3 1131.13 1315246
3 1131.74 1314263
3 1134.46 1429390
3 1134.46 1405147
3 1134.46 1401838
3 1134.46 1399499
3 1134.46 1396401
1 1135.2 1386581
3 1135.2 1381929
3 1135.2 1377414
3 1135.2 1368010
3 1135.2 1359676
3 1135.2 1359412
3 1136.03 1357871
3 1136.03 1357724
3 1136.03 1355342
3 1136.78 1349890
3 1136.78 1342754
3 1136.78 1342288
3 1136.78 1341241
3 1136.78 1339167
3 1137.5 1338262
3 1138.05 1338045
3 1138.59 1335148
3 1139.13 1333561
3 1139.13 1331449
3 1139.13 1329160
3 1139.13 1327485
3 1139.13 1326816
3 1139.13 1326075
3 1139.84 1322860
3 1140.38 1321741
3 1140.38 1320748
3 1140.38 1318176
3 1140.38 1316569
3 1141.97 1316089
3 1141.97 1315326
3 1148.13 1431135
3 1148.13 1410802
3 1148.13 1407818
3 1148.13 1406454
3 1148.13 1403540
3 1148.13 1397172
3 1148.13 1377943
3 1148.87 1371978
3 1148.87 1371423
3 1148.87 1370216
3 1149.77 1367051
3 1149.77 1365981
3 1150.36 1364323
3 1150.36 1361206
3 1150.36 1348810
3 1150.36 1347042
3 1150.98 1345509
3 1150.98 1341880
3 1150.98 1340018
3 1151.53 1339300
3 1152.59 1337975
3 1152.59 1337084
3 1152.59 1332798
3 1152.59 1331415
3 1152.59 1331322
3 1153.36 1330697
3 1153.36 1329048
3 1153.92 1327323
3 1154.45 1326794
3 1154.45 1325396
3 1155.01 1323115
3 1159.95 1322536
3 1162.47 1481283
3 1162.47 1478185
3 1162.47 1476706
3 1162.47 1452860
3 1162.47 1446143
3 1162.47 1422504
3 1162.47 1419598
3 1162.47 1409453
3 1162.47 1408270
1 1163.27 1394713
3 1163.27 1386996
3 1163.27 1378044
3 1163.27 1377458
3 1163.27 1376215
3 1163.92 1376210
3 1163.92 1370668
3 1164.5 1369011
3 1164.5 1357320
3 1164.5 1354065
3 1164.5 1352968
3 1164.5 1351635
3 1164.5 1350917
3 1165.24 1345906
3 1165.24 1344654
3 1165.24 1339675
3 1166.33 1336905
3 1166.33 1334752
3 1166.33 1325941
3 1166.33 1324958
3 1166.95 1323745
3 1167.5 1321546
3 1168.04 1321365
3 1176.09 1470661
3 1176.09 1463161
3 1176.09 1439522
3 1176.09 1436616
3 1176.09 1422454
3 1176.09 1412621
3 1176.09 1406681
3 1176.09 1389180
3 1176.09 1370429
3 1176.09 1356350
3 1176.09 1354789
3 1176.92 1354372
3 1176.92 1351511
3 1176.92 1351041
3 1177.51 1342412
3 1177.51 1333171
3 1177.51 1329376
3 1178.1 1329060
3 1178.1 1322829
3 1178.1 1320544
3 1178.69 1320256
3 1178.69 1318915
3 1179.77 1318184
3 1180.3 1318097
3 1190.33 1450808
3 1190.33 1436436
3 1190.33 1431083
3 1190.33 1426354
3 1190.33 1392886
3 1190.33 1389239
3 1190.33 1377614
3 1190.33 1376447
3 1190.33 1373680
3 1190.33 1367864
3 1191.19 1362528
3 1191.19 1361360
3 1191.19 1351206
3 1191.19 1349468
3 1191.84 1339377
3 1192.41 1337195
3 1192.99 1335988
3 1193.53 1329774
3 1193.53 1326797
3 1194.62 1326552
3 1194.62 1325309
3 1195.21 1320148
3 1195.21 1320089
3 1195.21 1319302
3 1195.82 1318882
3 1195.82 1318764
3 1195.82 1317248
3 1196.44 1315112
3 1204.01 1476308
3 1204.01 1466163
3 1204.01 1459927
3 1204.01 1457362
3 1204.01 1442341
3 1204.01 1438729
3 1204.01 1430512
3 1204.01 1425310
3 1204.01 1419909
3 1204.85 1407652
3 1204.85 1407150
3 1204.85 1400066
3 1204.85 1389340
3 1204.85 1367435
3 1205.49 1365133
3 1205.49 1361855
3 1205.49 1355693
3 1206.62 1347906
3 1207.19 1345724
3 1207.19 1337125
3 1207.19 1332146
3 1208.3 1330202
3 1208.83 1329960
3 1208.83 1326660
3 1209.4 1325942
3 1218.02 1480882
3 1218.02 1471377
3 1218.02 1464744
3 1218.02 1429890
3 1218.02 1410661
3 1218.02 1389475
3 1218.02 1388757
3 1218.76 1382338
3 1218.76 1375784
3 1218.76 1373734
3 1218.76 1369696
3 1218.76 1369040
3 1219.52 1366883
3 1219.52 1365925
3 1220.66 1363153
3 1220.66 1362738
3 1220.66 1361619
3 1220.66 1360839
3 1221.29 1357862
3 1221.85 1357509
3 1221.85 1353473
3 1222.44 1350567
3 1223.51 1349975
3 1224.04 1349849
3 1228.12 1346620
3 1228.12 1340668
3 1228.12 1339496
3 1228.72 1338038
3 1228.72 1334614
3 1229.3 1334530
3 1229.3 1332193
3 1229.87 1332126
3 1230.89 1326368
3 1230.89 1325890
3 1232.47 1456395
3 1232.47 1453257
3 1232.47 1439095
3 1232.47 1432859
1 1232.47 1419789
3 1232.47 1416691
3 1233.21 1404371
3 1233.21 1390506
3 1233.21 1388456
3 1233.21 1386790
3 1233.21 1382308
3 1233.21 1381811
3 1233.89 1379001
3 1233.89 1376852
3 1233.89 1374883
3 1234.49 1369722
3 1235.03 1364866
3 1235.59 1358823
3 1235.59 1356622
3 1236.16 1355904
3 1236.16 1355571
3 1236.16 1350279
3 1236.16 1348004
3 1236.84 1347863
3 1236.84 1345343
3 1236.84 1344722
3 1236.84 1344629
3 1236.84 1343433
3 1237.53 1341723
3 1237.53 1334290
3 1237.53 1327410
3 1238.14 1325360
3 1238.14 1319933
3 1238.14 1319757
3 1238.14 1318421
3 1238.78 1313442
3 1238.78 1312724
3 1238.78 1312154
3 1239.37 1311402
3 1239.37 1310947
3 1239.93 1309993
3 1243.05 1308460
3 1243.59 1306895
3 1246.16 1425403
3 1246.16 1418524
3 1246.16 1405488
3 1246.16 1404115
3 1246.16 1390260
3 1246.16 1384302
3 1246.88 1379988
3 1246.88 1379679
3 1246.88 1377827
3 1247.48 1373417
3 1247.48 1371956
3 1248.08 1367866
3 1248.08 1361753
3 1248.08 1360770
3 1248.69 1357864
3 1248.69 1354766
3 1249.28 1354304
3 1249.83 1353698
3 1250.93 1353655
3 1252.06 1353031
3 1252.67 1352980
3 1260.03 1422792
3 1260.03 1412647
3 1260.03 1403746
3 1260.03 1400769
3 1260.03 1398011
3 1260.03 1397929
3 1260.03 1394451
3 1260.03 1384720
3 1260.03 1380015
3 1260.83 1369861
3 1260.83 1369161
3 1260.83 1367779
3 1260.83 1361131
3 1261.48 1358019
3 1261.48 1355949
3 1261.48 1354999
3 1261.48 1350015
3 1262.1 1345036
3 1262.1 1344318
3 1263.22 1340301
3 1263.22 1338492
3 1263.78 1335407
3 1264.33 1331524
3 1264.33 1330137
3 1264.33 1329830
3 1264.33 1329278
3 1264.33 1328633
3 1264.99 1328623
3 1265.53 1326240
3 1265.53 1326166
3 1266.1 1324013
3 1266.1 1321077
3 1266.1 1320365
3 1268.24 1319246
3 1273.22 1318488
3 1273.22 1318232
3 1274.13 1459060
3 1274.13 1452114
3 1274.13 1449813
3 1274.13 1429351
3 1274.13 1421498
3 1275.13 1392932
3 1275.13 1389736
3 1275.13 1388689
3 1275.13 1376747
3 1275.13 1372574
3 1276.12 1371025
3 1276.12 1368978
3 1276.12 1365251
3 1276.12 1363485
3 1276.12 1360499
3 1276.12 1358092
3 1276.12 1347947
3 1277.15 1344646
3 1277.15 1339897
3 1277.15 1336785
3 1277.15 1335017
3 1278.07 1333948
3 1278.07 1333092
3 1278.07 1329002
3 1278.07 1328323
3 1279 1328079
3 1279 1327228
3 1279 1325439
3 1280.59 1325047
3 1282.16 1324692
3 1288.51 1470524
3 1288.51 1464572
3 1288.51 1454495
3 1288.51 1431272
3 1288.51 1420723
3 1288.51 1417101
3 1288.51 1406947
3 1288.51 1405501
3 1288.51 1405178
3 1288.51 1403935
3 1289.43 1402093
3 1289.43 1396844
3 1289.43 1374046
3 1289.43 1371069
3 1289.43 1370577
3 1289.43 1368424
3 1290.12 1367441
3 1290.12 1366661
3 1290.12 1363091
3 1290.12 1362445
3 1290.12 1355451
3 1290.12 1355292
3 1290.12 1351640
3 1290.86 1351474
3 1290.86 1346659
3 1291.98 1345999
3 1291.98 1339975
3 1291.98 1338928
3 1294.21 1338099
3 1294.21 1335591
3 1295.84 1334447
3 1296.93 1334062
3 1297.5 1332493
3 1298.06 1332100
3 1300.16 1330123
3 1300.16 1329252
3 1300.76 1329079
3 1300.76 1328756
3 1302.36 1451111
3 1302.36 1436080
3 1302.36 1405733
3 1302.36 1402503
3 1302.36 1392358
3 1302.36 1389310
3 1303.09 1379869
3 1303.09 1370356
3 1303.09 1358919
3 1303.09 1353626
3 1303.09 1347653
3 1303.09 1346653
3 1303.09 1345918
3 1303.09 1344961
3 1303.09 1342055
3 1303.98 1339130
3 1304.54 1336018
3 1305.12 1332056
3 1305.12 1330849
3 1305.12 1321897
3 1305.12 1321689
3 1306.79 1319874
3 1307.35 1319507
3 1316.23 1460559
3 1316.23 1451840
3 1316.23 1445700
3 1316.23 1431379
3 1316.23 1426400
3 1316.23 1424650
3 1316.23 1416231
3 1316.23 1413299
3 1316.23 1410396
3 1316.23 1409616
3 1317.1 1403874
3 1317.1 1391608
3 1317.1 1383780
3 1317.1 1378310
3 1317.1 1357031
3 1317.1 1356432
3 1318.39 1356370
3 1318.39 1354204
3 1318.39 1353274
3 1319.01 1351309
3 1319.01 1348902
3 1319.01 1344087
3 1319.01 1340117
3 1319.01 1339684
3 1319.01 1336065
3 1319.71 1335725
3 1320.27 1334678
3 1322.95 1331107
3 1324.02 1330912
3 1324.57 1329929
3 1324.57 1326277
3 1326.23 1325670
3 1328.32 1325484
3 1329.37 1323331
3 1330.41 1474744
3 1330.41 1464599
3 1330.41 1454445
3 1330.41 1448764
3 1330.41 1425475
3 1330.41 1413995
3 1330.41 1404850
3 1330.41 1402130
3 1330.41 1389864
3 1331.19 1387822
3 1331.19 1369252
3 1331.19 1365809
3 1331.19 1361181
3 1331.19 1359525
3 1331.19 1356627
3 1331.19 1356427
3 1331.92 1356005
3 1331.92 1346846
3 1331.92 1344122
3 1331.92 1342354
3 1332.55 1340573
3 1335.43 1339774
3 1336.24 1337959
3 1336.24 1337506
3 1336.24 1334311
3 1336.24 1333149
3 1336.86 1331787
3 1337.39 1330953
3 1337.94 1329940
3 1337.94 1328331
3 1337.94 1325764
3 1337.94 1323361
3 1338.58 1322643
3 1344.25 1452986
3 1344.25 1451779
3 1344.25 1448681
3 1344.25 1445029
3 1344.25 1436009
3 1344.25 1433009
3 1344.25 1413252
3 1344.25 1412009
3 1344.25 1388963
3 1345.03 1386781
3 1345.03 1374641
3 1345.03 1364693
3 1345.65 1364115
3 1345.65 1359647
3 1345.65 1356123
3 1345.65 1348483
3 1346.29 1347203
3 1346.29 1345050
3 1346.29 1343356
3 1346.29 1342318
3 1346.29 1340268
3 1346.96 1339536
3 1346.96 1330953
3 1349.6 1324717
3 1351.24 1323042
3 1351.79 1321844
3 1351.79 1321715
3 1352.36 1321185
3 1352.96 1321065
3 1358.18 1479470
3 1358.18 1437908
3 1358.18 1417446
3 1358.18 1416064
3 1358.18 1412727
3 1358.18 1407748
3 1358.18 1404771
3 1358.18 1400778
3 1358.18 1391778
3 1359.01 1381633
3 1359.01 1380325
3 1359.01 1379390
3 1359.01 1375083
3 1359.01 1366624
3 1359.01 1363031
3 1359.01 1361456
3 1359.74 1358119
3 1359.74 1354726
3 1359.74 1334964
3 1359.74 1333163
3 1359.74 1331307
3 1360.41 1330065
3 1360.41 1329950
3 1360.99 1329323
3 1361.53 1328566
3 1361.53 1324433
3 1362.11 1322921
3 1366.89 1322165
3 1366.89 1321174
3 1367.47 1320885
3 1367.47 1320679
3 1367.47 1319115
3 1367.47 1317979
3 1368.09 1315002
3 1368.09 1314937
3 1368.68 1314895
3 1369.22 1314563
3 1369.22 1309780
3 1372.32 1439845
3 1372.32 1430035
3 1372.32 1422619
3 1372.32 1391558
3 1372.32 1389024
3 1372.32 1388540
3 1372.32 1381238
3 1372.32 1378261
3 1373.07 1369678
3 1373.07 1356642
3 1373.07 1355053
3 1373.07 1353374
3 1373.07 1352409
3 1373.71 1352147
3 1374.78 1347604
3 1374.78 1347603
3 1374.78 1346115
3 1375.39 1345122
3 1375.39 1342031
3 1375.39 1341470
3 1375.39 1340405
3 1375.39 1340404
3 1376.56 1339085
3 1386.38 1407815
3 1386.38 1400099
3 1386.38 1399116
3 1386.38 1392771
3 1386.38 1391775
3 1386.38 1385340
3 1386.38 1384188
3 1387.13 1379104
3 1387.13 1374767
3 1387.13 1370856
3 1387.13 1369758
3 1387.79 1367331
3 1387.79 1364831
3 1387.79 1355847
3 1388.4 1351913
3 1388.4 1344495
3 1388.4 1344133
3 1389.01 1339154
3 1389.01 1338858
3 1389.01 1338502
3 1389.01 1337383
3 1389.64 1328300
3 1389.64 1319661
3 1390.23 1318612
3 1390.23 1317658
3 1390.8 1315293
3 1391.33 1314560
1 1400.37 1498948
3 1400.37 1493969
3 1400.37 1481703
3 1400.37 1480584
3 1400.37 1472845
3 1400.37 1471890
3 1400.37 1450807
3 1400.37 1402567
3 1400.37 1400973
3 1400.37 1391713
3 1400.37 1391697
3 1400.37 1390338
3 1400.37 1383524
3 1401.28 1382477
3 1401.28 1381234
3 1401.28 1379886
3 1401.28 1379403
3 1401.28 1375010
3 1401.99 1364329
3 1401.99 1361690
3 1401.99 1359709
3 1402.64 1358716
3 1402.64 1356563
3 1402.64 1347980
3 1402.64 1343932
3 1403.28 1342949
3 1403.28 1339597
3 1403.85 1338666
3 1404.4 1338586
3 1404.4 1334400
3 1404.4 1333281
3 1404.4 1332561
3 1404.4 1323172
3 1404.4 1320112
3 1405.65 1317682
3 1405.65 1316439
3 1406.23 1316219
3 1409.31 1315667
3 1409.86 1315149
3 1410.41 1314100
3 1410.95 1312261
3 1410.95 1311543
3 1414.56 1392126
3 1414.56 1391254
3 1414.56 1390919
3 1414.56 1382055
3 1415.5 1369819
3 1415.5 1367769
3 1415.5 1358209
3 1415.5 1354830
3 1416.42 1350123
3 1418.09 1350015
3 1418.94 1347779
3 1419.75 1347238
3 1419.75 1346945
3 1420.61 1345222
3 1421.42 1340958
3 1428.78 1404935
3 1428.78 1395941
3 1428.78 1385796
3 1428.78 1377187
3 1428.78 1374075
3 1428.78 1370423
3 1429.8 1362895
3 1429.8 1358199
3 1429.8 1352298
3 1429.8 1347531
3 1430.71 1346697
3 1430.71 1345431
3 1430.71 1344554
3 1430.71 1344224
3 1431.64 1341794
3 1431.64 1340026
3 1431.64 1337080
3 1432.54 1335818
3 1432.54 1335388
3 1432.54 1333248
3 1432.54 1322274
3 1432.54 1322108
3 1433.49 1320989
3 1434.34 1320523
3 1435.15 1320153
3 1435.15 1319491
3 1435.15 1319381
3 1435.15 1318494
3 1436.91 1318143
3 1436.91 1314842
3 1439.33 1314610
3 1442.41 1501845
3 1442.41 1465555
3 1442.41 1456972
3 1442.41 1453803
3 1442.41 1443800
3 1442.41 1432371
3 1442.41 1427093
3 1442.41 1425974
3 1442.41 1407366
3 1443.6 1394481
3 1443.6 1393353
3 1443.6 1392110
3 1443.6 1387399
3 1444.54 1384952
3 1444.54 1383948
3 1444.54 1380416
3 1444.54 1376655
3 1444.54 1369662
3 1444.54 1368096
3 1445.55 1366853
3 1445.55 1363102
3 1445.55 1359616
3 1445.55 1359227
3 1445.55 1355287
3 1445.55 1350538
3 1445.55 1349331
3 1445.55 1349244
3 1445.55 1348816
3 1445.55 1348210
3 1446.69 1346233
3 1446.69 1345186
3 1448.32 1343245
3 1448.32 1342002
3 1449.19 1339508
3 1449.19 1339131
3 1450.14 1338783
3 1450.14 1337736
3 1451.97 1335396
3 1456.1 1437149
3 1456.1 1435291
3 1456.1 1426572
3 1456.1 1423014
3 1456.1 1411703
3 1456.1 1411567
3 1456.1 1406179
3 1457.16 1405436
3 1457.16 1398157
1 1457.16 1396853
3 1457.16 1393939
3 1457.16 1392744
3 1457.93 1388927
3 1457.93 1383748
3 1457.93 1382650
3 1457.93 1381843
3 1457.93 1381290
3 1457.93 1376967
3 1458.66 1371872
3 1458.66 1368771
3 1458.66 1367528
3 1458.66 1366388
3 1458.66 1359452
3 1458.66 1357325
3 1458.66 1356158
3 1459.41 1355593
3 1459.41 1352652
3 1459.41 1351100
3 1460.03 1342932
3 1460.03 1342179
3 1460.62 1341171
3 1460.62 1339514
3 1460.62 1338737
3 1461.28 1337783
3 1462.39 1337353
3 1466.14 1335962
3 1466.71 1335327
3 1466.71 1335279
3 1466.71 1334774
3 1467.33 1334652
3 1470 1333950
3 1470 1333445
3 1470.6 1457999
3 1470.6 1456780
3 1470.6 1452459
3 1470.6 1443657
3 1470.6 1438678
3 1470.6 1436718
3 1470.6 1435511
3 1470.6 1409997
3 1470.6 1408227
3 1471.41 1406074
3 1471.41 1400590
3 1471.41 1389895
3 1471.41 1385249
3 1471.41 1384042
3 1471.41 1379143
3 1471.41 1368989
3 1472.72 1368035
3 1472.72 1365121
3 1475.27 1362144
3 1475.27 1360732
3 1475.27 1358964
3 1476.21 1358153
3 1481.14 1357845
3 1483.53 1356870
3 1483.53 1354407
3 1483.53 1352027
3 1484.44 1473898
3 1484.44 1448105
3 1484.44 1430761
3 1484.44 1422178
3 1484.44 1401808
3 1484.44 1400951
3 1484.44 1399256
3 1485.48 1388839
3 1485.48 1386876
3 1485.48 1384374
3 1485.48 1379117
3 1485.48 1369508
3 1485.48 1355556
3 1485.48 1345840
3 1486.51 1343236
3 1486.51 1335609
3 1487.37 1334366
3 1488.18 1333764
3 1488.18 1333201
3 1490.69 1330100
3 1490.69 1329520
3 1498.5 1393316
3 1498.5 1383212
3 1498.5 1373488
3 1498.5 1360506
3 1498.5 1354401
3 1498.5 1350011
3 1498.5 1349119
3 1499.26 1348720
3 1499.26 1348692
3 1499.26 1345594
3 1499.26 1342257
3 1499.26 1341243
3 1499.98 1337771
3 1500.52 1337738
3 1502.12 1334610
3 1502.12 1331596
3 1502.68 1331242
3 1502.68 1329143
3 1502.68 1325233
3 1503.29 1324389
3 1503.83 1323888
3 1504.36 1323336
3 1504.36 1321449
3 1504.36 1321227
3 1504.36 1317253
3 1505.02 1316874
3 1505.57 1314599
3 1508.63 1313762
3 1509.17 1309832
3 1509.71 1308783
3 1512.26 1454333
3 1512.26 1445332
3 1512.26 1443341
3 1512.26 1436990
3 1512.26 1436929
3 1512.26 1423795
3 1512.26 1422671
3 1512.26 1415031
3 1512.26 1408732
3 1512.26 1405755
3 1513.11 1392696
3 1513.11 1387717
1 1513.11 1373162
3 1513.11 1369461
3 1513.11 1368414
3 1513.11 1366511
3 1513.11 1365887
3 1513.11 1365169
3 1513.11 1363752
3 1513.11 1362975
3 1513.88 1360197
3 1513.88 1354197
3 1514.45 1352008
3 1514.45 1349020
3 1515.03 1347960
3 1515.03 1347945
3 1515.03 1345982
3 1515.03 1340459
3 1515.64 1338726
3 1515.64 1336452
3 1515.64 1335734
3 1516.25 1335591
3 1516.25 1335018
3 1516.25 1334536
3 1516.25 1331010
3 1517.91 1330239
3 1517.91 1330162
3 1517.91 1328041
3 1517.91 1327071
3 1517.91 1318839
3 1518.59 1317838
3 1519.12 1316355
3 1519.65 1315996
3 1519.65 1314682
3 1519.65 1314118
3 1523.87 1311018
3 1523.87 1307769
3 1524.44 1306031
3 1524.98 1302738
3 1526.07 1427076
3 1526.07 1400242
3 1526.07 1396905
3 1526.07 1391149
3 1526.76 1386884
3 1526.76 1383601
3 1527.37 1379949
3 1527.94 1376972
3 1527.94 1372029
3 1527.94 1367078
3 1528.6 1366971
3 1528.6 1362118
3 1528.6 1360540
3 1529.23 1360073
3 1529.23 1358586
3 1529.83 1357632
3 1530.95 1356986
3 1530.95 1356410
3 1532.09 1355179
3 1536.99 1353439
3 1536.99 1350462
3 1540.29 1456658
3 1540.29 1446464
3 1540.29 1434993
3 1540.29 1426962
3 1540.29 1407373
3 1540.29 1389593
3 1540.29 1388744
3 1540.29 1381307
3 1540.29 1372432
3 1541.13 1370600
3 1541.69 1368780
3 1542.27 1367404
3 1542.27 1364498
3 1542.27 1359969
3 1542.27 1353677
3 1542.27 1343532
3 1542.27 1341764
3 1543.01 1341463
3 1543.01 1339948
3 1543.01 1337187
3 1543.01 1336836
3 1543.01 1335717
3 1543.69 1335005
3 1543.69 1332771
3 1544.81 1331528
3 1545.89 1328006
3 1545.89 1325345
3 1545.89 1322439
3 1545.89 1320495
3 1546.53 1319707
3 1546.53 1318897
3 1546.53 1317735
3 1547.16 1316532
3 1547.71 1315276
3 1548.78 1314414
3 1549.35 1313696
3 1549.35 1311100
3 1549.35 1310304
3 1549.98 1308140
3 1549.98 1306611
3 1551.15 1305310
3 1551.15 1305277
3 1554.42 1375513
3 1554.42 1366294
3 1554.42 1360125
3 1554.42 1355146
3 1555.12 1353939
3 1555.12 1350841
3 1556.78 1349398
3 1557.34 1349319
3 1557.34 1347414
3 1557.34 1346397
3 1557.34 1345350
3 1557.34 1344317
3 1558.03 1341340
3 1559.13 1340939
3 1559.13 1340203
3 1559.13 1337462
3 1559.13 1335042
3 1559.13 1334672
3 1559.13 1334125
3 1559.86 1333799
3 1559.86 1333553
3 1559.86 1331785
3 1560.54 1330460
3 1561.24 1329792
3 1561.81 1329742
3 1568.22 1440115
3 1568.22 1433211
3 1568.22 1432122
3 1568.22 1431404
3 1568.22 1430408
3 1568.22 1427576
3 1568.22 1422597
3 1568.99 1417542
3 1568.99 1414636
3 1568.99 1406736
3 1569.65 1403165
3 1569.65 1390129
3 1569.65 1386580
3 1569.65 1385677
3 1569.65 1373791
3 1570.34 1372960
3 1570.34 1370054
3 1571 1359712
3 1571 1358469
3 1571 1348953
3 1571 1341311
3 1571 1337789
3 1572.28 1335110
3 1572.28 1332059
3 1572.28 1330379
3 1572.28 1329136
3 1572.28 1328453
3 1572.28 1327470
3 1572.28 1326778
3 1572.28 1325503
3 1572.28 1324337
3 1573.17 1318600
3 1573.17 1318433
3 1573.17 1317341
3 1573.17 1314319
3 1573.83 1313899
3 1573.83 1312945
3 1574.97 1308526
3 1582.44 1484301
3 1582.44 1458636
3 1582.44 1448491
3 1582.44 1442479
3 1582.44 1435455
3 1582.44 1432549
3 1582.44 1431831
3 1582.44 1416824
3 1582.44 1410016
3 1583.47 1390787
3 1583.47 1379356
3 1583.47 1378024
3 1583.47 1371696
3 1583.47 1371563
3 1583.47 1365327
3 1583.47 1365107
3 1584.63 1357538
3 1584.63 1357390
3 1585.48 1356864
3 1585.48 1356355
3 1586.3 1355468
3 1586.3 1352608
3 1586.3 1352554
3 1586.3 1350978
3 1586.3 1345314
3 1588.03 1344048
3 1588.85 1336900
3 1588.85 1335781
3 1590.94 1333203
3 1592.2 1332326
3 1592.2 1329947
3 1592.2 1329940
3 1593.09 1328697
3 1594.77 1327190
3 1595.62 1324276
3 1595.62 1323860
3 1595.62 1320479
3 1596.57 1451893
3 1596.57 1421546
3 1596.57 1414056
3 1596.57 1401020
3 1596.57 1395068
3 1596.57 1386649
3 1597.69 1382973
3 1597.69 1363284
3 1597.69 1362376
3 1597.69 1360307
3 1598.55 1357209
3 1598.55 1357194
3 1598.55 1355323
3 1599.77 1354369
3 1599.77 1354082
3 1600.98 1343369
3 1600.98 1343302
3 1600.98 1342816
3 1601.64 1340783
3 1601.64 1339718
3 1604.1 1339336
3 1604.1 1338961
3 1604.75 1337978
3 1610.26 1446887
3 1610.26 1438987
3 1610.26 1419633
3 1610.26 1415837
3 1610.26 1411552
3 1610.26 1410369
3 1610.26 1407392
3 1610.26 1405239
3 1610.26 1402333
3 1610.26 1398060
3 1610.26 1394596
3 1610.26 1392688
3 1610.26 1390920
3 1610.26 1369419
3 1611.29 1367983
3 1611.29 1364979
1 1611.29 1362439
3 1611.29 1362430
3 1611.29 1361650
3 1611.29 1360418
3 1611.29 1358368
3 1612.07 1355391
3 1612.07 1354257
3 1612.8 1354137
3 1615.65 1347484
3 1615.65 1346770
3 1616.29 1343832
3 1624.33 1464553
3 1624.33 1442339
3 1624.33 1431842
3 1624.33 1426759
3 1624.33 1412958
3 1624.33 1409622
3 1624.33 1402176
3 1624.33 1401725
3 1624.33 1387676
3 1625.22 1375683
3 1625.22 1368214
3 1625.22 1366912
3 1625.88 1363969
3 1625.88 1363539
3 1625.88 1359250
3 1625.88 1357311
3 1625.88 1356850
3 1625.88 1356748
3 1626.61 1354668
3 1626.61 1354334
3 1627.25 1353463
3 1627.25 1353389
3 1627.25 1352182
3 1627.88 1348335
3 1627.88 1347227
3 1627.88 1346882
3 1627.88 1346244
3 1629.18 1344628
3 1629.18 1344085
3 1629.18 1341412
3 1629.85 1334997
3 1630.43 1329092
3 1630.43 1325994
3 1630.43 1324565
3 1632.73 1322739
3 1633.58 1321427
3 1633.58 1320220
3 1633.58 1319502
3 1635.29 1318950
3 1636.1 1317448
3 1638.47 1503873
3 1638.47 1500192
3 1638.47 1452490
3 1638.47 1442336
3 1638.47 1428527
3 1638.47 1427284
3 1638.47 1424284
3 1638.47 1416767
3 1638.47 1416644
3 1638.47 1412874
3 1638.47 1404291
3 1638.47 1390664
3 1639.46 1390647
3 1639.46 1386966
3 1640.08 1379882
3 1640.08 1376337
3 1640.08 1374721
3 1640.08 1367754
3 1641.3 1347659
3 1641.3 1346676
3 1641.92 1343279
3 1642.56 1341126
3 1643.72 1331118
3 1643.72 1329259
3 1643.72 1328237
3 1645.97 1326994
3 1645.97 1325387
3 1646.59 1324838
3 1646.59 1321153
3 1647.72 1319910
3 1649.34 1317916
3 1649.34 1317487
3 1649.94 1317198
3 1652.14 1498732
3 1652.14 1483501
3 1652.14 1463039
3 1652.14 1449184
3 1652.14 1442037
3 1652.14 1430287
3 1652.14 1428134
3 1652.14 1427416
3 1653.11 1410192
3 1653.11 1402437
3 1653.11 1398243
3 1653.11 1392113
3 1653.84 1386153
3 1653.84 1383951
3 1653.84 1379287
3 1653.84 1378044
3 1653.84 1374010
3 1653.84 1371857
3 1653.84 1371465
3 1654.59 1364663
3 1654.59 1364226
3 1654.59 1362873
3 1654.59 1361639
3 1654.59 1358316
3 1655.3 1353620
3 1655.3 1352273
3 1655.3 1351555
3 1655.94 1351019
3 1657.09 1349341
3 1657.09 1348098
3 1657.09 1346891
3 1657.75 1344190
3 1657.75 1343663
3 1657.75 1340274
3 1657.75 1339145
3 1658.41 1336023
3 1658.97 1335243
3 1666.07 1393934
3 1666.07 1388955
3 1666.07 1387018
3 1666.07 1376997
3 1666.07 1376781
3 1666.07 1371966
3 1666.81 1369685
3 1666.81 1357193
3 1667.42 1356734
3 1667.42 1356074
3 1668.55 1353766
3 1668.55 1352489
3 1668.55 1352414
3 1670.21 1342211
3 1671.27 1340539
3 1671.81 1314721
3 1672.39 1312919
3 1673.5 1311766
3 1673.5 1310719
3 1674.07 1310615
3 1674.63 1309068
3 1678.26 1308433
3 1680.36 1418008
3 1680.36 1404524
3 1680.36 1400785
3 1680.36 1400340
3 1680.36 1394722
3 1680.36 1389877
3 1681.11 1388758
3 1681.11 1387817
3 1681.11 1385327
3 1681.74 1364135
3 1681.74 1363151
3 1681.74 1361181
3 1682.39 1359259
3 1684.09 1355984
3 1688.47 1355933
3 1689.57 1355030
3 1689.57 1354170
3 1690.2 1352927
3 1694.05 1469302
3 1694.05 1455471
3 1694.05 1433758
3 1694.05 1432972
3 1694.05 1432677
3 1694.05 1406077
3 1694.05 1402648
3 1694.05 1389279
3 1694.05 1385570
3 1694.05 1359853
3 1694.05 1358610
3 1695.47 1358115
3 1695.47 1356295
3 1695.47 1355596
3 1695.47 1354549
3 1695.47 1351783
3 1695.47 1350664
3 1695.47 1337691
3 1696.2 1337308
3 1697.27 1335132
3 1697.27 1334704
3 1697.86 1333138
3 1697.86 1332624
3 1698.95 1332037
3 1698.95 1330786
3 1698.95 1329526
3 1698.95 1329004
3 1699.58 1328224
3 1700.66 1327880
3 1701.2 1325727
3 1708.51 1448586
3 1708.51 1422727
3 1708.51 1402894
3 1708.51 1389825
3 1708.51 1386338
3 1708.51 1383361
3 1708.51 1379973
3 1708.51 1378224
3 1708.51 1374812
3 1709.33 1369867
3 1709.33 1369149
3 1709.33 1367010
3 1709.33 1365615
3 1709.33 1364045
3 1709.33 1361613
3 1709.33 1360308
3 1710.07 1356461
3 1710.07 1356460
3 1710.07 1353217
3 1710.07 1351619
3 1710.7 1351321
3 1711.27 1348713
3 1711.81 1346560
3 1712.9 1343740
3 1714.5 1342358
3 1722.33 1446497
3 1722.33 1435352
3 1722.33 1427712
3 1722.33 1415241
3 1722.33 1406722
3 1722.33 1394402
3 1723.12 1392343
3 1723.12 1389218
3 1723.12 1378478
3 1723.12 1366437
3 1723.12 1363789
3 1723.8 1362493
3 1723.8 1359134
3 1723.8 1357091
3 1723.8 1351159
3 1723.8 1349528
3 1723.8 1348627
3 1724.5 1345692
3 1724.5 1345559
3 1724.5 1344533
3 1725.14 1338863
3 1725.14 1338297
3 1725.71 1331469
3 1725.71 1325271
3 1727.31 1324773
3 1730.95 1320888
3 1732.06 1318274
3 1733.17 1317628
3 1736.31 1428424
3 1736.31 1422485
3 1736.31 1419400
3 1736.31 1418417
3 1736.31 1417506
3 1736.31 1416165
3 1736.31 1408160
3 1736.31 1403353
3 1736.31 1402399
3 1736.31 1394599
3 1736.31 1391880
3 1737.19 1386558
3 1737.19 1377579
3 1737.19 1377014
3 1737.19 1375100
3 1737.19 1366728
3 1737.19 1366060
3 1737.89 1365342
3 1737.89 1360985
3 1738.55 1360128
3 1738.55 1360105
3 1738.55 1360081
3 1738.55 1359820
3 1738.55 1352320
3 1738.55 1349604
3 1739.28 1345005
3 1739.28 1340026
3 1739.28 1337809
3 1739.28 1333550
3 1740.45 1325050
3 1740.45 1319841
3 1740.45 1318212
3 1741.17 1317929
3 1742.24 1317276
3 1746.99 1316088
3 1747.56 1314845
3 1750.23 1419858
3 1750.23 1417986
3 1750.23 1417887
3 1750.23 1414542
3 1750.23 1414005
3 1750.23 1406355
3 1750.23 1405587
3 1750.23 1404739
3 1750.23 1399705
3 1751.01 1398987
3 1751.01 1396063
3 1751.01 1395479
3 1751.01 1394606
3 1751.01 1393919
3 1751.01 1393204
3 1751.01 1392424
3 1751.78 1392031
3 1751.78 1385866
3 1751.78 1381111
3 1751.78 1368044
3 1752.46 1367287
3 1752.46 1366799
3 1752.46 1361466
3 1752.46 1360356
3 1752.46 1355208
3 1753.22 1354534
3 1753.22 1352270
3 1753.22 1352125
3 1753.22 1348627
3 1753.22 1347765
3 1753.92 1344975
3 1753.92 1342214
3 1758.59 1341913
3 1758.59 1336848
3 1759.2 1335271
3 1759.2 1332159
3 1759.2 1331441
3 1759.84 1331151
3 1764.2 1458250
3 1764.2 1448096
3 1764.2 1427503
3 1764.2 1417482
3 1764.2 1409188
3 1764.2 1399034
3 1764.97 1398023
3 1764.97 1395046
3 1764.97 1388983
3 1764.97 1388203
3 1765.65 1382077
3 1765.65 1381829
3 1766.27 1372820
3 1766.27 1371752
3 1766.27 1365399
3 1766.91 1362422
3 1767.49 1361375
3 1769.2 1361314
3 1769.2 1358277
3 1773.43 1355629
3 1776.71 1347673
3 1777.32 1347565
3 1777.32 1346518
3 1777.93 1345877
3 1778.52 1456579
3 1778.52 1450002
3 1778.52 1437555
3 1778.52 1419409
3 1778.52 1416503
3 1778.52 1403661
3 1778.52 1402978
3 1778.52 1400825
3 1778.52 1399607
3 1778.52 1392009
3 1778.52 1389725
3 1778.52 1389079
3 1778.52 1387134
3 1779.47 1386627
3 1780.05 1385231
3 1780.05 1382325
3 1780.05 1379411
3 1780.05 1378838
3 1780.05 1377464
3 1780.05 1377453
3 1780.81 1377389
3 1781.39 1375955
3 1781.97 1375807
3 1781.97 1375032
3 1781.97 1374876
3 1782.61 1369726
3 1783.19 1368900
3 1783.19 1368061
3 1783.79 1363069
3 1784.36 1363054
3 1785.48 1361683
3 1785.48 1361045
3 1792.41 1446018
3 1792.41 1441617
3 1792.41 1420800
3 1792.41 1418117
3 1792.41 1415884
3 1792.41 1411952
3 1792.41 1410998
3 1792.41 1386905
3 1792.41 1383991
3 1792.41 1381262
3 1792.41 1375491
3 1792.41 1374339
1 1792.41 1372747
3 1792.41 1371700
3 1793.76 1371188
3 1793.76 1351602
3 1793.76 1351175
3 1793.76 1350508
3 1793.76 1348261
3 1793.76 1346945
3 1794.78 1346590
3 1799.54 1342808
3 1799.54 1341105
3 1806.32 1444852
3 1806.32 1443553
3 1806.32 1430049
3 1806.32 1413980
3 1806.32 1408222
3 1806.32 1405110
3 1806.32 1397673
3 1807.12 1392828
3 1807.12 1386146
3 1807.12 1385192
3 1807.12 1369983
3 1807.12 1368651
3 1807.81 1346446
3 1807.81 1344293
3 1807.81 1340961
3 1807.81 1338751
3 1808.46 1334183
3 1808.46 1332708
3 1809.03 1331656
3 1809.03 1329459
3 1809.03 1328986
3 1809.64 1328919
3 1810.19 1317892
3 1810.19 1316689
3 1810.77 1315446
3 1818.15 1313162
3 1818.79 1313140
3 1819.35 1312332
3 1820.42 1433168
3 1820.42 1425268
3 1820.42 1411693
3 1820.42 1406687
3 1820.42 1403448
3 1820.42 1395770
3 1820.42 1392864
3 1821.18 1383770
3 1821.18 1382830
3 1821.18 1378708
3 1821.18 1375832
3 1821.84 1374893
3 1821.84 1370296
3 1821.84 1365192
3 1821.84 1352105
3 1821.84 1349946
3 1821.84 1344205
3 1821.84 1343527
3 1821.84 1341081
3 1821.84 1338669
3 1822.64 1337951
3 1822.64 1337130
3 1823.23 1333552
3 1823.23 1332994
3 1824.89 1331267
3 1825.44 1330200
3 1825.44 1330044
3 1826.54 1327509
3 1827.09 1325459
3 1827.09 1319334
3 1827.09 1318757
3 1827.7 1317798
3 1828.79 1317131
3 1828.79 1316835
3 1833.05 1315783
3 1834.19 1474638
3 1834.19 1464435
3 1834.19 1442202
3 1834.19 1429936
3 1834.19 1426959
3 1834.19 1416938
3 1834.19 1413930
3 1835.06 1404751
3 1835.06 1399772
1 1835.69 1391250
3 1835.69 1385453
3 1835.69 1369641
3 1835.69 1368658
3 1835.69 1366659
3 1835.69 1363443
3 1835.69 1357260
3 1835.69 1354260
3 1835.69 1351354
3 1836.6 1348419
3 1836.6 1346230
3 1836.6 1337387
3 1836.6 1333488
3 1836.6 1332266
3 1837.26 1331542
3 1837.8 1329764
3 1838.36 1329531
3 1838.92 1325055
3 1839.47 1323812
3 1841.07 1323008
3 1848.54 1464372
3 1848.54 1458026
3 1848.54 1449443
3 1848.54 1447242
3 1848.54 1445089
3 1848.54 1424876
3 1848.54 1423893
3 1848.54 1417735
3 1848.54 1408299
3 1848.54 1405393
3 1848.54 1373558
3 1849.45 1371405
3 1849.45 1366048
3 1849.45 1353104
3 1850.09 1351957
3 1850.09 1350985
3 1850.09 1349534
3 1850.09 1346197
3 1850.77 1345150
3 1850.77 1343389
3 1850.77 1341923
3 1850.77 1333186
3 1850.77 1332835
3 1850.77 1332468
3 1851.47 1331680
3 1851.47 1329737
3 1854.35 1329668
3 1854.35 1329570
3 1854.93 1328523
3 1855.51 1326758
3 1855.51 1326441
3 1855.51 1323270
3 1856.7 1322884
3 1856.7 1322174
3 1857.33 1320931
3 1858.45 1320250
3 1859 1319884
3 1862.23 1453494
3 1862.23 1452776
3 1862.23 1433663
3 1862.23 1430496
3 1862.23 1401717
3 1862.23 1399172
3 1863.03 1393484
3 1863.03 1390929
3 1863.03 1390324
3 1863.03 1389081
3 1863.03 1387861
3 1863.03 1374825
3 1863.74 1371906
3 1863.74 1362973
3 1863.74 1362915
3 1863.74 1356737
3 1863.74 1355754
3 1863.74 1348325
3 1863.74 1345600
3 1863.74 1344820
3 1864.79 1344748
3 1864.79 1344074
3 1864.79 1342989
3 1865.78 1342794
3 1865.78 1341864
3 1865.78 1340910
3 1865.78 1331120
3 1865.78 1328644
3 1866.81 1326412
3 1866.81 1325791
3 1869.06 1325727
3 1869.62 1320534
3 1871.4 1319385
3 1876.54 1419572
3 1876.54 1400374
3 1876.54 1394331
3 1876.54 1393088
3 1876.54 1389436
3 1876.54 1381845
3 1876.54 1372975
3 1877.33 1370184
3 1877.33 1366683
3 1877.33 1362995
3 1877.33 1360175
3 1877.33 1359249
3 1878.05 1355358
3 1878.05 1354239
3 1878.05 1352566
3 1878.68 1351612
3 1878.68 1349596
3 1878.68 1345513
3 1879.47 1344721
3 1879.47 1343638
3 1879.47 1343360
3 1881.78 1341776
3 1882.35 1341256
3 1883.48 1340415
3 1883.48 1339599
3 1883.48 1331260
3 1883.48 1331122
3 1883.48 1329758
3 1884.14 1328990
3 1890.03 1423404
3 1890.03 1399862
3 1890.03 1393918
3 1890.03 1392964
3 1890.03 1389526
3 1890.03 1386641
3 1890.03 1385874
3 1890.77 1381346
3 1890.77 1373214
3 1890.77 1369562
3 1890.77 1358390
3 1890.77 1357508
3 1890.77 1357111
3 1890.77 1356946
3 1890.77 1355343
3 1890.77 1352231
3 1891.59 1351131
3 1891.59 1349164
3 1891.59 1349133
3 1892.2 1345480
3 1892.2 1345307
3 1892.83 1345240
3 1892.83 1338121
3 1892.83 1337380
3 1893.44 1336911
3 1893.44 1336193
3 1896.15 1329610
3 1896.72 1328196
3 1896.72 1326479
3 1897.33 1326428
3 1897.33 1325761
3 1901 1324795
3 1902.59 1324054
3 1904.22 1463118
3 1904.22 1455702
3 1904.22 1437601
3 1904.22 1412526
3 1904.22 1411479
3 1904.22 1406988
3 1904.22 1401458
3 1904.22 1398481
3 1904.98 1384319
3 1904.98 1383096
3 1904.98 1382113
3 1904.98 1380535
3 1904.98 1379804
3 1905.71 1377437
3 1905.71 1375564
3 1905.71 1372658
3 1905.71 1369681
3 1905.71 1369252
3 1905.71 1368990
3 1905.71 1366013
3 1906.48 1365002
3 1907.04 1363267
3 1907.04 1358848
3 1907.63 1354215
3 1907.63 1352972
3 1907.63 1352578
3 1908.24 1343409
3 1909.32 1342691
3 1909.87 1341836
3 1909.87 1338219
3 1910.49 1334287
3 1911.05 1332904
3 1912.71 1332405
3 1912.71 1331017
3 1912.71 1330751
3 1918.03 1423955
3 1918.03 1417570
3 1918.03 1407477
3 1918.03 1399548
3 1918.03 1398341
3 1918.03 1389841
3 1918.03 1382986
3 1918.78 1380368
3 1918.78 1374179
3 1918.78 1371464
3 1918.78 1369983
3 1918.78 1361922
3 1918.78 1350740
3 1919.43 1342985
3 1919.43 1342693
3 1919.43 1337714
3 1919.43 1336306
3 1920.1 1329603
3 1920.1 1328406
3 1920.68 1327154
3 1920.68 1325161
3 1920.68 1324800
3 1921.28 1322158
3 1922.34 1321090
3 1922.34 1319433
3 1922.34 1319270
3 1923.5 1317701
3 1932.3 1482539
3 1932.3 1475468
3 1932.3 1457887
3 1932.3 1432898
3 1932.3 1420578
3 1932.3 1411184
3 1932.3 1405141
3 1932.3 1403543
3 1932.3 1398654
3 1933.14 1396243
3 1933.14 1385696
3 1933.14 1385251
3 1933.14 1382694
3 1933.14 1382271
3 1933.85 1381527
3 1933.85 1378963
3 1933.85 1377916
3 1934.48 1377677
3 1935.06 1375010
3 1935.06 1374896
3 1935.65 1362576
3 1936.21 1354277
3 1936.21 1354076
3 1936.21 1352869
3 1937.34 1352147
3 1937.34 1344857
3 1937.34 1344744
3 1937.94 1342788
3 1939.53 1340992
3 1940.59 1338812
3 1940.59 1338032
3 1940.59 1337474
3 1941.21 1337340
3 1941.21 1336640
3 1941.21 1336177
3 1941.92 1329464
3 1941.92 1328912
3 1941.92 1326294
3 1941.92 1323914
3 1941.92 1323066
3 1941.92 1320371
3 1942.7 1319493
3 1942.7 1319134
3 1944.37 1318474
3 1944.92 1318473
3 1945.46 1318304
3 1945.46 1317185
3 1945.46 1316508
3 1946.07 1470401
3 1946.07 1469274
3 1946.07 1467680
3 1946.07 1465585
3 1946.07 1462701
3 1946.07 1462112
3 1946.07 1456068
3 1946.07 1433294
3 1946.07 1420258
3 1946.86 1408443
3 1946.86 1372301
3 1946.86 1369324
3 1946.86 1360297
3 1946.86 1357892
3 1946.86 1356648
3 1947.55 1354543
3 1947.55 1352190
3 1948.15 1342817
3 1948.15 1342525
3 1948.15 1340767
3 1948.15 1340049
3 1948.15 1339359
3 1948.15 1339066
3 1948.81 1336453
3 1948.81 1335574
3 1948.81 1330237
3 1949.45 1328353
3 1949.45 1325241
3 1949.45 1319421
3 1951.09 1319078
3 1951.09 1318214
3 1952.18 1313379
3 1952.18 1311688
3 1960.08 1453270
3 1960.08 1434850
3 1960.08 1421731
3 1960.08 1421666
3 1960.76 1418701
3 1960.76 1417921
3 1960.76 1398651
3 1960.76 1395811
3 1960.76 1391461
3 1960.76 1390898
3 1960.76 1390794
3 1960.76 1388212
3 1960.76 1379629
3 1961.59 1376139
3 1961.59 1362020
3 1961.59 1359988
3 1961.59 1357938
3 1961.59 1353698
3 1961.59 1350946
3 1962.28 1348620
3 1962.28 1340250
3 1962.28 1338530
3 1962.28 1338523
3 1962.95 1335558
3 1962.95 1334379
3 1964.08 1329850
3 1964.63 1329214
3 1964.63 1326116
3 1964.63 1322844
3 1964.63 1321621
3 1965.28 1320903
3 1974.11 1413733
3 1974.11 1406616
3 1974.11 1398355
3 1974.11 1387568
3 1974.11 1374424
3 1974.11 1370436
3 1974.84 1368230
3 1974.84 1366576
3 1974.84 1356144
3 1974.84 1355426
3 1974.84 1353709
3 1975.55 1340627
3 1975.55 1336095
3 1975.55 1332758
3 1975.55 1331025
3 1976.26 1329978
3 1976.85 1329050
3 1977.42 1328771
3 1978.02 1327148
3 1978.02 1326824
3 1978.02 1325624
3 1978.66 1325485
3 1978.66 1325122
3 1978.66 1324908
3 1979.26 1324531
3 1979.26 1324190
3 1979.26 1323071
3 1988.35 1441364
3 1988.35 1439784
3 1988.35 1408567
3 1988.35 1399170
3 1988.35 1396187
3 1988.35 1395140
3 1989.38 1394332
3 1989.38 1388834
3 1989.38 1386222
3 1989.38 1385497
3 1991.15 1382399
3 1991.15 1376947
3 1991.15 1375299
3 1992.07 1367903
3 1992.07 1358118
3 1992.72 1356911
3 1992.72 1354054
3 1992.72 1353975
3 1992.72 1352992
3 1993.44 1352125
3 1994.02 1351568
3 1995.11 1351507
3 1997.27 1350521
3 2002.23 1413952
3 2002.23 1382978
3 2002.23 1378852
3 2002.97 1374455
3 2003.59 1360376
3 2003.59 1358390
3 2004.78 1357460
3 2005.37 1352977
3 2005.37 1349820
3 2005.98 1348807
3 2006.61 1345088
3 2007.22 1343320
3 2007.84 1342113
3 2016.06 1437189
3 2016.06 1427396
3 2016.06 1427035
3 2016.06 1422056
3 2016.06 1419079
3 2016.83 1410485
3 2016.83 1405599
3 2016.83 1386568
3 2016.83 1378928
3 2016.83 1375207
3 2017.54 1367827
3 2017.54 1365447
3 2017.54 1364833
3 2017.54 1363076
3 2017.54 1353437
3 2018.23 1353419
3 2018.23 1352176
3 2018.23 1351289
3 2018.23 1349667
3 2018.9 1348786
3 2018.9 1343997
3 2018.9 1343368
3 2018.9 1341186
3 2018.9 1341047
3 2019.62 1336886
3 2019.62 1336515
3 2019.62 1335396
3 2019.62 1335161
3 2020.27 1335073
3 2020.27 1333243
3 2021.44 1328047
3 2021.44 1326224
3 2022.04 1322348
3 2022.04 1320961
3 2022.64 1319909
3 2022.64 1319816
3 2026.41 1319484
3 2028.53 1318955
3 2029.09 1318882
3 2029.67 1318702
3 2030.24 1416121
3 2030.24 1397702
3 2030.24 1395333
3 2030.24 1367105
3 2030.24 1365981
3 2030.24 1363054
3 2030.24 1357995
3 2030.24 1354892
3 2030.24 1354478
3 2030.24 1351501
3 2031.06 1350243
3 2031.06 1348164
3 2031.72 1343185
3 2032.29 1342358
3 2033.95 1339023
3 2033.95 1335686
3 2034.6 1334877
3 2034.6 1334458
3 2044.31 1399701
3 2044.31 1394540
3 2044.31 1385388
3 2044.31 1385162
3 2044.31 1383585
3 2044.31 1378606
3 2044.31 1373765
3 2044.31 1372749
3 2044.31 1372730
3 2045.2 1372258
3 2045.2 1371275
3 2045.2 1370669
3 2045.2 1369355
3 2045.9 1368619
3 2046.49 1367901
3 2047.11 1366808
3 2047.11 1362621
3 2047.11 1360756
3 2047.11 1355537
3 2047.11 1353830
3 2047.82 1352062
3 2047.82 1350420
3 2048.45 1346190
3 2048.45 1345383
3 2049.06 1344304
3 2049.06 1340652
3 2050.21 1339934
3 2050.79 1339723
3 2051.37 1339340
3 2052.54 1339062
3 2052.54 1338019
3 2053.19 1336239
3 2054.3 1332306
3 2054.87 1330356
3 2054.87 1330153
3 2055.47 1329883
3 2055.47 1328818
3 2057.15 1328009
3 2057.76 1327055
3 2058.33 1396992
3 2058.33 1393340
3 2058.33 1387275
3 2058.33 1386904
3 2058.33 1385329
3 2058.33 1384855
3 2058.33 1374509
3 2058.33 1373746
3 2058.33 1371000
3 2059.14 1368718
3 2059.14 1366516
3 2059.77 1355804
3 2059.77 1354618
3 2059.77 1346141
3 2060.41 1342335
3 2072.21 1465896
3 2072.21 1434440
3 2072.21 1420585
3 2072.21 1409267
3 2072.21 1390569
3 2072.21 1387808
3 2072.21 1381765
3 2072.21 1375593
3 2072.21 1370247
3 2073.11 1365851
3 2073.11 1363440
3 2073.11 1352522
3 2073.11 1350381
3 2073.11 1345047
3 2073.8 1344712
3 2073.8 1338476
3 2074.36 1336600
3 2074.36 1334564
3 2074.95 1333627
3 2075.52 1332523
3 2075.52 1325727
3 2077.16 1324830
3 2077.7 1323740
3 2078.79 1322142
3 2078.79 1320899
3 2079.37 1318222
3 2079.92 1317504
3 2086.38 1484476
3 2086.38 1478794
3 2086.38 1446752
3 2086.38 1415032
3 2086.38 1414158
3 2086.38 1400056
3 2086.38 1395515
3 2087.43 1393309
3 2087.43 1380982
3 2087.43 1374431
3 2087.43 1366342
3 2088.37 1365125
3 2088.37 1361473
3 2089.22 1356878
3 2089.22 1356828
3 2089.22 1348500
3 2089.22 1346450
3 2089.22 1345732
3 2090.23 1342036
3 2090.23 1340653
3 2091.11 1339493
3 2091.11 1339145
3 2091.11 1337377
3 2091.11 1336634
3 2092.07 1336156
3 2092.91 1335126
3 2092.91 1332329
3 2092.91 1331341
3 2094.56 1330132
3 2095.36 1329651
3 2100.01 1487272
3 2100.01 1455934
3 2100.01 1454887
3 2100.01 1451910
3 2100.97 1446672
3 2100.97 1438172
3 2100.97 1437698
3 2100.97 1434653
3 2100.97 1422889
3 2100.97 1419237
3 2102 1412097
3 2102 1410654
3 2102.89 1409030
3 2102.89 1403657
3 2102.89 1402674
3 2103.79 1402144
3 2103.79 1401190
3 2104.74 1392895
3 2104.74 1389592
3 2104.74 1387916
3 2104.74 1380079
3 2105.77 1379032
3 2105.77 1377789
3 2107.47 1375588
3 2107.47 1373852
3 2107.47 1373680
3 2108.38 1364735
3 2109.22 1354609
3 2109.22 1349054
3 2112.36 1347289
3 2113.18 1344793
3 2114 1344075
3 2114.83 1430709
3 2114.83 1428492
3 2114.83 1424840
3 2114.83 1406671
3 2114.83 1404705
3 2114.83 1399726
3 2114.83 1398607
3 2114.83 1391615
3 2114.83 1390103
3 2114.83 1385344
3 2114.83 1383294
3 2116.03 1377251
3 2116.03 1375454
3 2116.03 1372722
3 2116.03 1369567
3 2116.03 1368844
3 2116.03 1359854
3 2116.03 1358611
3 2117.1 1354673
3 2117.98 1353955
3 2117.98 1353665
3 2118.89 1352426
3 2119.76 1342744
3 2119.76 1342712
3 2123.1 1342679
3 2123.92 1341994
3 2123.92 1337992
3 2127.19 1336861
3 2127.19 1335029
3 2127.19 1333910
3 2127.19 1333699
3 2127.19 1332486
3 2128.16 1430345
3 2128.16 1411721
3 2128.16 1403304
3 2128.16 1400327
3 2128.16 1400161
3 2128.16 1397247
3 2129.13 1388140
3 2129.13 1380031
3 2129.99 1379313
3 2129.99 1375655
3 2129.99 1373502
3 2129.99 1368958
3 2129.99 1368256
3 2129.99 1367459
3 2129.99 1364454
3 2131.03 1359837
3 2131.03 1359534
3 2131.89 1357686
3 2131.89 1354555
3 2131.89 1352297
3 2131.89 1351780
3 2132.9 1348955
3 2132.9 1345722
3 2132.9 1343066
3 2132.9 1342083
3 2133.89 1341896
3 2133.89 1339086
3 2133.89 1337757
3 2133.89 1336921
3 2134.8 1335989
3 2135.61 1335523
3 2137.22 1334642
3 2137.22 1333435
3 2138.06 1329272
3 2138.06 1328121
3 2138.06 1327914
3 2138.06 1325732
3 2138.98 1325028
3 2138.98 1321719
3 2138.98 1317130
3 2139.85 1314867
3 2142.18 1436010
3 2142.18 1433983
3 2142.18 1430849
3 2142.18 1430657
3 2142.18 1427680
3 2142.18 1417526
3 2142.18 1407381
3 2142.18 1405243
3 2142.18 1405231
3 2142.18 1402684
3 2142.18 1398995
3 2142.18 1395897
3 2142.18 1391773
3 2143.41 1390139
3 2143.41 1383096
3 2143.41 1381853
3 2143.41 1379460
3 2143.41 1370356
3 2143.41 1362323
3 2144.38 1361773
3 2144.38 1358121
3 2146.03 1357403
3 2147.8 1354902
3 2147.8 1352720
3 2148.66 1350542
3 2148.66 1349710
3 2148.66 1342070
3 2149.41 1339136
3 2149.96 1336230
3 2150.51 1334490
3 2151.07 1333764
3 2154.25 1330246
3 2154.25 1329003
3 2154.25 1328205
3 2154.25 1326373
3 2154.25 1326119
3 2154.92 1325864
3 2156.5 1416065
3 2156.5 1399485
3 2156.5 1394409
3 2156.5 1393455
3 2156.5 1384955
3 2156.5 1377325
3 2156.5 1376607
3 2156.5 1375760
3 2156.5 1371113
3 2156.5 1365360
3 2156.5 1362530
3 2157.35 1362005
3 2157.35 1359624
1 2157.94 1357994
3 2158.5 1347849
3 2159.58 1347653
3 2159.58 1342688
3 2161.22 1338360
3 2161.22 1336949
3 2161.82 1335262
3 2162.97 1332992
3 2163.53 1328769
3 2164.09 1327526
3 2164.09 1325764
3 2164.67 1322850
3 2164.67 1322029
3 2166.87 1321630
3 2167.45 1321033
3 2167.45 1320255
3 2168.03 1319885
3 2168.03 1316603
3 2170.15 1431193
3 2170.15 1429498
3 2170.15 1428926
3 2170.15 1421844
3 2170.15 1409290
3 2170.15 1395435
3 2170.15 1389392
3 2170.15 1374843
3 2170.15 1368363
3 2170.15 1362633
3 2170.98 1359967
3 2170.98 1358777
3 2170.98 1357039
3 2171.62 1355424
3 2171.62 1355235
3 2171.62 1349209
3 2171.62 1347662
3 2171.62 1344090
3 2172.31 1342971
3 2172.31 1340091
3 2172.93 1339319
3 2172.93 1337771
3 2172.93 1337032
3 2173.54 1336416
3 2173.54 1336249
3 2174.12 1336016
3 2174.12 1335062
3 2174.71 1334373
3 2174.71 1332085
3 2174.71 1331749
3 2175.29 1331476
3 2176.91 1325875
3 2177.45 1324251
3 2181.1 1323809
3 2181.66 1321579
3 2181.66 1319822
3 2181.66 1319692
3 2182.3 1319473
3 2182.3 1319426
3 2184.5 1480692
3 2184.5 1480597
3 2184.5 1461368
3 2184.5 1429123
3 2184.5 1413679
3 2184.5 1408743
3 2184.5 1400372
3 2184.5 1388692
3 2185.32 1388036
3 2185.32 1380316
3 2185.32 1379598
3 2185.32 1377445
3 2185.32 1374539
3 2185.32 1369287
3 2185.32 1368543
3 2185.32 1367329
3 2186.09 1366923
3 2186.63 1366122
3 2186.63 1358482
3 2186.63 1357668
3 2188.29 1352898
3 2188.85 1351299
3 2188.85 1346989
3 2189.43 1344370
3 2189.99 1343489
3 2189.99 1342740
3 2190.57 1341497
3 2191.11 1340715
3 2191.11 1338468
3 2191.11 1338169
3 2191.77 1337829
1 2192.84 1335306
3 2192.84 1331219
3 2193.42 1330853
3 2193.99 1322270
3 2193.99 1316648
3 2195.09 1314370
3 2198.28 1382759
3 2198.28 1379782
3 2198.28 1364358
3 2198.28 1352841
3 2198.28 1352123
3 2198.97 1348526
3 2199.53 1345905
3 2200.09 1343079
3 2200.09 1342125
3 2200.09 1341888
3 2200.09 1339579
3 2200.09 1335743
3 2201.81 1334213
3 2201.81 1333590
3 2202.93 1333580
3 2204.01 1333268
3 2204.57 1332268
3 2205.12 1331818
3 2206.18 1331126
3 2206.18 1328601
3 2208.7 1327577
3 2208.7 1327554
3 2208.7 1326270
3 2208.7 1325636
3 2208.7 1324850
3 2208.7 1323943
3 2208.7 1321479
3 2209.72 1319128
3 2211.35 1317702
3 2212.19 1431310
3 2212.19 1422405
3 2212.19 1419463
3 2212.19 1417926
3 2212.19 1408742
3 2212.19 1384192
3 2212.19 1377516
3 2212.19 1373835
3 2212.19 1365737
3 2213.34 1365252
3 2213.34 1364205
3 2213.34 1353621
3 2213.34 1348292
3 2213.34 1347286
3 2214.35 1342471
3 2214.35 1341264
3 2214.35 1340861
3 2215.25 1339975
3 2215.25 1337209
3 2215.25 1334920
3 2216.13 1334101
3 2216.13 1332278
3 2216.13 1331393
3 2216.13 1327643
3 2217.8 1323783
3 2218.61 1323765
3 2219.4 1322198
3 2220.21 1321850
3 2226.37 1430253
3 2226.37 1419778
3 2226.37 1388578
3 2226.37 1388042
3 2226.37 1384944
3 2226.37 1379864
3 2226.37 1376527
3 2226.37 1372479
3 2226.37 1372209
3 2227.49 1371226
3 2227.49 1367078
3 2228.39 1366575
3 2228.39 1364182
3 2228.39 1363464
3 2228.39 1357579
3 2230.86 1355484
3 2232.45 1354906
3 2232.45 1351808
3 2232.45 1348964
3 2234.14 1348902
3 2240.34 1423415
3 2240.34 1420643
3 2240.34 1408136
3 2240.34 1407153
3 2240.34 1394887
3 2240.34 1377782
3 2241.4 1374908
3 2241.4 1368001
3 2241.4 1365095
3 2241.4 1360850
3 2241.4 1358757
3 2241.4 1356707
3 2241.4 1355966
3 2241.4 1350133
3 2242.49 1348007
3 2243.32 1347384
3 2243.32 1346141
3 2243.32 1343988
3 2244.19 1338673
3 2244.19 1336969
3 2245.77 1336934
3 2245.77 1335561
3 2246.61 1334265
3 2247.48 1333852
3 2248.31 1326365
3 2254.72 1431185
3 2254.72 1421265
3 2254.72 1386208
3 2254.72 1380498
3 2254.72 1379291
3 2255.77 1371934
3 2255.77 1368503
3 2255.77 1365334
3 2255.77 1355812
3 2256.76 1345667
3 2256.76 1342569
3 2256.76 1334449
3 2256.76 1327701
3 2256.76 1325651
3 2256.76 1324668
3 2257.73 1323861
3 2257.73 1323476
3 2258.59 1322357
3 2258.59 1320431
3 2259.42 1319188
3 2259.42 1317035
3 2263.31 1316259
3 2264.12 1315572
3 2264.12 1314318
3 2264.12 1314210
3 2264.12 1313111
3 2265.01 1312393
3 2265.83 1312146
3 2267.39 1310757
3 2268.2 1427109
3 2268.2 1418645
3 2268.2 1415668
3 2268.2 1412762
3 2268.2 1399358
3 2268.2 1397770
3 2268.2 1397170
3 2269.28 1397009
3 2269.28 1395927
3 2270.22 1395354
3 2270.22 1391104
3 2270.22 1384107
3 2270.22 1378012
3 2271.18 1374858
3 2271.18 1373875
3 2271.18 1373105
3 2271.18 1365218
3 2271.18 1365089
3 2272.19 1363936
3 2272.19 1363140
3 2272.19 1362956
3 2273.14 1356581
3 2273.14 1356508
3 2274.84 1353410
3 2277.24 1352436
3 2277.24 1352381
3 2278.1 1352082
3 2278.1 1349642
3 2281.36 1349404
3 2281.36 1346292
3 2281.36 1345984
3 2282.25 1467240
3 2282.25 1465087
3 2282.25 1459399
3 2282.25 1415031
3 2282.25 1413806
3 2282.25 1385732
3 2282.25 1375545
3 2282.25 1362093
3 2282.25 1361375
3 2283.38 1352059
3 2283.38 1351230
3 2285.15 1347555
3 2285.15 1327273
3 2285.15 1324879
3 2285.15 1323672
3 2285.15 1323129
3 2285.15 1318399
3 2286.13 1317619
3 2286.97 1316636
3 2292.44 1315379
3 2292.44 1312533
3 2293.28 1312168
3 2293.28 1309827
3 2295.36 1307970
3 2295.36 1305754
3 2295.36 1304042
3 2296.02 1402347
3 2296.02 1391339
3 2296.02 1374248
3 2296.02 1371397
3 2296.02 1369341
3 2296.02 1363084
3 2296.78 1358441
3 2296.78 1355783
3 2296.78 1354764
3 2296.78 1351351
3 2296.78 1348684
3 2297.49 1342874
3 2297.49 1342510
3 2297.49 1340265
3 2298.12 1336051
3 2298.72 1335152
3 2299.29 1334573
3 2299.85 1334395
3 2299.85 1333590
3 2300.99 1330003
3 2300.99 1327507
3 2302.68 1323788
3 2302.68 1323620
3 2304.79 1322377
3 2304.79 1314930
3 2305.47 1312494
3 2305.47 1312015
3 2306.21 1311287
3 2306.8 1310901
3 2307.42 1309307
3 2310.15 1442912
3 2310.15 1441987
3 2310.15 1416132
3 2310.15 1413656
3 2310.84 1409537
3 2310.84 1408330
3 2310.84 1405232
3 2310.84 1397245
3 2310.84 1397023
3 2310.84 1396305
3 2311.57 1384058
3 2311.57 1379011
3 2311.57 1375690
3 2311.57 1369647
3 2311.57 1368364
3 2311.57 1367317
3 2311.57 1359435
3 2311.57 1358192
3 2311.57 1351589
3 2312.37 1347008
3 2312.37 1346180
3 2313.52 1343726
3 2313.52 1341712
3 2313.52 1340376
3 2313.52 1339458
3 2314.18 1337276
3 2314.18 1336496
3 2314.77 1335541
3 2315.33 1334837
3 2315.92 1334446
3 2316.5 1334033
3 2316.5 1332906
3 2317.09 1331087
3 2317.09 1331029
3 2317.69 1329292
3 2317.69 1327390
3 2317.69 1326203
3 2317.69 1325386
3 2318.35 1325093
3 2318.93 1324179
3 2318.93 1322976
3 2318.93 1321997
3 2319.55 1319947
3 2324.41 1410945
3 2324.41 1409962
3 2324.41 1406510
3 2324.41 1402169
3 2324.41 1386002
3 2324.41 1378885
3 2324.41 1378158
3 2324.41 1377471
3 2324.41 1373938
3 2324.41 1370661
3 2325.3 1370506
3 2325.89 1362866
3 2325.89 1361195
3 2325.89 1359381
3 2326.64 1359288
3 2326.64 1356615
3 2326.64 1354326
3 2326.64 1353608
3 2326.64 1352365
3 2326.64 1352181
3 2326.64 1351384
3 2328.51 1348700
3 2329.67 1347738
3 2329.67 1346751
3 2329.67 1345552
3 2330.33 1344474
3 2330.33 1342637
3 2330.94 1341568
3 2331.53 1338874
3 2334.47 1338851
3 2337.82 1338517
3 2338.42 1474193
3 2338.42 1472040
3 2338.42 1468046
3 2338.42 1454068
3 2338.42 1451886
3 2338.42 1450157
3 2338.42 1426180
3 2338.42 1423274
3 2338.42 1394542
3 2338.42 1382162
1 2338.42 1380875
3 2338.42 1375772
3 2338.42 1363310
3 2339.38 1361721
3 2339.38 1359880
3 2339.98 1358083
3 2339.98 1356858
3 2339.98 1345288
3 2340.62 1344045
3 2340.62 1342836
3 2341.21 1342633
3 2341.21 1329800
3 2341.21 1328639
3 2341.21 1328325
3 2342.42 1326823
3 2342.42 1323873
3 2343.05 1322754
3 2343.05 1320606
3 2352.31 1408039
3 2352.31 1405059
3 2352.31 1399328
3 2352.31 1397364
3 2352.31 1385044
3 2352.31 1384126
3 2352.31 1381603
3 2352.31 1380360
3 2352.31 1378740
3 2352.31 1377533
3 2352.31 1376078
3 2353.23 1374417
3 2353.23 1369362
3 2353.23 1369088
3 2353.23 1364109
3 2353.23 1362990
3 2353.23 1362913
3 2353.23 1361035
3 2353.97 1355273
3 2354.56 1354738
3 2355.7 1350531
3 2356.27 1343412
3 2356.27 1343246
3 2356.87 1339178
3 2357.44 1337935
3 2357.44 1335244
3 2357.44 1335070
3 2357.44 1331829
3 2358.6 1329008
3 2366.1 1454241
3 2366.1 1452611
3 2366.1 1441222
3 2366.1 1440433
3 2366.1 1435976
3 2366.1 1420000
3 2366.1 1412883
3 2366.1 1394898
3 2366.1 1377842
3 2366.1 1375280
3 2366.1 1371900
3 2366.1 1365669
3 2367.33 1364622
3 2367.33 1363587
3 2367.33 1361416
3 2368.24 1361089
3 2369.11 1360106
3 2369.11 1359998
3 2369.98 1358584
3 2369.98 1356944
3 2369.98 1354932
3 2371.69 1350368
3 2371.69 1344683
3 2371.69 1344414
3 2372.6 1343981
3 2372.6 1343171
3 2372.6 1342758
3 2373.48 1342040
3 2374.4 1340928
3 2375.27 1331940
3 2376.1 1331793
3 2376.1 1331065
3 2376.1 1330660
3 2376.1 1330268
3 2378.64 1329541
3 2379.43 1328092
3 2379.43 1320251
3 2379.43 1320189
3 2380.33 1461715
3 2380.33 1438974
3 2380.33 1428530
3 2380.33 1428314
3 2380.33 1418890
3 2380.33 1418710
3 2380.33 1408565
3 2380.33 1397827
3 2380.33 1385874
3 2380.33 1381059
3 2380.33 1377961
3 2380.33 1372818
3 2380.33 1367944
3 2380.33 1364607
3 2380.33 1364554
3 2380.33 1362522
3 2382.48 1361760
3 2382.48 1360489
3 2382.48 1355559
3 2382.48 1355015
3 2382.48 1348181
3 2382.48 1347479
3 2383.44 1347115
3 2385.01 1342142
3 2391.49 1329170
3 2391.49 1328123
3 2392.44 1326727
3 2394.04 1476912
3 2394.04 1466925
3 2394.04 1462118
3 2394.04 1448628
3 2394.04 1446199
3 2394.04 1419576
3 2394.04 1416390
3 2394.04 1395106
3 2394.04 1392556
3 2394.04 1387990
3 2394.04 1387490
3 2395.2 1386507
3 2396.04 1385807
3 2396.04 1384971
3 2396.81 1378400
3 2396.81 1377693
3 2397.41 1370313
3 2397.41 1360159
3 2397.41 1357818
3 2399.27 1356864
3 2399.83 1355868
3 2401.98 1353995
3 2401.98 1353794
3 2401.98 1352245
3 2401.98 1352230
3 2401.98 1351196
3 2401.98 1350846
3 2401.98 1350331
3 2402.74 1348228
3 2408.12 1485283
3 2408.12 1470875
3 2408.12 1467513
3 2408.12 1465583
3 2408.12 1457977
3 2408.12 1455000
3 2408.12 1454133
3 2408.12 1437635
3 2408.12 1435585
3 2408.12 1430065
3 2408.96 1427951
3 2408.96 1417797
3 2408.96 1401728
3 2409.6 1399299
3 2409.6 1398391
3 2409.6 1397575
3 2409.6 1391964
3 2409.6 1378223
3 2409.6 1374238
3 2410.3 1370204
3 2410.3 1368154
3 2410.3 1365972
3 2411.53 1365491
3 2411.53 1364204
3 2411.53 1363304
3 2412.17 1362435
3 2412.17 1358099
3 2412.17 1357547
3 2412.17 1355122
3 2414.48 1355066
3 2414.48 1353670
3 2414.48 1352952
3 2416.72 1351237
3 2417.28 1345170
3 2418.93 1344890
3 2418.93 1344452
1 2421.11 1343699
3 2421.11 1343557
3 2421.11 1343058
3 2421.11 1341851
3 2421.11 1340459
3 2421.11 1340433
3 2421.85 1340361
3 2421.85 1340054
3 2421.85 1339100
3 2421.85 1338117
3 2421.85 1337488
3 2422.54 1473080
3 2422.54 1469576
3 2422.54 1446477
3 2422.54 1437977
3 2422.54 1435063
3 2423.26 1410243
3 2423.26 1402769
3 2423.26 1394981
3 2423.26 1392004
3 2424.01 1389017
3 2424.01 1384006
3 2424.67 1382163
3 2424.67 1380763
3 2424.67 1380010
3 2424.67 1372633
3 2425.36 1369976
3 2425.93 1358279
3 2425.93 1357001
3 2425.93 1355897
3 2425.93 1353103
3 2425.93 1350050
3 2425.93 1347683
3 2426.7 1343082
3 2426.7 1342861
3 2428.48 1335574
3 2429.57 1334367
3 2429.57 1332599
3 2430.15 1331776
3 2430.7 1331582
3 2431.79 1331013
3 2431.79 1330388
3 2432.39 1329269
3 2432.97 1328551
3 2436.16 1435383
3 2436.16 1432632
3 2436.16 1431585
3 2436.16 1421948
3 2436.16 1419898
3 2436.16 1411139
3 2436.16 1404037
3 2436.97 1386304
3 2436.97 1380068
3 2436.97 1369621
3 2437.6 1367187
3 2437.6 1363255
3 2438.19 1360629
3 2438.19 1357371
3 2438.19 1352989
3 2438.8 1352005
3 2438.8 1351127
3 2438.8 1349652
3 2439.41 1348974
3 2439.96 1345080
3 2439.96 1344828
3 2440.55 1342271
3 2440.55 1334643
3 2441.12 1333546
3 2441.12 1331274
3 2441.72 1331102
3 2441.72 1329859
3 2442.38 1328592
3 2442.38 1325606
3 2443.01 1325150
3 2443.56 1324487
3 2443.56 1323769
3 2450.03 1483173
3 2450.03 1480267
3 2450.03 1448727
3 2450.03 1437164
3 2450.03 1432349
3 2450.03 1422790
3 2450.03 1420441
3 2450.03 1413037
3 2450.03 1409970
3 2450.03 1408843
3 2450.03 1408812
3 2450.03 1403651
3 2450.03 1398779
3 2450.03 1383701
3 2450.99 1378844
3 2450.99 1377866
3 2450.99 1376137
3 2450.99 1358238
3 2451.69 1356056
3 2451.69 1353160
3 2451.69 1348001
3 2451.69 1347339
3 2451.69 1344637
3 2452.36 1343470
3 2452.36 1339720
3 2452.36 1338424
3 2452.36 1333445
3 2452.36 1329683
3 2453.07 1328335
3 2453.07 1327120
3 2453.65 1325998
3 2454.19 1322660
3 2454.19 1322346
3 2455.82 1322037
3 2456.36 1319599
3 2456.36 1318364
3 2456.36 1317121
3 2457.56 1314023
3 2457.56 1313495
3 2458.73 1310158
3 2464.06 1454201
3 2464.06 1450448
3 2464.06 1435598
3 2464.06 1419053
3 2464.06 1403599
3 2464.06 1400487
3 2464.06 1399368
3 2464.87 1399226
3 2464.87 1394247
3 2464.87 1390130
3 2464.87 1388714
3 2465.53 1377882
3 2465.53 1372721
3 2465.53 1372477
3 2465.53 1372045
3 2465.53 1371927
3 2466.25 1364111
3 2466.25 1353777
3 2466.25 1351398
3 2466.25 1351061
3 2466.25 1350343
3 2466.95 1350012
3 2466.95 1342895
3 2466.95 1334995
3 2466.95 1332579
3 2467.6 1329566
3 2468.7 1329557
3 2469.28 1328438
3 2469.28 1325366
3 2469.28 1324383
3 2469.91 1322818
3 2469.91 1320538
3 2469.91 1320256
3 2469.91 1319302
3 2470.56 1316835
3 2470.56 1316257
3 2471.14 1313188
3 2471.14 1311018
3 2471.73 1310064
3 2472.81 1306899
3 2475.46 1306837
3 2476.54 1305384
3 2477.1 1305249
3 2478.22 1461553
3 2478.22 1425069
3 2478.22 1383364
3 2478.22 1380266
3 2478.22 1378672
1 2478.22 1369056
3 2478.22 1348419
3 2478.99 1348000
3 2478.99 1347982
3 2479.59 1344631
3 2479.59 1344401
3 2479.59 1338439
3 2480.22 1337959
3 2480.22 1335999
3 2480.81 1332755
3 2480.81 1332374
3 2481.4 1328244
3 2482.01 1326062
3 2483.18 1325344
3 2483.74 1322925
3 2492.29 1460201
3 2492.29 1428481
3 2492.29 1427362
3 2492.29 1415545
3 2492.29 1413283
3 2492.29 1412427
3 2492.29 1411741
3 2492.29 1408835
3 2492.29 1401195
3 2493.13 1399011
3 2493.13 1371391
3 2493.13 1368414
3 2493.13 1367434
3 2493.81 1366261
3 2493.81 1365157
3 2493.81 1364493
3 2494.44 1364438
3 2495.01 1360390
3 2495.01 1351771
3 2495.01 1345315
3 2502.77 1342419
3 2503.33 1337440
3 2503.33 1336393
3 2503.96 1333482
3 2503.96 1332741
3 2504.57 1325154
3 2504.57 1323104
3 2506.43 1389016
3 2506.43 1382718
3 2506.43 1376206
3 2506.43 1360394
3 2507.18 1357382
3 2507.18 1348678
3 2507.18 1329433
3 2508.49 1324570
3 2509.06 1321664
3 2513.38 1319081
3 2513.38 1317031
3 2518.7 1316849
3 2520.32 1414730
3 2520.32 1411753
3 2520.32 1396783
3 2520.32 1393877
3 2520.32 1385977
3 2521.08 1383505
3 2521.08 1382717
3 2521.08 1376425
3 2521.73 1373561
3 2521.73 1367760
3 2521.73 1360120
3 2521.73 1359073
3 2521.73 1354860
3 2521.73 1352347
3 2521.73 1351393
3 2522.49 1351343
3 2522.49 1350360
3 2523.1 1347451
3 2523.1 1343987
3 2523.1 1338093
3 2523.1 1334959
3 2523.1 1334833
3 2523.1 1334652
3 2523.77 1331856
3 2523.77 1329222
3 2523.77 1328915
3 2523.77 1328813
3 2523.77 1328095
3 2523.77 1325544
3 2524.47 1325252
3 2524.47 1323366
3 2525.06 1321213
3 2525.62 1315137
3 2528.78 1314861
3 2528.78 1313618
3 2528.78 1313105
3 2528.78 1312757
3 2529.41 1312039
3 2530.5 1311461
3 2533.59 1311337
3 2533.59 1310665
3 2534.17 1427540
3 2534.17 1422977
3 2534.17 1422384
3 2534.17 1417786
3 2534.17 1413744
3 2534.17 1412625
3 2534.17 1404792
3 2534.17 1403549
3 2534.17 1398754
3 2534.17 1397261
3 2534.17 1384816
3 2534.17 1380040
3 2534.17 1378269
3 2534.17 1375334
3 2534.17 1373326
3 2535.13 1362367
3 2535.13 1358661
3 2535.13 1354947
3 2535.76 1353838
3 2535.76 1352734
3 2535.76 1351685
3 2536.41 1349127
3 2536.97 1344465
3 2538.59 1342011
3 2538.59 1339796
3 2540.77 1336976
3 2540.77 1334493
3 2541.35 1330031
3 2541.35 1328481
3 2541.35 1327860
3 2541.99 1327142
3 2541.99 1326336
3 2542.57 1325383
3 2548.25 1465365
3 2548.25 1430499
3 2548.25 1429209
3 2548.25 1404597
3 2548.25 1403478
3 2548.25 1398264
3 2548.25 1381400
3 2548.25 1378063
3 2548.25 1375086
3 2548.25 1374916
3 2548.25 1367655
3 2548.25 1366701
3 2549.17 1365498
3 2549.17 1355477
3 2549.76 1354218
3 2549.76 1353320
3 2550.35 1349714
3 2550.91 1344559
3 2550.91 1334405
3 2551.57 1333374
3 2551.57 1331499
3 2552.3 1326676
3 2552.3 1325958
3 2555.3 1324576
3 2555.92 1319722
3 2562.28 1440942
3 2562.28 1433302
3 2562.28 1432135
3 2562.28 1429158
3 2562.28 1428593
3 2562.28 1412524
3 2562.28 1412274
3 2562.28 1411067
3 2562.28 1410187
3 2563.19 1409164
3 2563.19 1405180
3 2563.19 1403412
3 2563.19 1398326
3 2563.19 1388167
3 2563.19 1387778
3 2563.19 1375400
3 2564.12 1366817
3 2564.12 1365698
3 2565.28 1365516
3 2565.89 1363822
3 2567.14 1360876
3 2567.14 1359854
3 2567.14 1359774
3 2567.14 1358030
3 2567.14 1357076
3 2567.14 1347344
3 2568.15 1344535
3 2568.15 1341070
3 2568.15 1341011
3 2568.15 1335027
3 2569.11 1332977
3 2569.11 1331799
3 2569.11 1330475
3 2569.11 1326449
3 2570.04 1322510
3 2571.75 1321535
3 2574.13 1321368
3 2574.13 1320125
3 2575.05 1319038
3 2575.05 1317535
3 2575.96 1315353
3 2576.81 1460035
3 2576.81 1441102
3 2576.81 1432280
3 2576.81 1429763
3 2576.81 1425963
3 2576.81 1422378
3 2576.81 1419472
3 2577.95 1413996
3 2577.95 1410581
3 2577.95 1408270
3 2577.95 1402227
3 2577.95 1389118
3 2577.95 1384970
3 2577.95 1374944
3 2579.02 1357689
3 2579.02 1352666
3 2579.02 1351969
3 2579.02 1351712
3 2579.95 1350505
3 2580.79 1345344
3 2582.41 1338732
3 2584.16 1336761
3 2584.16 1329942
3 2589.48 1329871
3 2590.28 1491414
3 2590.28 1473314
3 2590.28 1472360
3 2590.28 1455955
3 2590.28 1455237
3 2590.28 1441075
3 2590.28 1439868
3 2590.28 1409089
3 2590.28 1403928
3 2591.51 1397537
3 2591.51 1383466
3 2591.51 1382223
3 2592.39 1380756
3 2592.39 1359203
3 2592.39 1353511
3 2593.37 1350612
3 2593.37 1347612
3 2593.37 1345167
3 2595.86 1344776
3 2597.09 1341678
3 2597.73 1341646
3 2598.61 1336831
3 2598.61 1335623
3 2598.61 1334027
3 2599.35 1333207
3 2599.35 1331360
3 2600.06 1328132
3 2603.3 1327277
3 2603.3 1324744
3 2604.08 1442424
3 2604.08 1437285
3 2604.08 1434308
3 2604.08 1433065
3 2604.08 1402954
3 2604.08 1393155
3 2604.08 1389441
3 2604.08 1386088
3 2604.08 1376968
3 2605.1 1362794
3 2605.1 1359520
3 2605.1 1357338
3 2605.1 1355393
3 2605.8 1353214
3 2605.8 1349268
3 2605.8 1348839
3 2606.47 1345704
3 2606.47 1344439
3 2606.47 1344407
3 2606.47 1343400
3 2606.47 1337204
3 2607.23 1335901
3 2607.88 1335274
3 2607.88 1334574
3 2608.84 1331782
3 2608.84 1331476
3 2610.26 1330522
3 2610.26 1327923
3 2611 1326010
3 2611 1325964
3 2614.05 1324532
3 2618.27 1421424
3 2618.27 1413759
3 2618.27 1383412
3 2618.27 1381942
3 2618.27 1381929
3 2618.27 1381704
3 2619.2 1380721
3 2619.2 1378539
3 2619.2 1378132
3 2619.2 1377736
3 2619.2 1375858
3 2619.2 1375335
3 2620.11 1374288
3 2620.85 1369504
3 2620.85 1368426
3 2620.85 1364343
3 2620.85 1358422
3 2620.85 1356240
3 2621.72 1355508
3 2621.72 1353489
3 2622.53 1351856
3 2623.42 1350404
3 2623.42 1348328
3 2623.42 1347812
3 2623.42 1347287
3 2624.39 1344908
3 2624.39 1344190
3 2625.28 1341836
3 2626.94 1341078
3 2627.82 1339514
3 2627.82 1339225
3 2632.26 1531130
3 2632.26 1505240
3 2632.26 1460234
3 2632.26 1451211
3 2633.28 1450164
3 2633.28 1448562
3 2633.28 1409797
3 2633.28 1401389
3 2634.12 1399563
3 2634.12 1395552
3 2634.12 1390584
3 2634.12 1390573
3 2634.12 1386313
3 2634.12 1383816
3 2634.89 1372312
3 2634.89 1370050
3 2635.6 1364968
3 2635.6 1360217
3 2635.6 1359148
3 2635.6 1358196
3 2635.6 1358029
3 2635.6 1357363
3 2635.6 1352868
3 2636.42 1350123
3 2636.42 1344937
3 2636.42 1344219
3 2637.2 1340380
3 2637.89 1335617
3 2638.67 1335322
3 2638.67 1334115
3 2639.39 1333382
3 2639.39 1332007
3 2640.03 1330372
3 2640.03 1329854
3 2640.61 1328807
3 2641.18 1328092
3 2641.74 1327524
3 2642.29 1325901
3 2643.44 1325561
3 2646.26 1427712
3 2646.26 1418333
3 2646.26 1404916
3 2646.26 1399379
3 2646.26 1398711
3 2646.26 1397329
3 2647.05 1395720
3 2647.05 1389603
3 2647.05 1388176
3 2647.05 1387927
3 2647.05 1383047
3 2647.95 1380894
3 2647.95 1378712
3 2648.58 1378218
3 2648.58 1375924
3 2648.58 1373064
3 2648.58 1372826
3 2648.58 1371843
3 2649.28 1369820
3 2649.88 1366662
3 2649.88 1362540
3 2649.88 1361806
3 2651.25 1345419
3 2651.25 1340183
3 2651.25 1339144
3 2651.25 1334699
3 2652.07 1332484
3 2655.2 1332034
3 2656.03 1331459
3 2660.24 1468046
3 2660.24 1464934
3 2660.24 1456122
3 2660.24 1425893
3 2660.24 1425356
3 2660.24 1422450
3 2660.24 1421467
3 2660.24 1405594
3 2660.24 1404876
3 2660.24 1398741
3 2661.41 1397815
3 2661.41 1395765
3 2661.41 1387603
3 2661.41 1384505
3 2662.49 1383725
3 2662.49 1381849
3 2662.49 1377489
3 2662.49 1376839
3 2662.49 1370173
3 2662.49 1368020
3 2663.53 1367170
3 2663.53 1364368
3 2664.39 1349946
3 2665.23 1348340
3 2666.08 1347307
3 2666.08 1346787
3 2666.08 1339866
3 2666.97 1339598
3 2667.76 1338118
3 2667.76 1337077
3 2667.76 1335847
3 2667.76 1335586
3 2668.67 1333164
3 2668.67 1332439
3 2668.67 1331489
3 2669.55 1326992
3 2669.55 1326560
3 2671.31 1323223
3 2672.99 1322906
3 2674.66 1526909
3 2674.66 1503270
3 2674.66 1483501
3 2674.66 1453003
3 2674.66 1442613
3 2674.66 1441634
3 2674.66 1422222
3 2674.66 1418308
3 2674.66 1401331
3 2674.66 1399036
3 2675.8 1389002
3 2675.8 1385350
3 2675.8 1382366
3 2676.65 1380184
3 2676.65 1368620
3 2676.65 1361503
3 2676.65 1354609
3 2676.65 1351632
3 2677.57 1340549
3 2677.57 1339935
3 2678.37 1337782
3 2681.43 1336592
3 2682.23 1336211
3 2682.23 1334863
3 2682.23 1334776
3 2682.23 1334058
3 2683.99 1330679
3 2683.99 1329044
3 2683.99 1328158
3 2683.99 1326469
3 2683.99 1324714
3 2684.99 1323507
3 2685.81 1317841
3 2686.63 1317513
3 2688.22 1486319
3 2688.22 1458256
3 2688.22 1439027
3 2688.22 1420968
3 2688.22 1420558
1 2688.22 1410300
3 2688.22 1404064
3 2688.22 1393090
3 2688.22 1391577
3 2688.22 1391382
3 2689.41 1385940
3 2689.41 1382963
3 2689.41 1379311
3 2689.41 1378868
3 2689.41 1375531
3 2689.41 1363796
3 2689.41 1361202
3 2690.45 1355980
3 2690.45 1352440
3 2690.45 1349674
3 2690.45 1344483
3 2691.26 1344337
3 2692.4 1342004
3 2692.4 1338844
3 2693.04 1337660
3 2693.6 1335855
3 2693.6 1335478
3 2694.18 1331854
3 2694.18 1331596
3 2694.82 1330549
3 2695.96 1327373
3 2695.96 1325734
3 2696.59 1319101
3 2697.76 1314764
3 2702.17 1471235
3 2702.17 1468123
3 2702.17 1462501
3 2702.17 1458579
3 2702.17 1441463
3 2702.17 1438301
3 2702.17 1394484
3 2702.17 1392331
3 2703.43 1382240
3 2703.43 1375429
3 2703.43 1360892
3 2704.38 1360350
3 2704.38 1359066
3 2705.23 1357015
3 2705.23 1341098
3 2706.09 1340051
3 2706.09 1334604
3 2706.09 1333858
3 2707.11 1333485
3 2707.93 1331846
3 2707.93 1330450
3 2708.79 1327724
3 2708.79 1326798
3 2708.79 1325413
3 2709.7 1316994
3 2709.7 1316226
3 2709.7 1316127
3 2710.61 1315080
3 2712.17 1314440
3 2712.17 1308226
3 2712.17 1307293
3 2712.17 1307180
3 2716.17 1483904
3 2716.17 1473540
3 2716.17 1464957
3 2716.17 1464875
3 2716.17 1433155
3 2716.17 1429259
3 2716.17 1414522
3 2716.17 1409799
3 2716.17 1404638
3 2716.17 1397288
3 2717.32 1396045
3 2717.32 1395325
3 2717.32 1392376
3 2717.32 1390285
3 2717.32 1381311
3 2718.35 1364069
3 2718.35 1362719
3 2718.35 1349474
3 2719.28 1348267
3 2720.11 1346085
3 2720.11 1345305
3 2720.11 1343399
3 2721.01 1342733
3 2721.87 1341750
3 2723.59 1338502
3 2723.59 1333885
3 2726.05 1333167
3 2729.27 1332160
3 2729.27 1331113
3 2729.27 1330385
3 2729.27 1329511
3 2729.27 1326605
3 2729.27 1325651
3 2730.2 1442272
3 2730.2 1424918
3 2730.2 1422494
3 2730.2 1421776
3 2730.2 1391434
3 2730.2 1389037
3 2730.2 1387551
3 2730.2 1382791
3 2730.2 1382211
3 2730.2 1369073
3 2730.2 1366214
3 2730.2 1362527
3 2731.5 1361027
3 2731.5 1353127
3 2731.5 1352373
3 2731.5 1347812
3 2731.5 1347346
3 2731.5 1345909
3 2732.59 1335347
3 2734.22 1334940
3 2734.22 1334737
3 2734.22 1333821
3 2735.11 1333213
3 2735.11 1332354
3 2735.11 1331307
3 2739.21 1330524
3 2740.05 1330341
3 2741.72 1330064
3 2744.24 1484406
3 2744.24 1457996
3 2744.24 1443917
3 2744.24 1431510
3 2744.24 1430490
3 2744.24 1397208
3 2744.24 1394705
3 2744.24 1394274
3 2745.42 1391971
3 2745.42 1384826
3 2745.42 1377028
3 2745.42 1375661
3 2745.42 1373626
3 2745.42 1370514
3 2746.46 1359926
3 2746.46 1354675
3 2746.46 1353690
3 2746.46 1352493
3 2746.46 1351775
3 2746.46 1350039
3 2747.73 1345808
3 2748.7 1343002
3 2748.7 1340795
3 2748.7 1336208
3 2748.7 1324580
3 2748.7 1323652
3 2750.64 1323510
3 2750.64 1322792
3 2751.62 1322046
3 2751.62 1321149
3 2754.01 1319551
3 2755.69 1315205
3 2757.13 1314733
3 2758.34 1434893
3 2758.34 1432119
3 2758.34 1429205
3 2758.34 1427023
3 2758.34 1422795
3 2758.34 1413553
3 2758.34 1409198
3 2759.25 1404672
3 2759.25 1402613
3 2759.25 1397634
3 2759.25 1396916
3 2759.25 1384957
3 2759.25 1382685
3 2759.25 1381185
3 2759.25 1377392
3 2759.25 1375210
3 2760.28 1352024
3 2760.28 1351558
3 2760.93 1350778
3 2760.93 1343604
3 2760.93 1337563
3 2760.93 1337368
3 2761.81 1336125
3 2772.31 1437537
3 2772.31 1434311
3 2772.31 1431405
3 2772.31 1421443
3 2772.31 1417544
3 2772.31 1411327
3 2772.31 1398657
3 2772.31 1396974
3 2772.31 1394461
3 2772.31 1388598
3 2773.26 1387391
3 2773.26 1386752
3 2773.26 1385196
3 2773.91 1375042
3 2773.91 1370728
3 2774.53 1367723
3 2775.15 1361148
3 2775.15 1355495
3 2775.15 1351857
3 2775.15 1351441
3 2775.83 1349029
3 2775.83 1344794
3 2775.83 1340985
3 2775.83 1340065
3 2775.83 1337510
3 2777.07 1337065
3 2779.86 1335239
3 2780.43 1335014
3 2781 1334357
3 2781 1334296
3 2781.59 1331405
3 2781.59 1326812
3 2782.24 1326510
3 2782.24 1326432
3 2782.87 1325773
3 2782.87 1324577
3 2782.87 1322362
3 2783.71 1321836
3 2784.42 1321199
3 2784.42 1320559
3 2786.53 1437273
3 2786.53 1414273
3 2786.53 1411432
3 2786.53 1402470
3 2786.53 1401752
3 2787.4 1389631
3 2787.4 1381991
3 2787.4 1375171
3 2788.22 1373141
3 2788.22 1372022
3 2788.22 1371473
3 2788.22 1368517
3 2788.22 1366444
3 2788.22 1361585
3 2788.22 1345982
3 2789.15 1337842
3 2789.15 1337170
3 2789.91 1335742
3 2789.91 1323113
3 2790.69 1319150
3 2790.69 1315298
3 2790.69 1313582
3 2791.47 1310727
3 2791.47 1310676
3 2792.91 1309833
3 2792.91 1309591
3 2794.29 1309405
3 2794.29 1308626
Score = 1311857
