    Blocking waiting for file lock on package cache
    Blocking waiting for file lock on package cache
    Blocking waiting for file lock on package cache
    Blocking waiting for file lock on build directory
    Finished release [optimized] target(s) in 0.03s
     Running `target/release/tester ../a.out 0089`
3 0.02 1035890
3 0.02 1029696
3 0.02 1027686
3 0.02 1023878
3 0.02 1012102
3 0.02 1004109
3 0.02 1003041
3 0.828 971269
3 0.828 966774
3 1.201 958978
3 1.532 953495
3 1.532 952741
3 1.847 952087
3 14.004 993754
3 14.004 986030
3 14.004 982345
3 14.004 974677
3 14.364 968489
3 14.364 967258
3 14.627 951352
3 14.627 949728
3 14.627 948082
3 14.627 941525
3 14.627 940753
3 14.627 940647
3 14.627 940177
3 14.627 937998
3 14.983 936127
3 15.275 935240
3 15.275 932841
3 15.275 931633
3 15.549 930593
3 28.155 1006663
3 28.155 1005623
3 28.155 1004851
3 28.155 986724
3 28.155 984534
3 28.155 977704
3 28.155 975057
3 28.155 972509
3 28.155 967275
3 28.155 964984
3 28.731 945923
3 28.731 945501
3 28.731 942753
3 28.731 941565
3 29.601 934390
3 29.601 934373
3 29.601 933402
3 30.055 932241
3 30.055 931327
3 30.055 929717
3 42.105 1013860
3 42.105 1010175
3 42.105 983069
3 42.105 982298
3 42.105 979349
3 42.105 954682
3 42.105 954491
3 42.105 952688
3 42.105 952253
3 42.105 949566
3 42.543 946640
3 42.784 944962
3 43.047 943922
3 45.071 941683
3 45.354 940562
3 45.354 940205
3 45.354 939992
3 45.354 939908
3 45.354 939136
3 45.661 935589
3 45.661 934354
3 45.661 933657
3 45.661 932603
3 45.981 931721
3 45.981 930681
3 45.981 930027
3 46.959 928877
3 46.959 927910
3 50.457 926726
3 50.457 923359
3 50.457 921799
1 56.092 1057439
3 56.092 1055429
3 56.092 1052337
3 56.092 1046783
3 56.092 1026131
3 56.092 1025580
3 56.092 1024521
3 56.092 994367
3 56.092 979342
3 56.493 976794
3 56.493 975795
3 56.493 974755
3 56.493 965283
3 59.758 960984
3 59.758 958982
3 60.068 958522
3 60.068 958331
3 61.896 956972
3 70.012 989699
3 70.012 983013
3 70.012 979328
3 70.012 975905
3 70.012 974388
3 70.012 968854
3 70.012 967244
3 70.409 966327
3 70.409 964739
3 70.409 962092
3 70.672 960853
3 70.672 960821
3 70.672 959544
3 70.672 955859
3 70.955 951722
3 71.194 947609
3 71.194 946249
3 71.194 937626
3 71.461 937435
3 72.272 934850
1 84.23 1059043
3 84.23 1047299
3 84.23 1046259
3 84.23 1019038
3 84.23 1017692
3 84.576 1014007
3 84.576 1012799
3 85.011 1005774
3 85.011 1000377
3 85.011 999320
3 85.479 993214
3 85.479 992174
3 85.931 990795
3 85.931 989224
3 86.499 987395
3 86.499 985500
3 86.499 983890
3 86.499 983699
1 91.94 966292
3 92.203 964169
3 92.203 960224
3 93.974 954540
3 98.29 999441
3 98.29 998727
3 98.29 987944
3 98.29 984591
3 98.29 982981
3 98.29 982267
3 98.29 975242
3 98.29 966222
3 98.29 954936
3 98.711 953486
3 98.711 945737
3 98.711 943189
3 98.979 941637
3 99.244 937996
3 99.244 937564
3 100.053 934135
3 100.053 932902
3 100.053 931862
3 100.321 931671
3 112.21 1009579
3 112.21 1009140
3 112.21 1008486
3 112.21 1007714
3 112.21 1005166
3 112.21 982842
3 112.21 982036
3 112.21 980204
3 112.21 970580
3 112.21 965653
3 112.875 965375
3 112.875 963110
3 112.875 960562
3 112.875 944716
3 112.875 938841
3 113.356 937799
3 126.236 1013146
3 126.236 1002518
3 126.236 989318
3 126.236 988202
3 126.236 977669
3 126.236 976819
3 126.236 973893
3 126.236 966120
3 126.236 962435
3 126.236 951902
3 126.236 948632
3 126.647 945985
3 126.647 945676
3 126.647 944636
3 126.647 943922
3 140.023 1130350
3 140.023 1106337
3 140.023 1092408
3 140.023 1079422
3 140.023 1078151
3 140.023 1059060
3 140.023 1058629
3 140.023 1044700
3 140.023 1043942
3 140.589 1043170
3 140.589 1042516
3 140.589 1031183
3 140.589 1021881
3 140.589 1018196
3 141.302 1008187
3 141.302 1006949
3 146.262 996498
3 146.262 994888
3 146.262 991073
3 146.262 989917
3 146.262 986427
3 146.585 979963
3 146.585 978686
3 146.862 977125
3 146.862 974478
3 146.862 973191
3 146.862 972537
3 148.403 971098
3 149.262 970866
3 149.262 968790
3 149.916 964868
3 154.254 1016877
3 154.254 1015267
3 154.254 1007543
3 154.254 993962
3 154.254 991909
3 154.254 986855
3 154.254 976557
3 154.754 964038
3 155.2 962527
3 155.624 960288
3 156.051 953263
3 157.818 946702
3 161.162 939490
3 161.585 937166
3 161.585 934240
3 161.585 932818
3 161.913 930270
3 161.913 928260
3 168.397 1033081
3 168.397 1023664
3 168.397 1021704
3 168.397 1018218
3 168.397 988816
3 168.397 986577
3 168.397 960955
3 168.95 957959
3 168.95 956057
3 168.95 955285
3 168.95 954245
3 172.77 948691
3 173.031 948500
3 173.031 942580
3 173.291 940166
3 173.544 939975
3 174.807 932298
3 174.807 931258
3 174.807 930836
3 175.346 929648
3 182.303 1006843
3 182.303 977822
3 182.303 977050
3 182.303 975336
3 182.303 968549
3 182.303 967061
3 182.303 954655
3 182.798 953859
3 182.798 952819
3 182.798 938890
3 183.149 927910
3 183.964 927805
3 183.964 925158
3 184.239 924683
3 184.479 924502
3 184.479 924121
3 184.479 923848
3 184.479 923076
3 184.868 922308
3 185.279 921799
3 196.056 1038477
3 196.056 1027353
3 196.056 1023710
3 196.056 1018211
3 196.056 1004649
3 196.056 1003372
3 196.056 1000971
3 196.056 991669
3 196.056 986417
3 196.056 985377
3 196.056 984504
3 196.056 977561
3 196.056 975013
3 196.056 969299
3 196.687 964930
3 196.687 963320
3 196.687 960633
3 196.687 951911
3 197.145 942763
3 197.145 941261
3 197.145 941229
3 197.145 941049
3 197.629 940575
3 197.629 940123
3 197.629 937600
3 198.097 937122
3 198.936 936350
3 199.346 936195
3 210.133 989056
3 210.133 986995
3 210.133 978885
3 210.133 970278
3 210.133 968838
3 210.133 967905
3 210.133 950685
3 210.133 946529
3 210.477 945757
3 210.477 944717
3 210.477 944063
3 210.477 943676
3 210.954 943558
3 210.954 942978
3 216.097 942786
3 216.097 941545
3 216.097 941272
3 216.097 941046
3 216.385 940274
1 216.385 930027
3 224 927275
3 224 924194
3 224.488 985767
3 224.488 984429
3 224.488 983657
3 224.488 982617
3 224.488 974893
3 224.488 957115
3 224.488 955838
3 224.488 955184
3 224.488 951809
3 225.028 948857
3 225.028 948195
3 225.503 947654
3 225.503 946882
3 228.867 941688
3 228.867 938762
3 229.139 935950
3 229.383 933402
3 229.383 932125
3 229.383 927198
3 229.383 926544
3 238.139 1039680
3 238.139 1027936
3 238.139 1022646
3 238.139 1009660
3 238.139 1003961
3 238.139 980628
3 238.139 978711
3 238.139 970920
3 238.756 957750
3 238.756 956812
3 238.756 955740
3 239.898 953127
3 240.621 952553
3 240.621 952087
3 252.049 1079197
3 252.049 1046800
3 252.049 1008475
3 252.049 1005788
3 252.049 1004178
3 252.049 1003805
3 252.049 984744
3 252.049 960633
3 252.662 958626
3 252.662 956150
3 252.662 953699
3 252.662 953602
3 252.662 948046
3 252.662 939668
3 252.991 937440
3 252.991 936820
3 252.991 935780
3 252.991 934215
3 252.991 932728
3 253.298 932530
3 253.298 929883
3 253.298 925120
3 253.298 924929
3 253.619 923049
3 253.619 922453
3 253.619 921799
3 266.133 1063381
3 266.133 1019097
3 266.133 1018057
3 266.133 993437
3 266.133 982457
3 266.133 974666
3 266.133 971665
3 266.133 964005
3 266.133 958331
3 266.133 957736
3 266.133 953633
3 266.133 950909
3 266.133 950584
3 266.133 945982
3 266.585 937359
3 268.31 934955
3 268.31 933915
3 268.31 933654
3 268.31 931853
3 268.616 929369
3 268.616 925684
3 280.221 994739
3 280.221 975648
3 280.221 974608
3 280.221 966083
3 280.702 964774
3 280.702 958986
3 280.702 947511
3 281.234 947312
3 281.234 947040
3 282.038 946923
3 282.29 944434
3 282.29 943157
3 282.29 942385
3 282.997 941063
3 282.997 938515
3 282.997 937621
3 283.562 937475
3 283.562 934427
3 283.562 934236
3 284.273 933798
3 288.928 933102
3 288.928 931853
3 294.11 1043467
3 294.11 1028325
3 294.11 1007076
3 294.11 994090
3 294.11 984788
3 294.11 976943
3 294.11 967126
3 294.462 961591
3 294.462 953066
3 294.462 950679
3 294.732 947834
1 295.401 947729
3 295.401 946225
3 295.401 942802
3 295.401 942148
3 295.401 941376
3 308.372 1045900
3 308.372 1038160
3 308.372 1026416
3 308.372 1006715
3 308.75 998774
3 308.75 998120
3 308.75 985250
3 308.75 981271
3 309.111 981125
3 309.428 979906
3 309.428 976513
3 309.428 974979
3 309.428 974607
3 309.428 969756
3 309.428 967970
3 309.428 964407
3 309.743 963908
3 309.743 963549
3 309.743 960414
3 310.803 955288
3 310.803 952813
3 310.803 952622
3 310.803 951378
3 322.239 1022000
3 322.239 1021346
3 322.239 1012723
3 322.239 1004637
3 322.239 987881
3 322.239 987437
3 322.239 982866
3 322.239 980856
3 322.239 967870
3 322.239 963419
3 322.686 951675
3 322.686 949127
3 322.686 949082
3 322.686 948936
3 322.686 948310
1 323.589 946573
3 323.838 943674
3 323.838 942459
3 323.838 940313
1 326.103 938775
3 326.103 936905
3 336.213 1021073
3 336.213 990238
3 336.213 986905
3 336.213 984666
3 336.213 976255
3 336.213 965007
3 336.213 962360
3 336.628 960757
3 336.628 959396
3 336.91 958367
3 336.91 955819
3 336.91 955275
3 336.91 950767
3 336.91 948120
3 337.227 944010
3 337.227 943811
3 337.227 943203
3 337.227 941782
3 337.227 940941
3 337.227 938449
3 337.542 938250
3 337.834 937142
3 337.834 936370
3 337.834 936002
3 337.834 935716
3 338.162 933504
3 338.162 931245
3 338.46 930578
3 338.714 924220
3 338.961 919896
3 339.217 919610
3 339.748 918343
3 340.013 916913
3 340.013 916733
3 350.047 990792
3 350.047 982169
3 350.047 981129
3 350.047 977657
3 350.047 971827
3 350.047 970114
3 350.047 964426
3 350.047 963492
3 350.047 945781
3 350.555 942096
3 364.159 1000918
3 364.159 999878
3 364.159 985442
3 364.159 982368
3 364.159 972006
3 364.159 971234
3 364.159 958576
3 364.159 955816
3 364.689 949748
3 364.689 945687
3 364.689 944293
3 364.689 932444
3 364.689 930657
3 364.689 925400
3 365.227 924639
3 365.227 922765
3 365.561 921993
3 378.021 1006255
3 378.021 991568
3 378.021 986820
3 378.021 984272
3 378.021 969188
3 378.021 965181
3 378.021 959886
3 378.021 958846
3 378.021 953310
3 378.021 948416
3 378.603 945944
3 378.603 945860
3 378.603 934095
3 378.603 933117
3 379.476 931840
3 379.476 931448
3 379.906 931341
3 380.376 927798
3 380.376 923848
3 380.376 923076
3 381.233 921799
3 392.011 1019729
3 392.011 1012601
3 392.011 987521
3 392.011 985911
3 392.011 982222
3 392.511 979048
3 392.511 978106
3 392.511 976500
3 392.511 975460
3 392.974 955982
3 393.413 955791
3 393.413 952821
3 393.86 952049
1 397.5 947457
3 397.5 947266
3 397.781 944130
3 397.781 941582
3 397.781 938032
3 397.781 933311
3 398.056 932271
3 406.288 1052914
3 406.288 1023216
3 406.288 1023093
3 406.288 1019408
3 406.288 1008967
3 406.288 996645
3 406.288 989292
3 406.288 987805
3 406.288 983991
3 406.288 979848
3 406.721 976825
3 406.721 973367
3 406.721 968202
3 406.721 965276
3 406.721 964847
3 407.042 960659
3 407.042 956353
3 407.042 956295
3 407.042 956151
3 407.339 954667
3 407.339 954491
3 407.339 951943
3 408.197 951280
3 408.197 949270
3 408.197 949135
3 408.197 946209
3 408.197 945555
3 408.197 941973
3 408.594 941132
3 408.594 940941
3 408.594 940742
3 408.967 940643
3 408.967 939492
3 408.967 935716
3 409.315 934007
3 409.315 931459
3 409.315 930491
3 409.315 929915
3 409.315 928533
3 410.283 924220
3 420.21 973375
3 420.21 965523
3 420.21 961271
3 420.21 960861
3 420.21 956512
3 420.71 956150
3 420.71 955110
3 420.71 952124
3 420.71 945317
3 420.71 939760
3 420.71 934375
3 420.71 933721
3 421.29 931467
3 423.097 929023
3 423.408 928702
3 423.857 927802
3 424.281 927148
3 424.281 926376
3 434.316 1004338
3 434.316 999770
3 434.316 998730
3 434.316 985393
3 434.316 965888
3 434.316 964354
3 434.316 963077
3 434.842 961467
3 434.842 959553
3 434.842 957545
3 435.628 957005
3 435.628 952251
3 436.025 949619
3 436.853 946370
3 437.694 942962
3 448.256 1041159
3 448.256 1025807
3 448.256 1018782
3 448.256 980457
3 448.256 963039
3 448.256 962842
3 448.256 961366
3 448.778 959356
3 450.041 956656
3 450.041 955898
3 450.041 955126
3 452.895 953549
3 452.895 952509
3 453.187 944567
3 453.459 944093
3 462.09 1004590
3 462.09 1001672
3 462.09 1001018
3 462.09 993395
3 462.09 985840
3 462.09 969105
3 462.09 962165
3 462.09 961033
3 462.09 958125
3 462.499 944231
3 462.499 930028
3 462.499 928927
3 462.499 928614
3 462.499 927941
3 462.499 927805
3 462.499 927668
3 462.834 927498
3 462.834 925294
3 462.834 924522
3 463.098 921799
3 476.104 1036484
3 476.104 1035692
1 476.104 1033032
3 476.104 1031022
3 476.104 1029262
3 476.104 1025614
3 476.104 1015228
3 476.104 1014146
3 476.104 1011666
3 476.104 1005505
3 476.104 995076
3 476.104 992429
3 476.702 983127
3 476.702 980809
3 476.702 977883
3 476.702 974856
3 476.702 974535
3 476.702 971987
3 476.702 969965
3 476.702 966627
3 477.163 961527
3 477.163 953427
3 477.163 952225
3 477.163 948395
3 477.163 945200
3 477.47 941760
3 477.47 941683
3 477.47 938670
3 477.77 936889
3 477.77 935751
3 477.77 933798
3 483.428 933102
3 483.801 931853
3 490.15 996654
3 490.15 995377
3 490.15 994723
3 490.15 994535
3 490.15 980762
3 490.15 968913
3 490.15 968233
3 490.15 967061
3 490.15 954705
3 490.15 941104
3 490.527 937738
3 490.527 937118
3 491.321 934941
3 491.321 934753
3 491.58 933713
3 504.192 1006715
3 504.192 993198
3 504.192 984037
3 504.192 983322
3 504.192 983131
3 504.192 979523
3 504.511 976975
3 504.511 975737
3 504.511 973182
3 504.511 970634
3 504.511 969024
3 504.511 967795
3 504.813 962807
3 504.813 960259
3 505.109 954134
3 505.362 945903
3 505.616 943226
3 505.616 942988
3 505.899 942334
3 518.192 1069136
3 518.192 1066895
3 518.192 1043907
3 518.192 1007807
3 518.192 1006197
3 518.192 1001550
3 518.192 995547
3 518.192 995253
3 518.192 991243
3 518.192 990203
3 518.761 986803
3 518.761 985323
3 518.761 984669
3 518.761 969982
3 518.761 967557
3 518.761 966316
3 519.267 965276
3 519.267 964775
3 519.267 962765
3 519.728 961854
3 519.728 960359
3 519.728 959082
3 520.136 955740
3 524.163 952519
3 524.426 952087
3 532.026 1020173
3 532.026 1004677
3 532.026 992308
3 532.026 989388
3 532.026 987756
3 532.026 986181
3 532.367 983783
3 532.367 979393
3 532.367 970868
3 532.682 969041
3 532.682 967183
3 532.682 956203
3 532.682 956155
3 532.983 955163
3 536.784 952469
3 536.784 948784
3 536.784 947957
3 537.063 947179
3 537.063 943683
3 537.336 942911
3 537.336 942659
3 537.597 942468
3 537.597 942248
3 537.597 941476
3 546.369 1060815
3 546.369 1058267
3 546.369 1057709
3 546.369 1057227
3 546.369 1028994
3 546.897 1025065
3 546.897 1023788
3 546.897 1000680
3 546.897 999811
3 546.897 997019
3 547.2 995409
3 547.2 983755
3 547.2 980722
3 547.2 976702
3 547.2 976280
3 547.2 973732
3 547.504 970675
3 547.945 968665
3 547.945 967867
3 547.945 966046
3 547.945 965855
3 548.432 961319
3 548.432 957684
3 548.89 952887
3 548.89 952696
3 549.345 952404
3 550.219 949353
1 556.656 945945
3 560.103 1032823
3 560.103 1030275
3 560.103 1002042
3 560.103 1000771
3 560.103 992343
3 560.103 982784
3 560.103 969176
3 560.592 966529
3 560.592 953156
3 560.592 951512
3 560.592 946419
3 560.592 946254
3 561.296 946218
3 561.296 945193
3 561.296 943179
3 561.296 934946
3 561.666 933766
3 561.666 931218
3 561.666 930292
3 561.666 929883
3 561.666 929692
3 562.115 929608
3 574.018 1039329
3 574.018 1007557
3 574.018 993305
3 574.018 990039
3 574.018 984707
3 574.018 970677
3 574.018 958878
3 574.018 955765
3 575.086 955178
3 575.086 954155
3 576.414 948026
3 576.414 946943
3 576.414 942333
3 576.414 940205
3 576.874 937657
3 576.874 936807
3 588.111 1006163
3 588.111 988394
3 588.111 976783
3 588.111 975656
3 588.111 968941
3 588.111 961543
3 588.111 960997
3 588.111 955392
3 588.111 952374
3 588.111 951602
3 588.111 949054
3 588.479 948014
3 602.258 1030874
3 602.258 1002409
3 602.258 1001369
3 602.258 983109
3 602.258 968972
3 602.809 967917
3 602.809 966842
3 602.809 962363
3 602.809 953740
3 602.809 953549
3 602.809 942987
3 603.311 940439
3 603.311 939053
3 603.311 938862
3 616.088 1061599
3 616.088 1060540
3 616.088 1057914
3 616.088 1054492
3 616.088 1051944
3 616.088 1046410
3 616.088 1029481
3 616.088 1005231
3 616.088 1002259
3 616.088 1000996
3 616.088 993518
3 616.696 982373
3 616.696 981601
3 616.696 958890
3 616.696 957280
3 616.696 956331
3 616.696 956091
3 617.195 951229
3 630.141 1032733
3 630.141 1032101
3 630.141 1010425
3 630.141 988970
3 630.141 987883
3 630.141 986422
3 630.141 985382
3 630.671 978028
3 630.671 950449
3 631.114 949795
3 631.114 948518
3 634.98 947963
1 638.444 947078
3 638.444 946153
3 638.444 944143
3 638.444 943248
3 638.731 941826
3 638.731 941172
3 638.731 939895
3 640.994 938625
3 641.276 937585
3 644.242 1030746
3 644.242 1021873
3 644.242 1017722
3 644.242 1012201
3 644.242 1006742
3 644.242 1005702
3 644.242 997079
3 644.571 992457
3 644.838 991616
3 644.838 987639
3 644.838 982211
3 644.838 981253
3 645.222 980934
3 645.665 975175
3 645.665 961095
3 645.665 958547
3 645.665 956800
3 646.351 956146
1 647.058 955592
3 647.058 955486
3 647.058 954552
3 647.058 954459
3 647.34 953877
3 647.628 951557
3 647.628 951366
3 658.062 1029308
3 658.062 997667
3 658.062 993301
3 658.062 975812
3 658.062 975701
3 658.062 974535
3 658.062 972178
3 658.062 969630
3 658.469 950327
3 658.716 948916
3 658.716 947172
3 658.993 944485
3 658.993 941119
3 660.874 937186
3 660.874 935924
3 661.676 932515
3 661.924 932322
3 661.924 931475
3 662.244 931325
3 662.505 931134
3 672.211 1010593
3 672.211 1009871
3 672.211 1008831
3 672.211 1007088
3 672.211 1006184
3 672.211 992401
3 672.211 987035
3 672.211 986580
3 672.211 984461
3 672.211 984127
3 672.211 983685
3 672.211 980000
3 672.624 969871
3 672.624 955942
3 672.624 954902
3 675.359 948084
3 675.359 946091
3 675.359 943922
3 686.164 1020161
3 686.164 1011230
3 686.164 1008752
3 686.164 969837
3 686.164 968560
3 686.164 956091
3 686.164 948705
3 686.742 943836
3 686.742 937886
3 686.742 937695
3 686.742 936782
3 686.742 936681
3 687.218 931855
3 687.218 925199
3 687.218 924502
3 687.218 923225
3 687.561 922572
3 687.561 921799
3 700.11 1026595
3 700.11 999016
3 700.11 997739
3 700.11 984631
3 700.11 983591
3 700.11 981976
3 700.11 970254
3 700.11 967255
3 700.469 962921
3 700.717 957994
3 700.717 956717
3 701.114 956252
3 701.114 955945
3 712.747 955667
3 712.747 955476
3 714.238 1050305
3 714.238 1037015
3 714.238 1028920
3 714.238 1028316
3 714.238 986370
3 714.238 964749
3 714.238 964320
3 714.238 962635
3 714.768 954464
3 714.768 954373
3 714.768 954182
3 715.618 944596
3 715.618 941949
3 716.051 939495
3 716.685 939082
3 716.685 938428
3 716.685 925146
3 716.685 924742
3 716.685 923730
3 716.977 923076
3 716.977 922273
3 717.236 921799
3 728.191 1038916
3 728.191 1038144
3 728.191 1028255
3 728.191 1016511
3 728.191 1004511
3 728.191 1001709
3 728.191 992662
3 728.191 991890
3 728.756 986963
3 728.756 984255
3 728.756 980335
3 728.756 977787
3 728.756 977596
3 728.756 975441
3 729.098 973806
3 729.098 970486
3 729.098 969714
3 729.098 956728
3 729.098 956455
3 729.438 946070
3 729.438 945569
3 729.438 944166
3 742.261 1002054
3 742.261 992990
3 742.261 968025
3 742.952 961071
3 742.952 957808
3 744.662 956176
1 747.811 954674
3 748.122 946762
3 748.122 940306
3 748.435 939266
3 748.435 937989
3 753.501 934638
3 756.318 1000707
3 756.318 988963
3 756.318 986532
3 756.318 983885
3 756.318 978969
3 756.318 971200
3 756.318 964849
3 756.318 960150
3 756.318 959456
3 756.318 950968
3 756.318 950528
3 756.898 946843
3 757.753 941696
3 757.753 941683
3 765.676 940148
3 765.676 935221
3 765.676 933507
3 766.133 932467
3 766.548 931190
3 770.24 1054459
3 770.24 1051088
3 770.24 1019316
3 770.24 1015669
3 770.24 1014897
3 770.24 1006095
3 770.24 1005323
3 770.634 1002601
3 770.634 987914
3 770.634 979044
3 770.634 975299
3 770.634 970465
3 770.634 969188
3 770.634 967271
3 770.634 966231
3 770.995 962546
3 770.995 957198
3 770.995 956544
3 771.267 949223
3 771.267 947822
3 771.267 947168
3 771.608 946939
3 771.608 946128
3 771.608 945356
3 782.807 943485
3 784.085 1081302
3 784.085 1069802
3 784.085 1050711
3 784.085 1039082
3 784.085 1027233
3 784.085 1018182
3 784.085 1000401
3 784.085 989160
3 784.085 986513
3 784.693 981996
3 784.693 981220
3 784.693 971491
3 784.693 968234
3 784.693 967784
3 785.591 965903
3 785.591 957280
3 785.591 955347
1 785.591 950072
3 786.047 949611
3 786.047 948957
3 786.047 946771
3 798.216 1053893
3 798.216 1052853
3 798.216 1038989
3 798.216 1027387
3 798.216 996738
3 798.216 990623
3 798.216 982711
3 798.216 981671
3 798.216 972139
3 798.216 967172
3 798.216 964525
3 798.216 962089
3 798.216 950345
3 798.216 949421
3 798.216 949017
3 798.636 946848
3 798.636 943922
3 812.023 1015549
3 812.023 1014547
3 812.023 1007554
3 812.023 999860
3 812.023 985375
3 812.023 982865
3 812.023 964290
3 812.528 963675
3 812.528 962635
3 812.528 953333
3 812.528 953149
3 812.528 951953
3 813.008 940104
3 813.008 938723
3 813.008 936713
3 813.64 932930
3 813.891 932158
3 813.891 931025
3 814.205 930881
3 826.19 1079198
3 826.19 1064108
3 826.19 1060423
3 826.19 1049379
3 826.19 1029825
3 826.19 1028785
3 826.19 1004463
3 826.19 1003809
3 826.75 988221
3 826.75 980430
3 826.75 968581
3 833.334 967413
3 840.389 1017817
3 840.389 1002731
3 840.389 970959
3 840.389 949577
3 840.389 947630
3 840.389 944704
3 841.149 943107
3 841.149 942580
3 841.149 941497
3 841.723 938473
3 841.723 933456
3 842.21 931069
3 842.57 929648
3 854.284 1015113
3 854.284 1009970
3 854.284 992975
3 854.284 988288
3 854.284 987866
3 854.284 986997
3 854.284 985856
3 854.284 975971
3 854.837 972404
3 854.837 971119
3 854.837 967679
1 855.29 946198
3 855.29 944315
3 856.528 937725
3 856.886 937534
3 856.886 937047
3 868.395 1070032
3 868.395 1056911
3 868.395 1045167
3 868.395 1017588
3 868.395 1012269
3 868.395 1009721
3 868.395 1009067
3 868.395 1003258
3 868.395 999573
3 868.395 994189
3 868.395 990950
3 868.887 968603
3 868.887 966593
3 868.887 966263
3 868.887 959826
3 868.887 954341
3 869.175 950625
3 869.175 949348
3 869.175 947738
3 869.558 944330
3 869.558 944170
3 869.94 939403
3 869.94 938363
3 882.26 1068800
3 882.26 1041613
3 882.26 1009972
3 882.26 998123
3 882.26 995676
3 882.26 989353
3 882.689 988699
3 882.689 986447
3 882.689 983695
3 882.689 982418
3 883.043 981722
3 883.043 976428
3 883.043 974873
3 883.043 966089
3 896.127 1007579
3 896.127 993650
3 896.127 990995
3 896.127 989955
3 896.127 987029
3 896.127 980304
3 896.127 978921
3 896.127 975442
3 896.127 974402
3 896.127 965112
3 896.516 961382
3 896.516 959969
3 896.775 948207
3 896.775 946983
3 896.775 944435
3 897.056 943395
3 897.316 943036
3 897.316 942845
3 897.316 932414
3 897.654 932016
3 897.654 931409
3 897.993 930568
3 897.993 929772
3 897.993 926087
3 898.643 925684
3 910.252 1021541
3 910.252 999982
3 910.252 993483
3 910.252 984181
3 910.252 979113
3 910.252 978073
3 910.252 969148
3 910.252 961054
3 910.252 960019
3 910.252 959365
3 910.698 957763
3 910.698 956718
3 910.698 955473
3 910.698 943360
3 910.698 942924
3 910.698 942320
3 911.019 940550
3 911.441 940497
3 911.441 939838
3 911.873 938561
3 911.873 938347
3 911.873 937907
3 912.325 931067
3 913.141 930027
3 916.364 927538
3 916.364 927169
3 916.364 925199
3 916.364 922651
3 916.364 922571
3 916.838 921799
3 924.293 1021368
3 924.293 1017867
3 924.293 1009244
3 924.293 999095
3 924.293 985166
3 924.293 984335
3 924.293 976073
3 924.293 974063
3 924.293 967038
3 924.816 959247
3 924.816 958586
3 925.073 956706
3 925.073 955666
3 925.311 953800
3 925.311 944962
3 925.812 944279
3 926.067 943922
3 931.642 941731
3 931.642 938890
3 932.147 937923
3 932.147 937151
3 932.411 931595
3 932.411 927910
3 938.129 1021619
3 938.129 991421
3 938.129 989411
3 938.129 981620
3 938.129 980580
3 938.129 980487
3 938.129 978422
3 938.129 963974
3 938.487 952125
3 938.487 951514
3 938.487 950950
3 938.487 948473
3 938.765 947695
3 938.765 945642
3 938.765 942892
3 938.765 941134
3 938.765 939642
3 938.765 938602
3 939.191 936593
3 939.191 935939
3 939.191 935167
3 952.029 1024557
3 952.029 1016960
3 952.029 1016306
3 952.029 996503
3 952.029 993816
3 952.029 963871
3 952.029 962831
3 952.626 960424
3 952.626 958160
3 952.626 944945
3 952.626 944231
3 952.908 943922
3 961.363 943440
3 961.687 940728
3 961.687 940537
3 961.687 940491
3 961.687 933925
3 962.812 933644
3 963.061 931235
3 963.061 930681
3 963.567 930027
3 963.811 928877
3 963.811 928227
3 963.811 927910
3 965.591 924683
3 965.591 923744
3 965.873 923483
3 966.11 1029358
3 966.11 1021567
3 966.11 1019557
3 966.11 1018517
3 966.11 1015896
3 966.11 1012488
3 966.49 1002194
3 966.49 998509
3 966.49 983947
3 966.49 972366
3 966.49 971969
3 966.49 960225
3 966.49 958742
3 966.49 955512
3 967.693 954899
3 967.981 950991
3 980.27 976873
3 980.27 974226
3 980.27 970528
3 980.27 966843
3 980.27 966790
3 980.27 966111
3 980.952 963707
3 980.952 963053
3 981.225 956221
3 981.225 949941
3 981.225 947393
3 981.505 945783
3 981.813 940856
3 984.134 937388
3 985.852 935357
3 985.852 934703
3 989.559 930135
3 994.223 1006128
3 994.223 968637
3 994.223 960451
3 994.223 959335
3 994.223 958222
3 994.536 957450
3 994.536 952812
3 994.536 952158
3 994.536 950892
3 994.844 949282
3 994.844 948445
3 994.844 948005
3 995.109 943577
3 995.366 942691
3 995.366 941414
3 995.366 939213
3 995.632 938572
3 995.632 938364
3 995.632 935327
3 995.632 935135
3 996.145 934095
3 996.453 933333
3 1008.03 1078427
3 1008.03 1069804
3 1008.03 1069032
3 1008.03 1065347
3 1008.03 1053603
3 1008.03 1044715
3 1008.03 1043438
3 1008.38 1036974
3 1008.38 1035874
3 1008.38 1033978
3 1008.66 1033324
3 1008.66 1032047
1 1015.9 1012352
3 1015.9 1003869
3 1017.24 1001222
3 1022.11 1012019
3 1022.11 1007092
3 1022.11 1006438
3 1022.11 1003756
3 1022.11 999791
3 1022.11 998643
3 1022.5 987663
3 1022.5 986891
3 1022.5 970598
3 1022.5 967744
3 1022.5 962367
3 1022.5 961536
3 1022.5 955169
3 1022.5 954440
3 1022.5 953163
3 1022.5 952576
3 1022.9 950566
3 1022.9 950319
3 1022.9 943107
3 1023.21 941497
3 1023.46 939459
3 1023.46 931540
3 1023.46 930836
3 1023.46 929072
3 1023.72 929013
3 1023.72 928927
3 1023.72 928341
3 1024 927550
3 1024 927380
3 1024 926844
3 1024.5 925199
3 1024.5 924121
3 1024.5 923225
3 1024.5 922571
3 1024.5 921799
3 1036.36 996795
3 1036.36 994247
3 1036.36 993207
3 1036.36 992553
3 1036.36 986142
3 1036.36 982799
3 1036.36 971055
3 1036.36 969629
3 1036.91 968589
3 1036.91 959724
3 1036.91 959206
3 1037.38 958830
3 1037.38 958566
3 1037.83 958434
3 1042.86 955954
3 1043.29 955300
3 1043.74 952653
3 1050.02 1044209
3 1050.02 1031566
3 1050.02 1022943
3 1050.02 1020453
3 1050.02 1015599
3 1050.02 998670
3 1050.02 995744
3 1050.02 989583
3 1050.67 983168
3 1050.67 980521
3 1050.67 978313
3 1050.67 969437
3 1051.14 967964
3 1051.14 964831
3 1051.14 964584
3 1051.14 962574
3 1051.6 961146
3 1051.6 960448
3 1051.6 958469
3 1051.6 957429
3 1051.6 949468
3 1051.6 945191
3 1052.11 944692
3 1052.11 943652
3 1052.51 942880
3 1063.74 942643
3 1064.18 993129
3 1064.18 992089
3 1064.18 989850
3 1064.18 987767
3 1064.18 987699
3 1064.18 986924
3 1064.7 980820
3 1064.7 979532
3 1064.7 976959
3 1064.7 967594
3 1064.7 965638
3 1064.7 954608
3 1064.7 953676
3 1065.25 953568
3 1065.25 948573
3 1065.25 947443
3 1065.25 946025
3 1065.25 946017
3 1065.25 942985
3 1065.25 940539
3 1066.18 938211
3 1066.18 935846
3 1066.18 935693
3 1066.18 935074
3 1066.64 935070
3 1066.64 933656
3 1067.04 933002
3 1067.04 932230
3 1067.04 931334
3 1067.04 931190
3 1078.08 1071460
3 1078.08 1071269
3 1078.08 1050205
3 1078.08 1034518
3 1078.08 1022774
1 1078.08 1014978
3 1078.08 1012052
3 1078.08 1010775
3 1078.51 1008277
3 1078.51 1001701
3 1078.51 999654
3 1078.51 998740
3 1078.51 996192
3 1078.51 995496
3 1078.86 982422
3 1079.16 976540
3 1079.16 975886
3 1079.48 967263
3 1083.96 965920
1 1085.28 963555
3 1085.28 960908
3 1085.28 960569
3 1085.63 960378
3 1085.63 959338
3 1086.46 958139
3 1092.15 992589
3 1092.15 991549
3 1092.15 979700
3 1092.15 978928
1 1092.15 964605
3 1093.05 962057
3 1093.05 948027
3 1106.33 1054440
3 1106.33 1042696
3 1106.33 1028009
3 1106.33 1026533
3 1106.33 1024324
3 1106.33 993108
1 1106.33 992819
3 1106.33 985625
3 1107.02 984410
3 1107.02 978400
3 1107.02 977219
3 1107.02 977150
3 1107.47 976959
3 1107.47 976565
3 1107.93 971970
3 1107.93 968053
3 1107.93 956806
3 1107.93 956152
3 1108.8 955269
3 1109.59 954229
3 1109.59 946693
3 1109.87 946396
3 1109.87 941434
3 1110.16 941243
3 1120.3 1020908
3 1120.3 995610
3 1120.3 993268
3 1120.3 975557
3 1120.3 968427
3 1120.3 960636
3 1120.3 958124
3 1120.3 952013
3 1120.75 947243
3 1120.75 943558
3 1120.75 942786
3 1120.75 937859
3 1136.82 1028450
3 1136.82 1014112
3 1136.82 1002263
3 1136.82 1000986
3 1136.82 1000588
3 1136.82 993000
3 1136.82 990452
3 1136.82 987605
3 1136.82 983920
3 1152.62 985773
3 1152.62 969779
3 1152.62 966335
3 1152.62 963851
3 1152.62 963337
3 1152.62 956195
3 1152.94 945073
3 1152.94 944033
3 1153.35 943355
3 1153.35 938428
3 1153.35 938038
3 1153.8 932127
3 1153.8 924104
3 1153.8 923815
3 1153.8 922397
3 1153.8 921799
3 1162.31 1028511
3 1162.31 1003701
3 1162.31 989014
3 1162.31 988272
3 1162.31 979783
3 1162.31 971160
3 1162.31 967475
3 1162.31 955626
3 1162.31 932922
3 1162.86 931802
3 1162.86 929792
3 1163.29 929570
3 1163.29 928152
3 1163.29 927380
3 1163.29 926726
3 1163.74 922651
3 1164.15 922610
3 1164.15 922571
3 1164.98 921799
3 1176.2 1019663
3 1176.2 1011872
3 1176.2 1006221
3 1176.2 996391
3 1176.2 993235
3 1176.2 992092
3 1176.2 987165
3 1176.2 979487
3 1176.2 979081
3 1176.75 976891
3 1176.75 974877
3 1176.75 974851
3 1176.75 968971
3 1176.75 967060
3 1177.24 959479
3 1177.24 946378
3 1177.24 946370
3 1177.24 945804
3 1177.24 940642
3 1177.77 938094
3 1177.77 934749
3 1177.77 933709
3 1190.24 1039326
3 1190.24 1038049
3 1190.24 1027606
3 1190.24 1015141
3 1190.24 1006518
3 1190.24 994411
3 1190.24 983431
3 1190.69 980784
3 1190.69 974778
3 1191.05 974637
3 1191.05 972066
3 1191.38 965066
3 1191.38 962518
3 1191.38 959071
3 1191.69 954756
3 1191.69 951538
3 1192.28 945761
3 1192.72 943747
3 1200.14 942076
3 1204.02 1007763
3 1204.02 994777
3 1204.02 991092
3 1204.02 982469
3 1204.02 972772
3 1204.02 950828
3 1204.52 949788
3 1204.52 944504
3 1204.52 943227
3 1204.52 941316
3 1204.97 937502
3 1204.97 934954
3 1204.97 933925
3 1205.8 931235
3 1205.8 930799
3 1205.8 930027
3 1207.28 928877
3 1207.53 927910
3 1208.51 926017
3 1208.51 924897
3 1208.82 922610
3 1209.14 922453
3 1209.38 921799
3 1218.27 1015009
3 1218.27 984019
3 1218.27 971412
3 1218.27 959668
3 1218.61 953509
3 1218.86 950520
3 1218.86 947972
3 1218.86 947066
3 1218.86 946412
3 1219.14 935432
3 1232.16 999416
3 1232.16 967775
3 1232.16 965128
3 1233.92 937755
3 1234.37 936590
3 1234.37 931945
3 1235.32 931663
3 1235.32 931036
3 1235.83 927918
3 1246.25 1025771
3 1246.25 1024731
3 1246.25 1007924
3 1246.25 1007646
3 1246.25 995902
3 1246.25 987279
3 1246.25 973385
3 1246.25 967357
3 1246.25 959456
3 1246.25 956128
3 1246.71 951313
3 1246.71 950659
3 1246.71 947628
3 1247.02 944765
3 1247.02 942801
3 1247.02 940791
3 1247.02 939956
3 1247.02 939467
3 1247.02 939184
3 1247.34 937907
3 1247.6 936260
3 1247.87 932575
3 1247.87 927910
3 1249.35 926726
3 1249.35 921799
3 1260.06 970176
3 1260.06 967060
3 1260.06 964512
3 1260.06 962459
3 1260.06 962219
3 1260.06 954404
3 1260.06 931570
3 1260.06 931469
3 1260.4 923730
3 1260.4 923076
3 1260.65 922610
3 1260.65 922571
3 1260.65 921799
3 1274.15 1027256
3 1274.15 1000551
3 1274.15 1000056
3 1274.15 998446
3 1274.15 995898
3 1274.15 981957
3 1274.15 980917
3 1274.15 977737
3 1274.15 968591
3 1274.15 961925
3 1274.15 952573
3 1274.64 944799
3 1274.64 943271
3 1274.64 932241
3 1274.64 931327
3 1274.99 930905
3 1275.29 930566
3 1275.29 929717
3 1288.2 1103497
3 1288.2 1073343
3 1288.2 1063172
3 1288.2 1061810
3 1288.2 1056276
3 1288.2 1052993
3 1288.2 1043728
3 1288.2 1025705
3 1288.2 1025663
3 1288.2 1011776
3 1288.2 998606
3 1288.67 996058
3 1288.67 984314
3 1288.67 983929
3 1288.97 967749
3 1288.97 966117
3 1288.97 964107
3 1288.97 962817
3 1289.53 961777
3 1290.32 958434
1 1291.32 955954
3 1291.32 955875
3 1291.32 953499
3 1291.65 952440
3 1292.92 950951
3 1300.04 943273
3 1300.34 936865
3 1300.34 931331
3 1302.05 1012583
3 1302.05 1007265
3 1302.05 1003417
3 1302.05 982073
3 1302.05 967905
3 1302.05 964445
3 1302.05 964424
3 1302.42 952025
3 1302.42 943930
3 1302.42 942030
3 1302.42 940446
3 1302.7 936945
3 1302.7 935736
3 1302.7 935066
3 1303.2 934294
3 1303.93 932283
3 1304.18 931415
3 1304.56 931243
3 1307.52 929925
3 1307.93 929684
3 1308.19 923764
3 1316.17 1040012
3 1316.17 1035085
3 1316.17 1034313
3 1316.17 1002672
3 1316.17 991692
3 1316.17 987601
3 1316.17 978978
3 1316.59 969869
3 1316.59 968309
3 1316.59 965662
3 1316.59 964622
3 1317.05 963684
3 1317.05 956472
3 1317.51 954447
3 1317.51 948519
3 1317.51 944623
3 1317.51 942598
3 1317.51 938495
3 1317.87 937326
3 1318.66 937090
3 1318.66 936832
3 1318.66 936362
3 1318.96 936171
3 1319.2 934336
3 1319.44 933296
3 1319.44 930346
3 1319.7 928336
3 1330.29 1039692
3 1330.29 1027948
3 1330.29 1027502
3 1330.29 990627
3 1330.29 988079
3 1330.29 983145
3 1330.29 980498
3 1330.29 971845
3 1330.29 960912
3 1330.29 954266
3 1330.85 953837
3 1330.85 946812
3 1331.7 943540
3 1332.12 942432
3 1332.55 942374
3 1332.55 942263
3 1344.28 1043509
3 1344.28 1042837
3 1344.28 1040758
3 1344.28 1029014
3 1344.28 1018103
3 1344.28 1008429
3 1344.28 1005495
3 1344.68 1004456
3 1344.68 1003416
3 1345.01 1001545
3 1345.33 985558
3 1345.33 983744
3 1345.33 977420
3 1345.33 971895
3 1345.33 971498
3 1345.71 966113
3 1345.71 960015
3 1345.71 958005
3 1346.06 957643
3 1346.75 954046
3 1347.08 949118
3 1358.05 1075466
3 1358.05 1059586
3 1358.05 1052241
3 1358.05 1049889
3 1358.05 1044450
3 1358.05 1037928
3 1358.05 1032777
3 1358.05 1021033
3 1358.05 1007104
3 1358.05 1000640
3 1358.05 986746
3 1358.69 986121
3 1358.69 986069
3 1358.69 983573
3 1359.16 981963
3 1359.16 980289
3 1359.16 979830
3 1359.63 979457
3 1359.63 976602
3 1359.63 972039
3 1362.66 971115
3 1362.93 959266
3 1362.93 956694
3 1363.69 956069
3 1363.69 955878
3 1363.96 954000
3 1363.96 952739
3 1372.05 999661
3 1372.05 987917
3 1372.05 987145
3 1372.05 984909
3 1372.05 959748
3 1372.05 946762
3 1372.96 941647
3 1372.96 940370
3 1373.41 940264
3 1373.83 938368
3 1373.83 938219
3 1373.83 937341
3 1374.27 936569
3 1374.27 935292
3 1374.81 934638
3 1375.23 934515
3 1375.23 933318
3 1375.67 930154
3 1375.67 928544
3 1375.67 927883
3 1376.11 927850
3 1376.11 927219
3 1376.11 927196
3 1377.21 926424
3 1386.15 994992
3 1386.15 982881
3 1386.15 981841
3 1386.15 978156
3 1386.15 971761
3 1386.15 970365
3 1386.15 961742
3 1386.15 960491
3 1386.69 956235
3 1386.69 949895
3 1386.69 947963
3 1386.97 946933
3 1386.97 941987
3 1387.22 940923
3 1387.49 939340
3 1393.24 937011
3 1393.51 934484
3 1393.76 932270
3 1393.76 931230
3 1393.76 931020
3 1393.76 929410
3 1394.53 929220
3 1394.78 928897
3 1400.01 988327
3 1400.01 985095
3 1400.01 976589
3 1400.01 972904
3 1400.01 966272
3 1400.52 959247
3 1400.52 959105
3 1400.52 958620
3 1400.52 957851
3 1401.1 953008
3 1401.1 952476
3 1401.1 952285
3 1401.52 950450
3 1401.52 947803
3 1402.11 945887
3 1402.11 943760
3 1402.39 943049
3 1402.68 942911
3 1402.68 942720
3 1402.68 941591
3 1403.24 940507
3 1403.24 938356
3 1403.55 937378
3 1403.55 934855
3 1403.55 932307
3 1403.55 931653
3 1404.02 931216
3 1404.02 930881
3 1414.13 1008231
3 1414.13 996870
3 1414.13 996561
3 1414.13 994028
3 1414.13 985405
3 1414.13 984365
3 1414.13 973385
3 1414.13 969173
3 1414.13 965845
3 1414.6 951136
3 1414.6 948588
3 1414.6 942834
3 1414.88 941622
3 1415.14 940532
3 1415.14 937377
3 1415.14 935524
3 1415.14 931839
3 1415.57 931122
3 1415.57 930799
3 1415.57 930027
3 1416.24 928446
3 1416.24 925799
3 1416.24 924522
3 1416.24 921799
3 1428.12 1037303
3 1428.12 1021951
3 1428.12 1020674
3 1428.12 1011111
3 1428.12 1004795
3 1428.12 1002307
3 1428.12 997004
3 1428.12 981671
3 1428.12 969822
3 1428.63 954497
3 1428.63 945849
3 1428.63 943202
3 1428.63 940628
3 1428.63 937799
3 1430.85 936951
3 1430.85 933970
3 1431.27 932241
3 1431.27 930285
3 1431.27 929717
3 1442.02 990637
3 1442.02 990489
3 1442.02 990327
3 1442.02 978583
3 1442.02 974270
3 1442.58 974079
3 1442.58 965554
3 1442.58 961688
3 1442.58 961102
3 1443.23 959392
3 1443.23 950867
3 1443.52 949610
3 1443.82 947566
3 1443.82 944683
3 1443.82 935096
3 1443.82 934905
3 1443.82 932028
3 1444.16 929480
3 1456.3 1032072
3 1456.3 1028976
3 1456.3 1026289
3 1456.3 996867
3 1456.3 982125
3 1456.3 960473
3 1456.3 958863
3 1456.3 955942
3 1456.3 953191
3 1456.3 952477
3 1456.85 951509
3 1457.31 950116
3 1457.31 947877
3 1457.74 944415
3 1457.74 941683
3 1459.43 939285
3 1459.43 938513
3 1459.86 937859
3 1470.14 1016190
3 1470.14 1009225
3 1470.14 1002824
3 1470.14 999380
3 1470.45 988719
3 1470.45 986394
3 1470.73 966818
3 1470.73 963061
3 1470.73 960313
3 1470.73 957863
3 1470.73 955745
3 1484.06 1035474
3 1484.06 1020019
3 1484.06 997256
3 1484.06 979185
3 1484.06 977908
3 1484.06 975512
3 1484.06 971827
3 1484.06 963417
3 1484.06 963302
3 1484.06 960770
3 1484.61 947784
3 1484.61 944521
3 1484.61 943922
3 1485.07 942096
3 1498.24 1036619
3 1498.24 1035965
3 1498.24 1031038
3 1498.24 1023890
3 1498.24 1021243
3 1498.24 1013270
3 1498.24 995559
3 1498.24 989880
3 1498.24 989692
3 1498.24 988982
3 1498.24 984504
3 1498.24 983801
3 1498.75 978323
3 1498.75 975925
3 1498.75 975734
3 1498.75 967209
3 1498.75 964394
3 1499.12 964334
3 1499.12 955711
3 1499.55 953520
3 1499.55 947258
3 1499.55 946541
3 1499.55 944424
3 1499.55 943615
3 1500.06 942575
3 1500.06 939710
3 1500.06 938890
3 1500.06 938178
3 1501.73 934392
3 1501.73 930707
3 1501.73 930053
3 1501.73 928950
3 1501.73 928877
3 1503.02 927910
3 1507.17 927805
3 1507.17 927380
3 1507.17 926726
3 1507.44 923049
3 1507.44 921799
3 1512.31 987979
3 1512.31 987325
3 1512.31 986048
3 1512.31 975068
3 1512.31 972038
3 1512.31 970843
3 1512.31 970652
3 1512.82 968388
3 1513.24 968094
3 1513.24 964409
3 1513.24 963132
3 1513.68 954245
3 1515.13 939441
3 1515.39 939250
3 1515.39 935836
3 1515.39 932480
3 1515.67 931258
3 1515.67 930725
3 1516.89 929833
3 1520.31 925742
3 1520.31 924940
3 1520.57 923715
3 1520.57 923519
3 1520.57 922612
3 1520.85 922274
3 1521.1 921506
3 1526.17 1035665
3 1526.17 1017954
3 1526.17 996394
3 1526.17 983364
3 1526.17 982161
3 1526.17 980164
3 1526.17 975506
3 1526.17 968284
3 1526.17 965358
3 1526.17 962387
3 1526.17 960052
3 1526.17 957627
3 1526.53 952775
3 1526.53 950719
3 1526.78 942096
3 1540.33 1055968
3 1540.33 1036528
3 1540.33 1025291
3 1540.33 1017567
3 1540.33 1009467
3 1540.33 1009042
3 1540.33 982335
3 1540.33 978422
3 1540.33 973829
3 1540.33 970144
3 1540.33 967005
3 1540.91 964358
3 1540.91 946908
3 1540.91 945558
3 1540.91 944267
3 1541.37 932418
3 1541.37 931764
3 1554.1 1016238
3 1554.1 1014803
3 1554.1 1014227
3 1554.1 1003247
3 1554.1 1003056
3 1554.1 998527
3 1554.1 990446
3 1554.1 972560
3 1554.53 971173
3 1554.53 970535
3 1554.53 961233
3 1554.53 955515
3 1554.53 954412
3 1554.89 939714
3 1554.89 939523
3 1554.89 931384
3 1554.89 930900
3 1554.89 929290
3 1568.1 1021059
3 1568.1 1020019
3 1568.1 1003049
3 1568.1 966164
3 1568.1 963641
3 1568.1 960181
3 1568.1 958210
3 1568.1 956933
3 1568.1 955893
3 1568.45 952086
3 1568.76 948681
3 1568.76 939874
3 1568.76 939746
3 1568.76 938136
3 1568.76 935588
3 1571.21 935094
3 1571.53 934390
3 1571.53 929717
3 1582.16 1068573
3 1582.16 1066103
3 1582.16 1057750
3 1582.16 1040125
3 1582.16 1027139
3 1582.16 1024297
3 1582.16 1005206
3 1582.16 989645
3 1582.16 986856
3 1582.5 985963
3 1582.5 979354
3 1582.5 977287
3 1582.76 976633
3 1583.72 974084
3 1583.72 972197
3 1583.99 972006
3 1596.1 1034448
3 1596.1 1030763
3 1596.1 1016076
3 1596.1 1003629
3 1596.1 988836
3 1596.1 977025
3 1596.1 975163
3 1596.1 967372
3 1596.1 960347
3 1596.1 956671
3 1596.45 953184
3 1596.45 952501
3 1596.45 949953
3 1596.45 940871
3 1596.45 936606
3 1597.05 934824
3 1597.05 934182
3 1597.05 930497
3 1598.3 928387
3 1598.3 928336
3 1607.96 925055
3 1609.59 923862
3 1610.06 1068580
3 1610.06 1056836
3 1610.06 1019440
3 1610.06 994243
1 1610.06 984479
3 1610.06 984424
3 1610.06 983613
3 1610.06 981528
3 1610.44 977488
3 1610.44 977325
3 1610.44 975786
3 1610.44 973380
3 1610.44 972103
3 1611.15 966682
3 1611.15 962114
3 1612.02 958500
3 1612.02 956084
3 1612.02 955893
3 1613.24 953759
3 1613.52 952951
3 1613.52 951749
3 1613.52 950709
3 1613.52 948781
3 1613.52 948127
3 1613.99 947559
3 1613.99 947368
3 1624.32 1017070
3 1624.32 1016416
3 1624.32 1013868
3 1624.32 991874
3 1624.32 971011
3 1624.32 964053
3 1624.32 961585
3 1624.32 955795
3 1624.32 949220
3 1624.32 942989
3 1624.32 942335
3 1624.32 942147
3 1624.9 941883
3 1624.9 938794
3 1624.9 938118
3 1624.9 936841
3 1624.9 935801
3 1625.19 934380
3 1625.19 933712
3 1625.44 931764
3 1625.44 930458
3 1625.86 930027
3 1626.82 927910
3 1638.31 952194
3 1638.31 946025
3 1638.31 944434
3 1638.31 943395
3 1638.78 932569
3 1638.78 931701
3 1639.49 930690
3 1639.49 926064
3 1639.49 919896
3 1639.49 919610
3 1639.49 918343
3 1639.78 917505
3 1639.78 916733
3 1652.37 1017553
3 1652.37 1015005
3 1652.37 1001876
3 1652.37 999394
3 1652.37 995709
3 1652.37 989699
3 1652.37 989680
3 1652.37 982655
3 1652.79 973248
3 1652.79 970142
3 1652.79 964342
3 1652.79 962732
3 1652.79 962268
3 1652.79 961105
3 1653.12 960670
3 1653.12 958023
3 1653.12 956019
3 1653.52 954009
3 1653.94 952834
3 1654.77 952501
3 1654.77 951461
3 1656.36 949733
1 1660.14 948028
3 1660.39 947374
3 1666.09 1046948
3 1666.09 1038423
3 1666.09 1021753
3 1666.09 1019066
3 1666.09 1014837
3 1666.09 990460
3 1666.09 982548
3 1666.09 979051
3 1666.09 964315
3 1666.45 963629
3 1666.45 955692
3 1666.45 953045
3 1666.45 943922
3 1670.57 941683
3 1670.82 933541
3 1670.82 932081
3 1671.1 931595
3 1671.1 928877
3 1680.35 1038115
3 1680.35 1026553
3 1680.35 1025513
3 1680.35 1012592
3 1680.35 1005063
3 1680.35 1004998
3 1680.35 1001313
3 1680.35 997098
3 1680.35 988638
3 1680.77 985142
3 1680.77 984951
3 1680.77 983397
3 1680.77 980291
3 1680.77 979519
3 1681.15 974388
3 1681.15 970052
3 1681.15 968143
3 1681.42 967504
3 1682.23 967054
3 1682.23 961821
1 1688.93 959427
3 1688.93 958234
3 1689.39 957580
1 1694.24 1092891
3 1694.24 1081342
3 1694.24 1070337
3 1694.24 1060804
3 1694.24 1043105
3 1694.24 1011464
3 1694.24 1010692
3 1694.24 1003408
3 1703.13 999911
3 1703.13 998502
1 1703.13 998375
3 1703.13 997408
3 1703.13 994860
3 1703.44 992965
1 1707.35 989152
3 1707.35 974875
3 1707.35 964719
3 1707.35 957665
3 1707.35 956096
3 1707.35 952830
3 1707.35 952176
3 1707.35 950640
3 1707.9 950592
3 1707.9 950401
3 1707.9 949628
3 1708.35 1097853
3 1708.35 1096813
3 1708.35 1081358
3 1708.35 1069614
3 1708.35 1066328
3 1708.35 1063681
3 1708.35 1032040
3 1708.35 1031320
3 1708.93 1030430
3 1708.93 1026745
3 1708.93 1024245
3 1709.84 1023591
1 1711.15 999284
3 1711.15 993406
3 1712.43 993194
3 1712.87 986298
3 1713.72 980489
3 1713.72 977842
3 1722.1 1028885
3 1722.1 1020262
3 1722.1 1012990
3 1722.1 1011950
3 1722.1 1011178
3 1722.1 1010524
3 1722.1 1005474
3 1722.1 1003766
3 1722.66 983313
3 1722.66 982854
3 1722.66 972125
3 1722.66 969173
3 1723.13 968440
3 1725.71 967679
3 1727.82 966591
3 1727.82 966400
3 1728.1 965968
3 1728.1 960579
3 1728.1 960411
3 1736.16 1011144
3 1736.16 1007459
3 1736.16 1004911
3 1736.16 985820
3 1736.16 979356
3 1738.45 974299
3 1738.45 973031
3 1738.45 972871
3 1738.74 970982
3 1739.25 970304
3 1739.25 969681
3 1739.25 969532
3 1739.99 961935
3 1750.14 1007695
3 1750.14 990220
3 1750.14 977234
3 1750.14 969421
3 1750.14 966495
3 1750.14 964879
3 1750.14 961553
3 1750.14 959827
3 1750.68 958099
3 1750.68 957327
3 1750.68 956737
3 1750.68 955697
3 1750.68 955043
3 1751.15 954983
3 1751.15 954420
3 1751.15 953766
3 1751.59 953096
3 1751.59 943034
3 1751.59 942786
3 1751.59 937502
3 1751.59 935202
3 1752.06 934001
3 1752.48 932858
3 1752.48 930894
3 1752.91 927910
3 1764.16 1040991
3 1764.16 1039471
3 1764.16 1031764
3 1764.16 1030487
3 1764.16 1025560
3 1764.16 1024906
3 1764.16 1011126
3 1764.16 1008602
3 1764.55 1002503
3 1764.55 993250
3 1764.55 986697
3 1764.55 969924
3 1764.55 969445
3 1764.55 968405
3 1764.55 965695
3 1764.55 962010
3 1764.87 957083
3 1764.87 956667
3 1764.87 954657
3 1764.87 944513
3 1764.87 941095
3 1765.15 940422
3 1765.15 939650
3 1765.15 937698
3 1765.44 937697
3 1765.44 936087
3 1765.44 935897
3 1767.8 933890
3 1767.8 932479
3 1768.5 931966
3 1768.5 931312
3 1784.72 1019356
3 1784.72 1000295
3 1784.72 981099
3 1784.72 970867
3 1784.72 959862
3 1784.72 955717
3 1785.24 955312
3 1785.64 953104
3 1785.64 950585
3 1785.64 949825
3 1786.09 947988
3 1786.09 947797
3 1786.09 945625
3 1790.11 942363
3 1790.11 939595
3 1790.11 938898
3 1790.11 938126
3 1790.61 936849
3 1791.02 936195
3 1792.18 1014615
3 1792.18 999263
3 1792.18 999140
3 1792.18 995455
3 1792.18 982742
3 1792.18 979125
3 1792.18 968555
3 1792.73 967515
3 1792.73 955771
3 1792.73 954674
3 1793.18 950307
3 1793.18 943922
3 1795.31 941683
3 1795.31 941317
3 1795.31 938670
3 1805 933180
3 1805 931190
3 1805.83 928232
3 1806.1 1021074
3 1806.1 1016708
3 1806.1 1011543
3 1806.1 999799
3 1806.1 998759
3 1806.1 990941
3 1806.1 989331
3 1806.1 987572
3 1806.1 986796
3 1806.1 972419
3 1806.1 968815
3 1806.49 968053
3 1806.49 964407
3 1806.49 963130
3 1806.49 962358
3 1806.49 961020
3 1806.49 960366
3 1806.9 954567
3 1806.9 949646
3 1807.15 948517
3 1807.15 943506
3 1807.7 942585
3 1807.7 941931
3 1815.28 941641
3 1817.24 939710
3 1817.24 934975
3 1817.69 932961
3 1820.06 994335
3 1820.06 993366
3 1820.06 985954
3 1820.06 983355
3 1820.06 981745
3 1820.06 980450
3 1820.06 976404
3 1820.06 973220
3 1820.06 968711
3 1820.06 968601
3 1820.06 967561
3 1820.7 966789
3 1821.14 964597
3 1821.14 960912
3 1821.14 960258
3 1821.6 958626
3 1821.6 954194
3 1821.95 950345
3 1822.23 949305
3 1823.24 946200
3 1823.49 945571
3 1834.03 1040685
3 1834.03 1032160
3 1834.03 1003012
3 1834.34 997070
3 1834.34 993385
3 1834.34 983667
3 1834.34 980249
3 1834.34 978033
3 1834.34 975485
3 1834.34 975054
3 1834.66 974014
3 1848.13 1002359
3 1848.13 1001319
3 1848.13 995444
3 1848.13 967787
3 1848.13 965140
3 1848.13 965109
3 1848.13 962264
3 1848.69 956172
3 1848.69 952487
3 1848.69 952296
3 1848.69 949568
3 1848.69 944813
3 1848.69 941316
3 1848.69 938483
3 1848.69 932858
3 1848.69 930886
3 1849.07 930848
3 1849.31 930799
3 1849.54 930027
3 1849.54 928877
3 1849.54 927910
3 1854.14 922571
3 1854.14 922087
3 1854.14 921896
3 1854.14 921799
3 1862.43 991316
3 1862.43 988669
3 1862.43 970958
3 1862.43 963350
3 1862.43 955606
3 1862.43 953028
3 1862.43 948663
3 1862.43 946609
3 1862.43 946304
3 1863.03 943683
3 1863.03 942090
3 1863.03 941824
3 1863.66 941226
3 1863.66 941085
3 1863.66 938232
3 1863.66 937576
3 1864.02 936386
3 1864.32 936222
3 1864.32 935468
3 1864.32 933474
3 1864.32 929789
3 1876.14 1016117
3 1876.14 1003474
3 1876.14 1000827
3 1876.14 979940
3 1876.14 971317
3 1876.14 961730
3 1876.14 960690
3 1876.14 957005
3 1876.14 953472
3 1876.5 952663
3 1877.3 950083
3 1877.3 936081
3 1878.16 936027
3 1878.6 934987
3 1890.02 1012431
3 1890.02 1012291
3 1890.02 1008606
3 1890.02 1001526
3 1890.02 995620
3 1890.02 994804
3 1890.02 994619
3 1890.57 994150
3 1890.57 989243
3 1890.57 988203
3 1890.57 987626
3 1890.57 985078
3 1891.05 973334
3 1891.05 971316
3 1891.05 967926
3 1891.05 966886
3 1891.53 966232
3 1891.53 961485
3 1891.53 955859
3 1892.32 955205
3 1904.16 1012324
3 1904.16 1008663
3 1904.16 1004978
3 1904.16 997495
3 1904.16 985751
3 1904.16 984711
3 1904.16 981214
3 1904.16 978767
3 1904.16 969365
3 1904.16 964315
3 1904.76 961681
3 1904.76 958072
3 1904.76 955833
3 1904.76 953823
3 1904.76 952357
3 1904.76 946482
3 1905.23 937859
3 1905.56 932575
3 1905.56 930027
3 1911.44 923076
3 1911.44 921799
3 1918.02 989475
3 1918.02 986195
3 1918.02 972620
3 1918.02 967104
3 1918.02 966913
3 1918.02 961652
3 1918.53 954469
3 1918.53 947984
3 1918.53 947809
3 1918.53 947030
3 1918.53 940005
3 1919.03 939184
3 1919.03 938650
3 1919.33 930027
3 1922.16 928877
3 1922.48 927910
3 1923.25 926726
3 1923.25 924121
3 1923.25 923991
3 1923.25 923935
3 1923.25 923744
3 1923.56 923730
3 1923.56 923076
3 1923.56 923049
3 1923.56 922895
3 1923.83 922571
3 1923.83 921799
3 1932.14 1058112
3 1932.14 1057072
3 1932.14 1028364
3 1932.14 1025068
3 1932.14 1014825
3 1932.14 1005523
3 1932.14 994114
3 1932.14 987101
3 1932.14 982174
3 1932.14 981520
3 1932.14 963196
3 1932.5 962750
3 1932.5 957192
3 1932.5 955883
3 1932.5 955065
3 1932.81 954045
3 1933.06 952694
3 1933.06 952216
3 1933.06 952025
3 1934.25 951902
3 1934.97 945249
3 1934.97 943933
3 1934.97 941007
3 1935.47 939676
3 1935.47 939022
3 1935.81 935276
3 1935.81 933789
3 1935.81 931540
3 1935.81 931241
3 1946.33 972591
3 1946.33 962088
3 1946.33 960930
3 1946.33 943517
3 1946.85 942525
3 1946.85 936747
3 1946.85 936041
3 1946.85 935387
3 1946.85 934928
3 1947.33 934110
3 1947.33 933381
3 1960.24 1045485
3 1960.24 1033741
3 1960.24 1025216
3 1960.24 1021531
3 1960.24 976975
3 1960.24 975335
3 1960.24 973482
3 1960.81 967858
3 1960.81 965310
3 1960.81 964270
3 1960.81 961706
3 1961.29 961509
3 1961.29 960934
3 1974.26 1003473
3 1974.26 992937
3 1974.26 977651
3 1974.26 969028
3 1974.26 964341
3 1974.26 963076
3 1974.26 961705
3 1974.6 960726
3 1974.6 960686
3 1974.6 959058
3 1974.6 958138
3 1974.6 957827
3 1974.6 955580
3 1974.6 955495
3 1974.6 954841
3 1974.6 953440
3 1974.6 951830
3 1974.6 950939
3 1975.37 950795
3 1975.37 950139
3 1975.37 941797
3 1975.37 940887
3 1975.37 940757
3 1975.37 937859
3 1988.18 1033014
3 1988.18 1032891
3 1988.18 995966
3 1988.18 987183
3 1988.18 982362
3 1988.18 970751
3 1988.18 967714
3 1988.18 966674
3 1988.18 966590
3 1988.18 954825
3 1988.18 950766
3 1988.18 947800
3 1988.86 940916
3 1988.86 938739
3 1988.86 938029
3 1988.86 937838
3 1989.74 936798
3 1990.18 934960
3 1993.79 930668
3 1994.19 929058
3 1994.19 926817
3 1994.19 926510
3 1994.19 925738
3 2002.01 1015530
3 2002.01 1009425
3 2002.01 1008160
3 2002.01 1003285
3 2002.01 1000865
3 2002.01 994342
3 2002.01 982598
3 2002.01 973975
3 2002.01 972935
3 2002.01 959006
3 2002.01 956778
3 2002.61 956587
3 2002.61 956080
3 2003.05 955771
3 2003.47 955081
3 2003.47 954048
3 2003.47 950307
3 2003.47 946495
3 2003.97 945841
3 2003.97 944962
3 2003.97 943922
3 2016.12 1018722
3 2016.12 1012202
3 2016.12 1009942
3 2016.12 1008665
3 2016.12 1007893
3 2016.12 1002018
3 2016.12 998829
3 2016.12 994303
3 2016.53 991232
3 2016.53 990793
3 2016.53 986471
3 2016.53 983824
3 2016.53 983081
3 2016.53 982463
3 2016.88 973902
3 2016.88 968813
3 2016.88 967111
3 2016.88 966487
3 2016.88 952898
3 2016.88 945975
3 2016.88 941965
3 2017.19 941311
3 2017.19 940197
3 2017.19 940123
3 2017.46 939966
3 2018.25 939710
3 2018.25 938228
3 2018.87 934392
3 2018.87 933738
3 2019.13 932635
3 2019.13 931595
3 2019.61 930894
3 2019.86 929667
3 2019.86 929013
3 2020.16 928927
3 2020.41 927910
3 2023.87 924086
3 2024.29 921799
1 2030.01 1065893
3 2030.01 1064832
3 2030.01 1056737
3 2030.01 1033974
3 2030.01 1033506
3 2030.01 1032466
3 2030.01 1017114
3 2030.01 1001090
3 2030.01 991788
3 2030.59 981607
3 2030.59 981416
3 2030.59 978868
3 2030.59 970343
3 2030.59 962420
3 2031.08 961675
3 2031.08 956748
3 2031.08 955471
3 2031.08 954817
3 2031.94 953976
3 2032.36 950291
3 2044.16 990703
3 2044.16 983787
3 2044.16 969737
3 2044.16 968677
3 2044.58 968430
3 2044.58 968415
3 2044.87 966155
3 2044.87 965115
3 2045.14 962567
3 2046.38 958752
3 2058 999871
3 2058 994944
3 2058 988014
3 2058 987220
1 2058 981305
3 2058 970312
3 2058 966369
3 2058 964553
3 2058 957746
3 2058.47 956429
3 2058.79 955389
3 2059.1 954241
3 2059.1 950834
3 2059.42 946209
3 2059.42 940529
3 2059.42 935645
3 2059.42 930300
3 2059.42 926155
3 2059.79 925177
3 2059.79 924578
3 2059.79 924284
3 2059.79 922674
3 2060.37 921397
3 2060.92 921097
3 2061.35 918549
3 2062.17 918280
3 2062.17 917777
3 2072.35 1032080
3 2072.35 1030753
3 2072.35 1029713
3 2072.35 1027066
3 2072.35 1019094
3 2072.35 1015487
3 2072.35 1003638
3 2072.35 998786
3 2072.35 995263
3 2072.9 987627
3 2072.9 979969
3 2073.75 975621
3 2080.18 972831
3 2080.61 971139
3 2081.04 971001
3 2081.04 970018
3 2081.64 968978
3 2081.64 965190
3 2081.64 964123
3 2086.38 1053370
3 2086.38 1050516
3 2086.38 1049685
3 2086.38 1036958
3 2086.38 999910
3 2086.38 992119
3 2086.38 989874
3 2086.38 973023
3 2086.38 967127
3 2086.38 966355
3 2086.93 966137
3 2086.93 965007
3 2086.93 937107
3 2086.93 931688
3 2086.93 927805
3 2087.41 926693
3 2087.41 925158
3 2087.41 922711
3 2087.41 922610
3 2089.04 921799
3 2100.18 1070627
3 2100.18 1052041
3 2100.18 1045931
3 2100.18 1044891
3 2100.18 1017096
3 2100.18 1013250
3 2100.55 1011044
3 2100.55 997540
3 2100.55 994306
3 2100.55 988966
3 2100.55 988908
3 2100.55 988067
3 2100.55 987616
3 2100.96 982208
3 2100.96 975529
3 2100.96 968279
3 2101.6 964093
3 2101.6 962083
3 2102.13 959761
3 2102.13 959000
3 2102.13 958484
3 2102.13 957726
3 2102.13 956686
3 2102.44 949080
3 2102.73 948824
3 2102.73 948170
3 2103.02 942217
3 2103.02 941811
3 2103.02 941177
3 2103.02 940949
1 2106.22 940358
3 2106.67 938563
3 2106.67 937271
3 2106.67 936155
3 2107.13 935689
3 2107.13 935184
3 2107.48 935035
3 2107.48 934878
3 2114.42 1058235
3 2114.42 1025294
3 2114.42 1012308
3 2114.42 1007824
3 2114.42 971026
3 2114.42 960046
3 2114.42 957120
3 2114.42 952281
3 2114.42 947354
3 2114.42 945985
3 2114.96 945271
3 2115.82 944231
3 2115.82 943922
3 2116.26 941683
3 2116.67 940562
3 2116.67 939285
3 2116.67 934001
3 2116.67 932125
3 2116.67 931453
3 2116.67 930848
3 2117.19 930799
3 2117.61 930027
3 2118.3 923076
3 2118.3 921799
3 2128.21 1025471
3 2128.21 1023665
3 2128.21 1020257
3 2128.21 1013192
3 2128.21 994348
3 2128.21 990663
3 2128.21 984274
3 2128.21 982264
3 2128.21 980464
3 2128.81 973946
3 2128.81 971733
3 2128.81 970123
3 2128.81 970107
3 2128.81 969083
3 2128.81 967806
3 2129.12 960867
3 2129.12 960771
3 2129.12 959282
3 2129.53 959091
3 2130.82 954906
3 2131.92 953296
3 2133 951670
3 2133 951540
3 2133.45 951016
3 2133.45 947608
3 2135.35 947604
3 2135.35 946557
3 2135.35 942872
3 2136.71 941832
3 2142.19 1017210
3 2142.19 1011121
3 2142.19 997005
3 2142.19 989173
3 2142.19 975458
3 2142.68 972520
3 2142.68 971313
3 2143.12 967795
3 2143.12 963655
3 2143.68 955292
3 2143.68 943548
3 2143.68 936533
3 2143.99 930518
3 2144.32 928950
3 2144.94 927910
3 2145.19 924683
3 2145.19 922571
3 2145.46 921799
3 2156.1 992143
3 2156.1 983928
3 2156.1 981380
3 2156.1 965992
3 2156.1 957581
3 2156.1 948281
3 2156.44 945710
3 2156.44 945421
3 2156.44 944381
3 2156.44 944193
3 2156.73 942583
3 2156.73 939086
3 2158.16 938059
3 2159.96 937151
3 2159.96 921799
3 2170.32 1017242
3 2170.32 1015965
3 2170.32 1000539
3 2170.32 999528
3 2170.32 998756
3 2170.32 998102
3 2170.32 979510
3 2170.32 961525
3 2170.32 953734
3 2170.32 951724
3 2170.32 944443
3 2170.91 942199
3 2170.91 941841
3 2170.91 941796
3 2170.91 940451
3 2170.91 938858
3 2171.78 937248
3 2177.11 934943
3 2177.11 931258
3 2177.54 929648
3 2184.03 1050174
3 2184.03 1047527
3 2184.03 1037621
3 2184.03 1032723
3 2184.03 1030533
3 2184.03 1019553
3 2184.03 1018513
3 2184.37 1016400
3 2184.37 1007875
3 2184.37 1002668
3 2184.37 991259
3 2184.37 971038
3 2184.37 964013
3 2184.37 960801
3 2184.37 949470
3 2184.37 948698
3 2184.91 948044
3 2185.33 943605
3 2185.33 942356
3 2186.18 940632
3 2186.18 940123
3 2186.18 939407
3 2186.18 938753
3 2187.55 938364
3 2187.55 938173
3 2187.82 937337
3 2187.82 935944
3 2187.82 935625
3 2198.32 1031775
3 2198.32 992302
3 2198.32 986849
3 2198.32 981322
3 2198.32 976395
3 2198.32 967127
3 2198.32 960648
3 2198.32 959876
3 2198.94 959172
3 2199.76 957229
3 2199.76 954245
3 2201.43 942530
3 2201.85 941804
3 2201.85 932671
3 2201.85 930661
3 2201.85 929667
3 2201.85 927910
3 2203.1 926726
3 2203.34 926693
3 2203.34 925129
3 2203.34 923076
3 2203.62 921799
3 2212.1 1001790
3 2212.1 1001740
3 2212.1 994499
3 2212.1 991827
3 2212.1 991272
3 2212.1 988142
3 2212.1 983371
3 2212.1 977878
3 2212.1 975868
3 2212.1 969147
3 2212.1 968209
3 2212.46 966291
3 2212.46 962291
3 2212.46 961809
3 2212.46 959835
3 2212.46 959644
3 2212.46 958990
3 2212.46 957269
3 2212.78 953010
3 2213.22 952356
3 2213.22 951316
3 2215.2 947181
3 2215.2 947093
3 2215.49 946439
3 2215.74 945667
3 2226.21 967190
3 2226.21 964642
3 2226.21 960957
3 2226.21 955226
3 2226.21 954034
3 2226.58 951387
3 2226.58 948201
3 2226.84 944829
3 2227.18 942884
3 2240.08 1061201
3 2240.08 1034268
3 2240.08 1017947
3 2240.08 1017293
3 2240.08 1016521
3 2240.08 1000198
3 2240.08 993384
3 2240.08 981640
3 2241.06 974808
3 2241.06 962326
3 2241.06 953703
3 2241.06 949768
3 2241.06 947065
3 2241.55 946025
3 2241.96 945841
3 2241.96 941683
3 2254.16 1067344
3 2254.16 1054648
3 2254.16 1019048
3 2254.16 1018643
3 2254.16 981663
3 2254.16 980386
3 2254.16 974053
3 2254.16 960159
1 2254.57 959694
3 2254.57 950737
3 2254.57 949127
3 2254.85 948936
3 2254.85 946573
3 2254.85 940313
3 2268.03 1017852
3 2268.03 1015205
3 2268.03 991605
3 2268.03 986447
3 2268.03 984936
3 2268.03 979222
3 2268.03 974690
3 2268.03 972859
3 2268.03 971439
3 2268.03 969829
3 2268.03 965927
3 2268.03 962190
3 2268.03 956230
3 2268.62 956058
3 2268.62 953410
3 2269.45 952769
3 2273.97 952191
3 2280.2 949938
3 2280.66 949618
3 2280.66 949284
3 2280.66 947963
3 2282.06 1026896
3 2282.06 1026834
3 2282.06 1007254
3 2282.06 1004345
3 2282.06 987129
3 2282.58 985743
3 2282.58 982479
3 2282.58 978794
3 2282.58 963442
3 2282.58 960143
3 2282.96 958896
3 2282.96 958427
3 2282.96 958160
3 2282.96 957969
3 2283.27 957256
3 2283.27 956249
1 2283.27 950929
3 2283.59 950665
3 2283.59 948056
3 2283.59 946779
3 2283.59 946710
3 2283.89 946042
3 2283.89 943284
3 2283.89 942357
3 2284.17 938087
3 2284.17 937887
3 2284.17 933129
3 2284.42 930581
3 2284.42 928752
3 2284.67 927712
3 2296.18 1037917
3 2296.18 1012799
3 2296.18 1005285
3 2296.18 996675
3 2296.18 991081
3 2296.18 990966
3 2296.18 987585
3 2296.18 977428
3 2296.18 976388
3 2296.18 972703
3 2296.18 970056
3 2296.18 961433
3 2296.78 954235
3 2296.78 952225
3 2296.78 948447
3 2297.26 940827
3 2297.26 939908
3 2297.26 938631
3 2297.71 937859
3 2299.26 937534
3 2299.26 933957
3 2299.26 931409
3 2299.26 930369
3 2299.62 926883
3 2299.62 926724
3 2299.62 925684
3 2310.01 979624
3 2310.01 979433
3 2310.01 979298
3 2310.01 977463
3 2310.01 970811
3 2310.01 969845
3 2310.43 962820
3 2310.91 961802
3 2311.17 961030
3 2311.17 954187
3 2311.44 953932
3 2312.15 951405
3 2312.15 950128
3 2312.15 946874
3 2312.61 945264
3 2324.13 1038385
3 2324.13 1006744
3 2324.13 998953
3 2324.13 994224
3 2324.13 993951
3 2324.13 982207
3 2324.13 979391
3 2324.13 978351
3 2324.66 976741
3 2327.17 964923
3 2327.17 962913
3 2327.17 962028
3 2327.17 960214
3 2327.17 959530
3 2327.67 956982
3 2327.99 955942
3 2334.43 950953
3 2334.43 944533
3 2338.26 1028076
3 2338.26 1027036
3 2338.26 1014050
3 2338.26 1007779
3 2338.26 999684
3 2338.26 985790
3 2338.26 964666
3 2338.26 948635
3 2338.26 946249
3 2338.26 941322
3 2338.26 932530
3 2338.78 932460
3 2338.78 929429
3 2338.78 928152
3 2338.78 927380
3 2338.78 922453
3 2339.08 922273
3 2339.08 921799
3 2352.39 973126
3 2352.39 970719
3 2352.39 963999
3 2352.39 961088
3 2352.39 954557
3 2352.39 952150
3 2352.39 951728
3 2352.39 940748
3 2352.93 932125
3 2352.93 932042
3 2352.93 931453
3 2352.93 930848
3 2353.4 930681
3 2354.26 930027
3 2354.68 923076
3 2355.07 922087
3 2355.07 921799
3 2366.18 1014789
3 2366.18 1011104
3 2366.18 1009327
3 2366.18 1007827
3 2366.18 1000867
3 2366.18 996234
3 2366.18 991978
3 2366.18 986981
3 2366.18 973023
3 2366.18 965535
3 2366.18 964763
3 2366.18 964203
3 2366.65 961039
3 2366.65 960559
3 2366.93 956143
3 2366.93 954655
3 2366.93 953973
3 2366.93 953770
3 2366.93 951760
3 2366.93 951425
3 2367.85 945264
3 2380.16 1028159
3 2380.16 1004961
3 2380.16 1004307
3 2380.16 1003758
3 2380.16 1003535
3 2380.16 992543
3 2380.16 968600
3 2380.16 959977
3 2380.49 958937
3 2380.49 949480
3 2380.49 947870
3 2381.52 943344
3 2382.55 943327
3 2382.55 941704
3 2382.55 939156
3 2382.55 938400
3 2382.55 935792
3 2382.86 932863
3 2382.86 930216
3 2384.3 929258
3 2391.63 928692
3 2391.63 927389
3 2392.08 926548
3 2392.94 926349
3 2394.22 1040953
3 2394.22 1029104
3 2394.22 1024536
3 2394.22 1018302
3 2394.22 1015534
3 2394.22 1014880
3 2394.22 1008468
3 2394.22 1007696
3 2394.22 1002769
3 2394.79 994146
3 2394.79 993106
3 2408.3 988628
3 2408.3 979943
3 2408.3 978718
3 2408.3 977660
3 2408.3 976620
3 2408.3 973141
1 2408.3 967952
3 2408.3 964267
3 2408.91 962569
3 2408.91 958744
3 2408.91 951460
3 2408.91 948534
3 2409.37 947494
3 2409.8 943822
3 2409.8 942865
3 2410.26 937938
3 2410.26 936849
3 2410.69 936669
3 2410.69 936195
3 2422.29 1024669
3 2422.29 1005659
3 2422.29 996738
3 2422.29 995966
3 2422.29 995312
3 2422.29 983701
3 2422.78 979853
3 2422.78 965650
3 2422.78 962844
3 2422.78 962190
3 2422.78 959543
3 2423.49 952687
3 2423.88 949002
3 2436.01 1007921
3 2436.01 998619
3 2436.01 986333
3 2436.01 975369
3 2436.01 970057
3 2436.01 967509
3 2436.01 955198
3 2436.53 954652
3 2436.53 952724
3 2437.12 949039
3 2437.12 945654
3 2437.12 944882
3 2437.12 929574
3 2437.12 928297
3 2437.12 927885
3 2437.42 926845
3 2437.42 926654
3 2437.69 926299
3 2437.69 922704
3 2438.06 922453
3 2438.33 921799
3 2450.37 1052927
3 2450.37 1043863
3 2450.37 1042378
3 2450.37 1035353
3 2450.37 1023609
3 2450.37 1023315
3 2450.37 1019630
3 2450.37 1019439
3 2450.37 1018785
3 2450.93 1010162
3 2450.93 1008875
3 2450.93 1007094
3 2451.2 994946
3 2451.46 994174
3 2451.46 984282
3 2451.76 979096
3 2452.02 974595
3 2452.02 965191
3 2461.2 965083
3 2461.2 964085
3 2461.55 956783
3 2461.55 956011
3 2461.97 955501
3 2461.97 954461
3 2464.12 977924
3 2464.12 964953
3 2464.52 960385
3 2464.52 959578
3 2464.52 959447
3 2464.52 957837
3 2464.52 955182
3 2464.52 954034
3 2464.52 953380
3 2464.52 951639
3 2464.52 951627
3 2464.87 951425
3 2464.87 945851
3 2465.69 945801
3 2466.21 945264
3 2478.02 1020700
3 2478.02 1019090
3 2478.02 1015018
3 2478.02 1012947
3 2478.02 1009262
3 2478.02 995489
3 2478.02 992483
3 2478.02 989836
3 2478.02 979582
3 2478.02 978305
3 2478.02 967061
3 2478.58 955396
3 2478.58 954949
3 2478.58 950099
3 2478.9 946424
3 2478.9 946233
3 2478.9 941661
3 2479.47 941007
3 2479.72 939550
3 2479.72 939264
3 2479.72 938224
3 2479.72 938033
3 2479.72 933657
3 2479.72 931972
3 2479.72 931839
3 2479.72 931067
3 2479.72 930695
3 2481.09 930681
3 2481.09 930027
3 2492.21 1027991
3 2492.21 1025244
3 2492.21 1005023
3 2492.21 997698
3 2492.21 966057
3 2492.52 964624
3 2492.52 963918
3 2492.52 961246
3 2492.52 948332
3 2492.52 944835
3 2492.52 943558
3 2492.52 938677
3 2492.52 938631
3 2492.99 937859
3 2495.13 930027
3 2501.51 927910
3 2504.12 926017
3 2504.12 925363
3 2504.12 923076
3 2504.94 922651
3 2504.94 921799
3 2506.21 1078680
3 2506.21 1076132
3 2506.21 1075478
3 2506.21 1074484
3 2506.21 1069277
3 2506.21 1046059
3 2506.21 1033073
3 2506.21 1032301
3 2506.21 1023413
3 2506.21 1016949
3 2506.21 1015274
3 2506.58 1008796
3 2506.58 997052
3 2506.9 988527
3 2507.15 986917
3 2514.38 986913
3 2514.38 985347
3 2514.38 984070
3 2514.38 983928
3 2514.87 983156
3 2516.91 972564
3 2516.91 963422
3 2516.91 962382
3 2520.16 1034893
3 2520.16 1031396
3 2520.16 1022773
3 2520.16 1021332
3 2520.16 1020055
3 2520.16 1008311
3 2520.16 991917
3 2520.16 982511
3 2520.16 977591
3 2520.53 977496
3 2520.53 969705
3 2520.53 968289
3 2520.83 967992
3 2521.09 967858
3 2521.09 966872
3 2521.36 965669
3 2521.61 962205
3 2521.61 961165
3 2522.2 960449
3 2522.2 954133
3 2522.2 947775
3 2523.49 946533
3 2523.49 943752
3 2523.79 941105
3 2534.2 1015969
3 2534.2 1004560
3 2534.2 995258
3 2534.2 977547
3 2534.2 976641
3 2534.2 970054
3 2534.2 961166
3 2534.2 955471
3 2534.59 954526
3 2534.59 947028
3 2534.59 940447
3 2534.59 939601
3 2534.88 938829
3 2534.88 937800
3 2535.35 937552
3 2535.35 935252
3 2548.16 1069983
3 2548.16 1039829
3 2548.16 1035666
3 2548.16 1031188
3 2548.16 1016501
3 2548.16 1004235
3 2548.16 1002956
3 2548.16 993911
3 2548.16 993389
3 2548.16 992735
3 2548.16 989947
3 2548.16 989015
3 2548.16 987975
3 2548.8 982492
3 2548.8 973891
3 2548.8 971482
3 2548.8 970155
3 2548.8 969872
3 2548.8 965176
3 2549.29 963617
3 2549.29 962628
3 2549.72 955701
3 2549.72 955047
3 2550.18 949429
3 2550.45 947957
3 2550.45 947179
3 2550.45 945935
3 2550.45 945744
3 2550.45 941476
3 2562.3 1020721
3 2562.3 1016570
3 2562.3 1001115
3 2562.3 987945
3 2562.3 987282
3 2562.3 985016
3 2562.3 983830
3 2562.3 983176
3 2562.3 981290
3 2562.88 972222
3 2562.88 971450
3 2563.5 967690
3 2564.4 966468
3 2564.4 961541
3 2564.4 961027
3 2564.4 959987
3 2564.4 959333
3 2564.91 956407
3 2572.99 955174
3 2572.99 954402
3 2572.99 952824
3 2573.28 951214
3 2573.77 949649
3 2573.77 946337
1 2576.06 1043633
3 2576.06 1031368
3 2576.06 1022745
3 2576.06 1017057
3 2576.06 1015010
3 2576.06 1005708
3 2576.06 976492
3 2576.06 975452
3 2576.06 972805
3 2576.06 966508
3 2576.06 964973
3 2576.81 958290
3 2576.81 957013
3 2576.81 941755
3 2576.81 939745
3 2578.28 939654
3 2578.28 937635
3 2578.85 937198
3 2578.85 935585
3 2578.85 932164
3 2578.85 929565
3 2578.85 928375
3 2578.85 927454
3 2580.68 925880
3 2590.4 1066703
3 2590.4 1050377
3 2590.4 1049605
3 2590.4 1048328
3 2591.34 1044692
3 2591.34 1039986
3 2591.34 1035796
3 2591.34 1032980
3 2591.34 1030432
3 2591.34 1023600
3 2591.85 1022696
3 2591.85 1014977
3 2592.72 1010888
3 2594.78 1008322
3 2594.78 1005675
3 2604.24 1041465
3 2604.24 1020135
3 2604.24 1005448
3 2604.24 1001009
3 2604.24 1000153
3 2604.24 983298
3 2604.24 968196
3 2604.24 965531
3 2604.24 959875
3 2604.24 952529
3 2604.63 948090
3 2604.63 946841
3 2604.63 946024
3 2604.9 945373
3 2604.9 944180
3 2604.9 931339
3 2604.9 930279
3 2605.19 929827
3 2605.19 927353
3 2605.19 923382
3 2605.56 922957
3 2605.81 922802
3 2618.13 1104016
1 2618.13 1085428
3 2618.13 1071398
3 2618.13 1061890
3 2618.13 1046519
3 2618.13 1035837
3 2618.13 1027214
3 2618.13 1027023
3 2618.49 1024940
3 2618.49 1008753
3 2618.83 1003638
3 2618.83 998711
3 2618.83 997939
3 2619.12 997658
3 2619.12 997434
3 2619.41 996662
3 2622.64 993022
3 2622.95 992894
3 2622.95 991990
3 2623.22 991218
3 2623.48 989941
1 2629.33 986659
3 2629.33 986494
3 2629.33 978848
3 2629.62 978567
3 2629.62 977571
3 2632.17 1017505
3 2632.17 1014858
3 2632.17 1005556
3 2632.17 1001798
3 2632.17 983951
3 2632.17 975247
3 2632.17 964515
3 2632.17 959588
3 2632.17 959325
3 2632.17 958816
3 2632.17 957051
3 2632.58 954196
3 2633.2 934411
3 2633.48 931764
3 2633.48 930027
3 2634.22 929656
3 2634.63 928667
3 2634.63 928476
3 2634.63 928379
3 2635.06 926151
3 2635.06 925937
3 2635.5 925497
3 2635.5 924897
3 2635.5 924858
3 2635.89 922571
3 2635.89 921799
3 2646.19 1033711
3 2646.19 1031286
3 2646.19 1002070
3 2646.19 999522
3 2646.19 995135
3 2646.19 993506
3 2646.19 978464
3 2646.19 975859
3 2646.19 972025
3 2646.55 948941
3 2646.55 946041
3 2646.55 945200
3 2646.83 941516
3 2646.83 939798
3 2646.83 936002
3 2646.83 930899
3 2647.11 930496
3 2647.11 930409
3 2647.44 929842
3 2647.44 925438
3 2647.44 924398
3 2647.91 924207
3 2647.91 924160
3 2648.33 918343
3 2648.63 916733
3 2660.05 1027999
3 2660.05 1017019
3 2660.05 1012859
3 2660.05 1011819
3 2660.05 995807
3 2660.05 992122
3 2660.05 991266
3 2660.05 978096
3 2660.05 977929
3 2660.05 974411
3 2660.05 973705
3 2660.05 961856
3 2660.66 956153
3 2660.66 955017
3 2660.66 937037
3 2660.66 936383
3 2660.66 934585
3 2660.66 933736
3 2660.66 929717
3 2674.08 1037809
3 2674.08 1036199
3 2674.08 1017108
3 2674.08 1012020
3 2674.61 1011248
3 2674.61 995896
3 2675.03 974877
3 2675.03 974788
3 2675.35 971750
3 2675.35 971278
3 2675.35 970065
3 2675.35 969320
3 2675.35 967139
3 2675.83 962656
3 2675.83 958149
3 2676.33 955238
3 2676.33 954418
3 2676.33 953646
3 2676.78 953508
3 2677.2 948424
3 2677.2 947230
3 2677.2 946631
3 2677.2 945634
3 2677.2 945125
3 2677.72 944985
3 2678.65 944513
3 2679.09 944504
3 2688.11 1026355
3 2688.11 1025315
3 2688.11 1014313
3 2688.11 1006624
3 2688.11 1005852
3 2688.11 1005198
3 2688.11 993349
3 2688.65 979420
3 2689.08 969025
3 2694.06 968895
3 2694.51 968639
3 2694.51 968440
3 2702.02 1033960
3 2702.02 1028086
3 2702.02 1020352
3 2702.02 1019580
3 2702.02 1001448
3 2702.02 995766
3 2702.02 987143
3 2702.02 986103
3 2702.41 975511
3 2702.41 974739
3 2702.41 973928
3 2702.97 969576
3 2702.97 965157
3 2703.47 957821
3 2703.47 956783
3 2703.47 946733
3 2703.47 945123
3 2704.93 934878
3 2716.07 1046678
3 2716.07 1042567
3 2716.07 1034986
3 2716.07 1029304
3 2716.07 1026756
3 2716.07 1018133
3 2716.5 1005491
3 2716.5 999992
3 2716.5 999022
3 2716.5 997581
3 2716.86 985732
3 2716.86 983081
3 2716.86 982814
3 2717.21 981605
3 2717.21 979902
3 2717.21 979248
3 2717.21 978417
3 2717.62 975009
3 2717.62 974703
3 2717.62 973732
3 2718.1 973168
3 2718.51 972155
3 2730.38 1043368
3 2730.38 1030267
3 2730.38 1010339
3 2730.38 977362
3 2730.38 969124
3 2730.38 967847
3 2730.38 966610
3 2730.38 962925
3 2730.92 959445
3 2730.92 956897
3 2730.92 954301
3 2735.52 952718
3 2735.52 948433
3 2735.86 947779
3 2744.33 972974
3 2744.33 971364
3 2744.33 970087
3 2744.33 966587
3 2744.33 961141
3 2744.33 960991
3 2744.85 959714
3 2744.85 959660
3 2744.85 955026
3 2745.26 953416
3 2745.26 953361
3 2745.26 952295
3 2746.17 949864
3 2746.17 949092
1 2752.84 939501
3 2752.84 939310
3 2752.84 935173
3 2752.84 930878
3 2752.84 930687
3 2758.08 1018187
3 2758.08 1017663
3 2758.08 987509
3 2758.08 981229
3 2758.08 972045
3 2758.08 968360
3 2758.08 962232
3 2758.08 961690
3 2758.08 956511
3 2758.64 953585
3 2758.64 951346
3 2758.64 950306
3 2759.1 948413
3 2759.1 947975
3 2759.93 943038
3 2759.93 942786
3 2759.93 942186
3 2759.93 934954
3 2760.4 934259
3 2760.4 933229
3 2760.4 932982
3 2760.4 931235
3 2760.4 930799
3 2760.92 930027
3 2761.47 928877
3 2762.02 927910
3 2765.54 926726
3 2765.8 922686
3 2765.8 922397
3 2765.8 921799
3 2772.01 1051129
3 2772.01 1035777
3 2772.01 1027986
3 2772.01 1024301
3 2772.43 1012452
3 2772.43 1012150
3 2772.43 1006142
3 2772.43 989596
3 2772.43 987986
3 2772.81 980554
3 2772.81 980082
3 2772.81 973597
3 2772.81 971987
3 2772.81 967664
3 2772.81 966054
3 2772.81 964777
3 2773.18 957284
3 2773.18 956244
3 2773.7 953033
3 2774.18 952716
3 2774.43 951969
3 2774.43 950515
3 2774.43 949475
3 2774.7 948919
3 2774.7 947812
3 2774.96 945264
3 2786.02 987592
3 2786.02 985582
3 2786.02 981936
3 2786.02 980467
3 2786.02 979427
3 2786.02 978655
3 2786.02 976107
3 2786.02 975494
3 2786.02 975420
3 2786.02 975356
3 2786.02 974702
3 2786.02 974151
3 2786.43 965419
3 2786.9 961788
3 2786.9 959141
3 2794.3 958104
3 2794.3 952245
3 2794.3 949770
3 2794.94 948812
3 2796.66 944694
3 2796.66 941654
3 2797.04 940952
3 2797.04 939767
query_times: 46
Score = 947085
