    Blocking waiting for file lock on package cache
    Blocking waiting for file lock on package cache
    Blocking waiting for file lock on package cache
    Blocking waiting for file lock on build directory
    Finished release [optimized] target(s) in 0.04s
     Running `target/release/tester ../a.out 0091`
3 3.284 1544188
3 3.284 1541421
3 3.284 1521302
3 3.284 1516592
3 3.284 1512625
3 3.893 1510537
3 3.893 1507106
3 3.893 1500431
3 3.893 1498234
3 3.893 1494579
3 4.44 1488903
3 4.44 1483242
3 4.44 1479055
3 4.999 1474801
3 4.999 1468306
3 4.999 1464039
3 6.002 1455224
3 6.002 1453944
3 6.505 1453244
3 6.505 1450674
3 6.505 1444024
3 8.139 1439053
3 8.844 1437996
3 8.844 1433577
3 14.44 1535038
3 14.44 1522292
3 14.44 1501387
3 14.44 1496120
3 14.44 1476906
3 14.44 1448778
3 15.281 1440158
3 15.281 1431970
3 15.883 1431270
3 15.883 1428674
3 15.883 1418800
3 16.598 1418258
3 16.598 1412420
3 16.598 1411763
3 17.476 1406513
3 17.476 1406398
3 17.476 1406355
3 17.476 1401450
3 18.321 1392350
3 18.321 1388025
3 18.321 1386979
3 18.321 1382912
3 19.215 1382869
3 19.215 1381012
3 20.018 1380355
3 20.018 1380040
3 20.018 1379997
3 20.592 1379950
3 21.067 1376692
3 21.067 1375992
3 21.565 1375491
3 22.135 1371597
3 22.135 1370335
3 23.566 1370166
3 24.066 1369466
3 24.617 1363840
3 24.617 1363628
3 28.47 1547988
3 28.47 1543976
3 28.47 1538605
3 28.47 1534606
3 28.47 1533468
3 28.47 1521613
3 28.47 1520489
3 28.47 1493308
3 28.47 1491190
3 28.47 1443237
3 29.336 1417220
3 29.336 1416520
3 29.999 1411615
3 29.999 1410029
3 30.55 1407301
3 30.55 1403770
3 30.55 1398392
3 30.55 1395258
3 31.079 1395051
3 31.079 1394745
3 31.079 1392130
3 31.079 1391154
3 31.671 1387217
3 31.671 1386017
3 32.626 1381937
3 32.626 1378003
3 33.104 1377712
3 33.104 1375829
3 33.104 1373770
3 33.104 1371399
3 33.634 1366494
3 42.264 1490056
3 42.264 1483895
3 42.264 1478849
3 42.264 1459307
3 42.264 1438971
3 42.264 1436869
3 43.173 1436187
3 43.173 1426583
3 43.173 1414333
3 43.173 1413889
3 43.173 1410262
3 44.044 1407755
3 44.044 1405022
3 44.864 1402968
3 44.864 1399483
3 44.864 1396998
3 44.864 1395473
3 44.864 1393450
3 45.731 1392488
3 45.731 1391650
3 45.731 1388545
3 46.564 1387355
3 46.564 1386564
3 46.564 1385864
3 47.153 1382341
3 47.153 1382108
3 47.153 1380901
3 47.665 1380093
3 48.148 1375131
3 48.148 1372370
3 48.656 1370206
3 48.656 1369623
3 48.656 1367073
3 48.656 1366583
3 49.695 1364725
3 52.225 1364526
3 52.225 1357439
3 53.003 1356259
3 53.003 1356082
3 53.524 1354830
3 53.524 1354654
3 54.13 1353830
3 54.13 1349832
3 56.047 1501074
3 56.047 1500009
3 56.047 1499132
3 56.047 1498432
3 56.047 1481862
3 56.047 1478068
3 56.047 1473163
3 56.708 1469844
3 56.708 1458121
3 56.708 1453139
3 57.461 1449719
3 57.461 1446319
3 57.461 1433629
3 57.461 1433497
3 57.461 1416359
3 57.461 1413813
3 57.461 1409106
3 58.397 1407618
3 58.397 1404755
3 58.397 1404677
3 58.397 1401914
3 59.184 1394650
3 59.184 1392845
3 59.184 1386209
3 60.592 1384231
3 62.023 1383531
3 64.233 1378831
3 65.04 1378495
3 70.087 1515886
3 70.087 1513082
3 70.087 1507218
3 70.087 1503435
3 70.087 1492074
3 70.087 1476609
3 70.087 1474635
3 70.087 1442840
3 70.718 1429456
3 70.718 1426433
3 70.718 1422412
3 70.718 1411323
3 70.718 1410885
3 71.25 1408419
3 71.25 1408167
3 71.25 1405760
3 71.25 1404695
3 71.25 1402139
3 71.977 1401439
3 72.754 1391245
3 72.754 1386089
3 72.754 1385759
3 72.754 1374655
3 73.604 1371470
3 74.46 1369687
3 74.46 1369322
3 74.46 1369172
3 75.362 1368643
3 75.362 1366260
3 75.964 1365925
3 75.964 1361064
3 75.964 1359763
3 84.12 1452774
3 84.12 1450619
3 84.12 1446514
3 84.12 1439788
3 84.12 1438739
3 84.12 1438445
3 84.12 1427179
3 84.12 1422761
3 85.074 1421808
3 85.074 1420897
3 85.969 1411819
3 85.969 1409565
3 86.817 1408011
3 87.389 1401980
3 87.389 1391799
3 87.905 1389581
3 87.905 1383290
3 87.905 1382439
3 90.011 1381648
3 91.907 1380558
3 92.478 1376238
3 92.959 1375956
3 93.447 1375187
3 97.819 1374474
3 98.349 1493160
3 98.349 1476623
3 98.349 1469726
3 98.349 1459622
3 98.349 1442814
3 98.349 1441401
3 98.988 1437230
3 98.988 1431980
3 98.988 1430123
3 98.988 1427319
3 98.988 1418742
3 98.988 1416660
3 98.988 1416084
3 98.988 1414034
3 98.988 1411633
3 100.959 1407892
3 100.959 1391858
3 100.959 1387846
3 101.845 1386608
3 101.845 1378791
3 101.845 1377213
3 101.845 1368283
3 102.701 1365061
3 103.498 1363590
3 104.299 1363068
3 112.593 1496287
3 112.593 1489557
3 112.593 1482142
3 112.593 1476114
3 112.593 1471209
3 113.484 1462193
3 113.484 1448906
3 113.484 1448768
3 113.484 1442802
3 113.484 1442468
3 113.484 1436186
3 113.484 1435700
3 114.43 1434704
3 114.43 1430034
3 114.43 1418134
3 114.43 1413737
3 115.281 1413115
3 115.281 1408129
3 115.281 1407424
3 115.847 1399937
3 115.847 1399862
3 115.847 1395317
3 116.364 1391744
3 116.364 1391305
3 117.34 1389141
3 117.34 1388995
3 117.855 1388513
3 117.855 1388254
3 119.925 1387188
3 119.925 1385734
3 119.925 1382451
3 120.796 1382351
3 120.796 1381954
3 122.524 1381831
3 125.776 1381718
3 125.776 1379800
3 126.638 1475776
3 126.638 1474909
3 126.638 1472572
3 126.638 1456490
3 126.638 1442203
3 126.638 1437974
3 127.539 1434278
3 127.539 1433021
3 127.539 1424155
3 128.203 1422864
3 128.69 1420703
3 128.69 1417614
3 128.69 1413464
3 129.497 1408093
3 129.497 1407975
3 131.135 1395324
3 131.991 1393498
3 131.991 1393143
3 132.6 1392081
3 132.6 1388401
3 132.6 1385764
3 132.6 1384550
3 133.644 1383530
3 134.264 1381892
3 134.781 1381192
3 134.781 1380525
3 134.781 1377321
3 134.781 1375367
3 137.359 1374883
3 139.162 1372223
3 140.05 1449489
3 140.05 1444548
3 140.05 1440290
3 140.05 1435743
3 140.05 1435180
3 140.05 1424297
3 140.05 1420702
3 140.717 1420213
3 140.717 1417711
3 140.717 1414246
3 140.717 1409341
3 140.717 1408836
3 141.41 1408136
3 141.41 1403695
3 142.355 1399542
3 142.838 1395077
3 142.838 1394695
3 142.838 1393383
3 142.838 1391968
3 143.429 1391884
3 143.429 1389618
3 143.429 1388516
3 143.915 1385596
3 144.408 1384918
3 145.419 1383773
3 145.419 1383392
3 145.419 1381465
3 145.419 1375229
3 146.127 1373281
3 146.127 1372581
3 147.074 1370199
3 147.074 1367336
3 148.54 1366984
3 148.54 1363882
3 149.044 1362003
3 149.514 1360904
3 149.514 1360836
3 150.058 1358684
3 150.545 1357388
3 150.545 1355483
3 152.033 1355458
3 152.033 1354758
3 154.121 1525242
3 154.121 1524542
3 154.121 1521583
3 154.121 1519637
3 154.121 1514481
3 154.121 1508770
3 154.121 1506309
3 154.822 1499959
3 154.822 1495556
3 154.822 1482810
3 154.822 1477775
3 154.822 1472463
3 154.822 1462665
3 155.403 1452911
3 155.403 1452211
3 155.403 1451378
3 155.944 1445621
3 155.944 1435747
3 155.944 1435047
3 155.944 1429891
3 156.816 1422704
3 156.816 1421577
3 156.816 1419223
3 156.816 1414643
3 156.816 1411528
3 157.614 1407621
3 157.614 1407343
3 157.614 1405789
3 157.614 1398183
3 158.216 1394624
3 158.717 1393262
3 158.717 1391784
3 160.119 1387891
3 163.929 1383101
3 163.929 1377414
3 164.82 1376827
3 164.82 1373964
3 164.82 1373264
3 165.658 1372509
3 168.411 1407056
3 168.411 1403913
3 168.411 1402432
3 168.411 1400781
3 168.411 1398599
3 168.411 1398160
3 168.411 1394687
3 168.411 1392395
3 169.025 1391602
3 169.025 1389437
3 170.567 1383308
3 170.567 1380277
3 170.567 1379577
3 171.397 1375977
3 171.397 1373487
3 171.397 1373084
3 173.17 1373034
3 173.17 1368183
3 173.17 1366933
3 173.671 1366062
3 176.572 1365526
3 177.534 1361514
3 179.508 1360394
3 180.071 1359098
3 180.071 1358965
3 180.071 1356852
3 180.071 1356309
3 180.071 1355862
3 182.11 1486922
3 182.11 1481672
3 182.11 1478134
3 183.033 1452013
3 183.033 1444340
3 183.033 1433635
3 183.033 1427987
3 183.952 1427131
3 183.952 1425802
3 183.952 1425746
3 183.952 1421838
3 184.861 1415247
3 184.861 1415046
3 184.861 1399548
3 184.861 1396198
3 185.369 1395412
3 185.369 1388888
3 185.369 1388407
3 187.839 1383906
3 187.839 1375706
3 188.857 1375006
3 188.857 1372942
3 189.886 1371662
3 189.886 1370962
3 190.386 1370152
3 190.386 1370082
3 190.386 1369769
3 190.953 1369069
3 191.765 1368857
3 191.765 1367408
3 191.765 1366409
3 191.765 1365709
3 191.765 1363879
3 192.634 1362560
3 193.422 1362307
3 196.29 1587234
3 196.29 1550402
3 196.29 1541420
3 196.29 1535246
3 196.29 1535073
3 196.29 1496145
3 196.29 1492970
3 196.29 1491503
3 196.29 1490895
3 196.29 1481021
3 197.039 1466997
3 197.039 1459710
3 197.039 1457914
3 197.039 1457297
3 197.039 1451926
3 197.039 1442947
3 197.039 1438042
3 197.039 1433058
3 197.705 1433033
3 197.705 1429884
3 197.705 1421142
3 197.705 1415041
3 198.294 1412712
3 198.294 1412246
3 198.294 1411898
3 198.294 1407341
3 198.819 1405420
3 198.819 1403958
3 199.464 1398950
3 200.183 1395820
3 200.183 1386748
3 200.183 1379430
3 201.03 1377779
3 201.03 1376743
3 201.842 1373771
3 201.842 1372615
3 201.842 1372112
3 202.534 1369794
3 205.151 1369539
3 205.636 1368603
3 206.64 1367449
3 207.557 1366570
3 207.557 1365342
3 208.506 1364649
3 208.977 1364103
3 209.484 1363949
3 210.19 1455470
3 210.19 1444560
3 210.19 1439599
3 210.19 1432210
3 210.19 1430914
3 210.19 1425664
3 210.19 1422792
3 210.791 1422420
3 210.791 1421720
3 210.791 1420968
3 210.791 1412457
3 211.329 1407582
3 211.329 1399437
3 211.329 1391592
3 211.329 1391242
3 211.329 1386036
3 211.907 1385212
3 212.957 1382001
3 213.49 1381686
3 213.49 1381593
3 215.095 1379777
3 215.095 1373569
3 215.095 1373231
3 224.193 1464677
3 224.193 1464341
3 224.193 1460452
3 224.193 1446420
3 224.193 1440496
3 224.802 1426699
3 224.802 1425392
3 224.802 1416896
3 224.802 1415518
3 225.343 1414170
3 225.925 1412333
3 225.925 1411294
3 226.674 1407145
3 226.674 1406157
3 226.674 1396838
3 228.362 1393770
3 231.592 1392898
3 231.592 1389471
3 232.4 1386042
3 232.4 1385794
3 232.4 1381782
3 232.4 1381308
3 232.4 1381232
3 233.606 1380125
3 233.606 1379148
3 233.606 1372518
3 234.214 1370565
3 238.287 1457849
3 238.287 1445107
3 238.287 1438486
3 238.287 1433940
3 238.287 1428414
3 238.287 1425796
3 238.287 1423798
3 238.287 1420891
3 239.028 1410778
3 239.028 1410628
3 239.874 1404901
3 239.874 1401242
3 239.874 1400319
3 239.874 1395966
3 239.874 1390023
3 239.874 1389799
3 239.874 1389698
3 240.746 1389641
3 241.481 1385001
3 242.323 1383091
3 242.323 1381779
3 242.323 1379958
3 242.963 1379276
3 242.963 1378691
3 244.168 1377812
3 245.79 1372978
3 252.195 1483890
3 252.195 1479056
3 252.195 1473046
3 252.195 1463575
3 252.195 1453388
3 252.761 1448997
3 252.761 1444218
3 252.761 1438417
3 252.761 1432844
3 252.761 1430850
3 252.761 1430150
3 252.761 1417866
3 253.363 1417380
3 253.363 1415659
3 255.258 1407650
3 256.039 1404781
3 256.039 1402937
3 256.039 1402269
3 256.039 1400062
3 256.91 1399876
3 258.064 1397505
3 258.064 1396518
3 258.064 1396262
3 260.007 1393133
1 260.007 1390125
3 262.657 1385717
3 266.295 1521698
3 266.295 1510736
3 266.295 1504216
3 266.295 1471165
3 266.295 1444025
3 266.295 1438148
3 266.295 1437645
3 266.295 1429160
3 266.927 1427635
3 266.927 1417761
3 267.433 1415733
3 267.433 1400237
3 267.433 1393646
3 267.433 1391158
3 267.952 1387348
3 267.952 1384205
3 267.952 1382192
3 267.952 1380752
3 277.254 1380232
3 277.254 1377099
3 278.042 1374763
3 278.042 1371896
3 278.79 1371071
3 280.369 1478606
3 280.369 1474594
3 280.369 1471960
3 280.369 1466600
3 280.369 1459214
3 280.369 1454177
3 280.369 1451469
3 280.369 1447025
3 280.369 1445742
3 280.369 1440269
3 280.369 1436770
3 281.345 1424271
3 281.345 1418526
3 281.345 1407395
3 281.345 1402204
3 281.345 1399236
3 281.986 1398440
3 281.986 1392821
3 282.539 1392344
3 283.027 1392150
3 283.512 1391898
3 283.512 1390032
3 284.039 1380837
3 284.039 1378922
3 285.998 1376500
3 286.953 1375353
3 287.907 1373945
3 287.907 1371456
3 289.161 1370313
3 294.79 1527803
3 294.79 1522553
3 294.79 1512534
3 294.79 1496330
3 294.79 1494156
3 294.79 1494127
3 294.79 1489251
3 294.79 1441892
3 294.79 1425084
3 295.753 1424714
3 296.358 1424014
3 296.358 1417986
3 296.358 1413881
3 296.358 1407095
3 296.358 1400600
3 296.925 1398427
3 296.925 1394580
3 296.925 1385611
3 296.925 1379510
3 297.477 1375093
3 297.477 1374583
3 304.775 1374030
3 307.038 1365061
3 308.259 1464371
3 308.259 1460359
3 308.259 1451390
3 308.259 1448527
3 309.136 1448093
3 309.136 1447693
3 309.136 1447600
3 309.136 1440895
3 309.136 1433536
3 309.136 1420822
3 309.773 1417067
3 309.773 1409682
3 310.399 1406284
3 310.399 1400713
3 311.223 1393932
3 311.223 1391011
3 311.223 1386257
3 313.654 1384944
3 314.473 1381707
3 314.473 1381007
3 318.881 1378324
3 318.881 1374666
3 318.881 1369921
3 319.412 1369262
3 321.753 1368777
3 321.753 1367856
3 322.276 1526461
3 322.276 1508000
3 322.276 1507788
3 322.276 1501842
3 322.276 1499888
3 322.276 1495773
3 322.86 1480944
3 322.86 1480627
3 322.86 1474060
3 322.86 1472970
3 322.86 1467599
3 322.86 1463161
3 322.86 1459149
3 322.86 1458456
3 322.86 1457448
3 323.664 1457394
3 323.664 1453996
3 323.664 1453276
3 323.664 1452576
3 323.664 1447265
3 323.664 1441500
3 324.292 1432729
3 324.292 1426035
3 324.795 1419373
3 324.795 1415305
3 324.795 1414468
3 324.795 1411086
3 324.795 1407070
3 325.382 1406170
3 325.382 1402948
3 325.382 1394628
3 325.382 1393022
3 325.382 1393004
3 325.928 1389863
3 325.928 1389388
3 326.413 1385070
3 326.413 1384705
3 326.413 1384017
3 326.413 1382827
3 326.413 1381754
3 326.413 1378777
3 326.413 1378602
3 326.413 1374920
3 327.853 1374824
3 327.853 1373624
3 328.356 1370812
3 329.815 1370171
3 329.815 1367349
3 329.815 1366752
3 329.815 1366111
3 330.795 1364912
3 331.797 1364486
3 331.797 1363796
3 331.797 1363096
3 331.797 1359763
3 336.32 1498639
3 336.32 1495351
3 336.32 1475700
3 336.32 1464128
3 336.32 1447722
3 336.32 1440253
3 336.32 1423683
3 337.282 1418152
3 337.282 1416136
3 337.282 1415289
3 337.282 1412916
3 338.168 1412485
3 338.168 1410913
3 338.168 1408132
3 338.168 1405895
3 338.168 1402031
3 338.168 1398266
3 339.915 1398079
3 340.723 1396831
3 340.723 1396167
3 340.723 1395852
3 340.723 1395460
3 341.428 1394876
3 342.149 1394649
3 342.678 1391029
3 343.436 1390329
3 344.212 1390296
3 350.483 1555585
3 350.483 1527457
3 350.483 1523632
3 350.483 1484704
3 350.483 1481312
3 350.483 1475735
3 350.483 1472755
3 351.338 1451430
3 351.338 1447955
3 351.338 1447951
3 351.338 1436425
3 351.338 1433992
3 351.338 1432490
3 351.338 1430294
3 351.338 1426891
3 351.338 1426191
3 352.959 1424535
3 352.959 1423410
3 352.959 1422632
3 352.959 1407522
3 352.959 1405082
3 353.931 1403355
3 353.931 1394386
3 354.914 1386144
3 355.475 1383748
3 355.475 1379649
3 357.846 1379407
3 357.846 1378392
3 358.982 1378307
3 359.796 1376851
3 359.796 1373988
3 360.616 1373338
3 362.142 1372750
3 362.142 1371182
3 362.142 1368587
3 364.31 1492921
3 364.31 1486426
3 364.31 1469362
3 364.31 1459388
3 364.31 1448324
3 364.31 1439355
3 364.31 1438647
3 364.31 1427116
3 364.31 1426323
3 364.31 1423731
3 364.899 1417056
3 364.899 1412835
3 364.899 1408135
3 365.65 1400946
3 365.65 1394115
3 365.65 1383172
3 366.49 1382162
3 366.49 1380425
3 366.49 1376499
3 367.115 1374914
3 367.115 1370649
3 367.596 1366104
3 367.596 1363674
3 367.596 1363314
3 367.596 1360796
3 378.506 1487256
3 378.506 1482100
3 378.506 1446206
3 378.506 1443190
3 378.506 1432334
3 378.506 1426210
3 378.506 1420960
3 378.506 1419913
3 378.506 1419417
3 379.396 1415379
3 379.396 1405364
3 379.921 1401361
3 379.921 1392517
3 379.921 1380645
3 380.988 1380562
3 380.988 1376458
3 380.988 1375740
3 381.587 1375359
3 381.587 1371747
3 381.587 1367867
3 382.965 1367735
3 390.556 1367545
3 392.408 1471634
3 392.408 1456169
3 392.408 1455549
3 392.408 1455227
3 392.408 1438663
3 392.408 1423198
3 392.408 1421334
3 393.232 1417882
3 393.232 1417546
3 393.232 1416846
3 393.232 1415905
3 393.232 1411918
3 393.841 1408501
3 393.841 1406191
3 393.841 1402400
3 394.44 1394976
3 394.44 1389210
3 394.44 1385259
3 394.44 1383688
3 394.44 1383035
3 394.96 1379494
3 400.369 1376898
3 405.059 1376661
3 405.859 1376338
3 406.515 1501373
3 406.515 1492031
3 406.515 1490849
3 406.515 1475150
3 406.515 1442581
3 406.515 1437102
3 406.515 1433090
3 406.515 1426017
3 407.138 1422321
3 407.138 1420767
3 407.138 1417022
3 407.138 1416187
3 407.138 1414223
3 407.138 1404029
3 407.138 1403032
3 407.138 1398319
3 407.704 1395689
3 407.704 1395575
3 407.704 1393682
3 407.704 1391000
3 408.356 1388717
3 409.163 1388576
3 409.9 1388391
3 409.9 1385973
3 409.9 1382648
3 409.9 1380688
3 409.9 1380091
3 410.431 1379421
3 410.431 1378439
3 410.431 1378160
3 410.431 1377693
3 410.431 1377299
3 410.431 1366063
3 411.236 1362445
3 412.837 1361814
3 413.634 1360473
3 420.164 1504176
3 420.164 1500164
3 420.164 1479268
3 420.164 1477755
3 420.164 1477269
3 420.164 1466124
3 420.164 1460624
3 420.164 1458465
3 421.114 1458364
3 421.114 1456228
3 421.114 1452350
3 421.114 1435780
3 421.114 1427766
3 422.004 1427515
3 422.004 1422478
3 422.004 1418284
3 422.004 1415011
3 423.662 1411405
3 423.662 1409752
3 423.662 1406520
3 423.662 1402784
3 423.662 1402084
3 424.296 1399736
3 424.296 1398329
3 424.296 1398196
3 424.898 1397004
3 424.898 1387748
3 424.898 1385963
3 424.898 1384599
3 425.573 1382915
3 426.245 1382456
3 426.245 1382060
3 426.913 1381206
3 426.913 1380974
3 426.913 1380910
3 426.913 1380117
3 426.913 1377746
3 428.564 1377046
3 430.203 1371133
3 431.033 1370526
3 434.392 1613260
3 434.392 1594090
3 434.392 1577282
3 434.392 1560759
3 434.392 1556337
3 434.392 1555854
3 434.392 1529264
3 434.392 1522983
3 434.392 1518917
3 434.392 1517310
3 434.392 1507436
3 434.392 1505255
3 434.392 1504056
3 434.392 1502768
3 435.453 1476751
3 435.453 1471595
3 435.453 1470267
3 435.453 1467906
3 436.319 1467889
3 436.319 1456649
3 436.319 1455143
3 436.319 1449576
3 436.319 1440199
3 436.911 1437665
3 436.911 1426239
3 436.911 1413219
3 436.911 1412519
3 436.911 1409236
3 437.448 1406802
3 437.448 1405038
3 437.448 1399196
3 437.448 1398496
3 441.297 1394519
3 441.297 1388362
3 441.826 1383399
3 441.826 1378192
3 448.336 1435826
3 448.336 1435586
3 448.336 1435074
3 448.336 1429416
3 448.932 1416387
3 448.932 1416142
3 448.932 1413279
3 448.932 1407651
3 448.932 1406293
3 448.932 1403499
3 449.598 1399048
3 449.598 1397351
3 450.108 1391384
3 450.108 1390684
3 450.108 1380361
3 450.602 1378282
3 450.602 1377569
3 451.086 1375817
3 451.729 1373377
3 451.729 1372677
3 453.042 1370730
3 453.042 1369622
3 453.59 1367577
3 454.055 1367521
3 454.055 1366932
3 454.055 1366527
3 460.178 1366301
3 460.675 1364865
3 460.675 1364764
3 460.675 1363846
3 460.675 1363608
3 461.195 1363295
3 461.706 1358081
3 462.178 1541643
3 462.178 1531769
3 462.178 1530994
3 462.178 1492066
3 462.178 1491366
3 462.178 1473845
3 462.178 1469636
3 462.178 1458627
3 462.178 1454005
3 462.178 1452617
3 462.178 1451205
3 462.178 1423077
3 462.864 1407344
3 462.864 1403332
3 463.352 1398204
3 463.352 1397066
3 463.352 1396462
3 463.352 1394733
3 463.878 1391164
3 463.878 1388154
3 463.878 1386612
3 464.387 1382941
3 464.387 1379304
3 464.387 1378604
3 464.888 1378453
3 465.428 1378088
3 465.916 1371932
3 466.392 1371617
3 466.392 1370371
3 476.167 1578292
3 476.167 1577499
3 476.167 1564753
3 476.167 1564739
3 476.787 1541104
3 476.787 1512976
3 476.787 1510594
3 476.787 1505689
3 476.787 1466779
3 476.787 1448911
3 476.787 1427851
3 476.787 1420371
3 476.787 1417977
3 476.787 1417508
3 477.431 1417097
3 477.431 1414182
3 477.431 1406158
3 478.226 1402644
3 478.226 1398251
3 478.226 1396258
3 478.226 1392544
3 478.226 1386854
3 479.026 1386838
3 479.026 1386384
3 479.026 1385319
3 479.026 1384616
3 479.026 1374655
3 479.026 1373883
3 480.793 1368931
3 480.793 1368390
3 480.793 1367179
3 481.65 1366479
3 481.65 1365238
3 481.65 1365013
3 481.65 1364356
3 481.65 1363881
3 482.968 1363365
3 482.968 1363140
3 490.378 1490107
3 490.378 1448139
3 490.378 1442230
3 490.378 1401731
3 490.378 1400349
3 490.378 1400094
3 490.378 1386410
3 490.378 1385311
3 490.378 1383541
3 490.999 1379125
3 490.999 1377610
3 490.999 1373261
3 490.999 1372802
3 490.999 1371742
3 490.999 1371293
3 491.525 1370954
3 491.525 1369945
3 493.009 1368009
3 493.492 1367067
3 494.01 1362251
3 494.01 1360555
3 494.487 1360217
3 494.487 1359109
3 504.106 1550782
3 504.106 1546980
3 504.106 1544176
3 504.106 1498443
3 504.106 1495517
3 504.106 1488817
3 505.104 1480191
3 505.104 1474820
3 505.932 1458641
3 505.932 1458413
3 505.932 1443593
3 506.47 1440567
3 506.47 1440458
3 506.47 1439922
3 506.47 1438957
3 506.47 1428821
3 507.019 1419745
3 507.019 1419056
3 507.688 1416904
3 507.688 1415377
3 508.542 1415247
3 509.378 1405509
3 509.378 1404329
3 509.908 1402476
3 509.908 1399523
3 509.908 1398823
3 511.422 1398494
3 512.01 1396823
3 518.611 1500875
3 518.611 1485670
3 519.478 1475796
3 519.478 1471809
3 519.478 1470729
3 519.478 1436255
3 519.478 1434642
3 520.089 1433797
3 520.089 1430693
3 520.089 1429328
3 520.089 1425905
3 520.089 1421317
3 520.089 1418334
3 520.835 1417270
3 520.835 1413144
3 520.835 1412869
3 521.712 1411294
3 521.712 1405923
3 521.712 1405223
3 522.587 1400123
3 522.587 1397615
3 523.43 1397191
3 523.43 1396822
3 523.43 1396544
3 523.43 1395618
3 523.43 1392835
3 524.289 1390866
3 524.826 1387930
3 525.945 1385019
3 526.545 1378486
3 532.368 1558915
3 532.368 1532898
3 532.368 1524321
3 532.368 1502377
3 532.368 1497472
3 532.368 1484726
3 532.958 1474852
3 532.958 1458044
3 532.958 1452888
3 532.958 1450059
3 532.958 1446223
3 532.958 1443958
3 532.958 1439216
3 532.958 1436255
3 533.545 1431809
3 533.545 1429760
3 533.545 1424831
3 534.086 1424740
3 534.086 1421936
3 534.587 1421642
3 534.587 1419063
3 534.587 1406627
3 534.587 1402320
3 534.587 1401953
3 535.213 1401801
3 535.213 1399311
3 535.213 1398663
3 536.042 1389514
3 536.042 1388864
3 536.819 1385828
3 537.398 1381770
3 537.398 1379843
3 537.398 1379361
3 537.398 1377213
3 538.65 1376915
3 539.546 1374978
3 540.549 1371726
3 540.549 1368182
3 540.549 1368069
3 540.549 1365888
3 541.198 1365698
3 546.14 1575017
3 546.14 1572646
3 546.14 1533736
3 546.14 1516928
3 546.14 1516375
3 546.14 1511470
3 546.14 1475513
3 546.14 1470520
3 546.764 1465448
3 546.764 1461057
3 546.764 1460357
3 546.764 1446269
3 546.764 1435447
3 546.764 1426713
3 546.764 1423444
3 547.365 1420581
3 547.365 1418588
3 547.365 1415453
3 547.365 1412487
3 547.365 1410548
3 547.886 1404278
3 547.886 1400674
3 549.352 1398658
3 549.352 1395537
3 549.352 1389019
3 549.352 1386218
3 549.352 1377099
3 549.352 1372793
3 560.349 1501912
3 560.349 1484508
3 560.349 1468777
3 560.349 1459362
3 560.349 1436218
3 560.349 1430208
3 561.11 1429020
3 561.11 1422497
3 561.11 1415265
3 561.11 1413638
3 561.868 1409715
3 561.868 1406802
3 562.706 1404417
3 563.518 1398411
3 563.518 1394997
3 563.518 1393544
3 564.403 1392613
3 565.379 1392248
3 569.44 1388696
3 573.476 1388687
3 573.476 1383301
3 573.476 1376768
3 574.315 1450488
3 574.315 1444006
3 574.315 1433481
3 574.315 1414242
3 574.315 1411069
3 574.315 1407617
3 574.315 1407605
3 574.315 1407058
3 574.315 1400931
3 575.052 1400404
3 575.052 1393767
3 575.052 1388340
3 575.54 1386493
3 576.031 1386440
3 576.031 1375450
3 576.031 1370165
3 576.031 1368814
3 576.529 1366991
3 576.529 1365838
3 576.529 1364710
3 578.143 1363165
3 578.605 1362495
3 578.605 1361906
3 579.098 1359354
3 579.098 1356141
3 579.098 1354316
3 588.146 1530479
3 588.146 1516071
3 588.146 1500606
3 588.146 1453549
3 588.146 1449773
3 588.146 1444523
3 588.146 1439152
3 589.07 1428195
3 589.07 1422562
3 589.07 1412096
3 589.07 1411079
3 589.625 1410293
3 589.625 1405609
3 589.625 1404927
3 589.625 1404806
3 589.625 1404195
3 589.625 1399256
3 589.625 1396680
3 589.625 1396220
3 590.226 1393131
3 590.226 1392921
3 590.226 1392504
3 590.226 1392221
3 590.226 1390599
3 591.284 1386076
3 591.284 1383818
3 591.284 1383118
3 591.284 1382572
3 591.284 1376807
3 591.851 1375775
3 591.851 1375637
3 591.851 1372061
3 593.595 1366296
3 598.876 1362449
3 602.17 1566288
3 602.17 1561132
3 602.17 1560579
3 602.17 1559530
3 602.17 1557311
3 602.17 1525326
3 602.17 1511901
3 602.17 1499155
3 602.17 1494250
3 602.17 1483358
3 602.17 1482658
3 603.162 1479140
3 603.162 1462332
3 603.162 1442118
3 603.162 1434583
3 603.162 1430642
3 603.162 1411946
3 604.02 1410312
3 604.02 1410128
3 604.53 1404118
3 604.53 1403718
3 604.53 1394309
3 605.194 1390881
3 605.194 1388192
3 605.886 1386760
3 605.886 1383320
3 605.886 1383136
3 606.752 1382576
3 606.752 1381647
3 607.604 1380636
3 607.604 1380164
3 607.604 1379464
3 607.604 1378917
3 609.448 1378272
3 609.448 1377752
3 610.325 1375976
3 612.729 1375308
3 615.417 1370152
3 616.068 1544176
3 616.068 1537378
3 616.068 1513174
3 616.068 1503062
3 616.068 1500657
1 616.068 1491201
3 616.068 1487190
3 616.068 1461751
3 616.068 1456024
3 616.068 1445360
3 617.278 1439535
3 617.278 1438835
3 617.278 1436205
3 617.278 1432037
3 617.278 1431932
3 617.278 1431058
3 617.278 1427800
3 617.278 1424919
3 617.955 1414379
3 617.955 1412696
3 617.955 1411540
3 617.955 1408382
3 617.955 1405439
3 617.955 1404739
3 618.513 1404230
3 618.999 1399948
3 618.999 1397014
3 618.999 1390404
3 619.582 1385154
3 619.582 1385129
3 620.178 1382340
3 621.333 1379354
3 621.333 1375690
3 622.945 1375501
3 622.945 1374115
3 623.77 1373384
3 623.77 1372971
3 624.595 1372367
3 625.437 1372321
3 625.437 1371305
3 626.746 1370181
3 627.223 1368639
3 627.683 1368282
3 627.683 1366493
3 627.683 1366316
3 628.201 1365926
3 630.106 1468383
3 630.106 1466332
3 630.106 1461498
3 630.106 1448447
3 630.106 1444397
3 630.106 1442498
3 630.106 1442103
3 630.706 1440164
3 630.706 1437973
3 631.765 1423517
3 631.765 1413697
3 631.765 1410151
3 631.765 1406834
3 632.672 1398434
3 632.672 1397003
3 633.324 1395573
3 633.948 1395508
3 636.034 1389743
3 644.389 1460120
3 644.389 1454524
3 644.389 1450569
3 644.389 1450246
3 644.389 1442513
3 644.389 1432834
3 644.389 1428380
3 644.389 1427073
3 644.389 1418062
3 644.389 1416766
3 644.389 1409687
3 644.389 1403586
3 645.027 1396140
3 645.027 1396090
3 645.027 1387172
3 645.027 1381634
3 645.638 1380273
3 646.437 1375845
3 646.437 1368955
3 646.437 1368771
3 646.437 1368432
3 646.437 1366886
3 647.318 1362505
3 648.027 1362422
3 648.993 1359479
3 649.45 1358239
3 649.45 1354447
3 649.943 1353567
3 650.89 1352651
3 652.487 1348241
3 658.01 1450947
3 658.01 1449163
3 658.01 1440194
3 658.01 1437810
3 658.01 1433591
3 658.01 1425350
3 658.01 1420100
3 658.01 1410092
3 658.953 1408138
3 658.953 1406653
3 659.784 1401273
3 660.6 1396558
3 660.6 1388302
3 660.6 1387834
3 660.6 1387826
3 660.6 1380678
3 661.472 1376960
3 664.087 1372049
3 664.087 1370753
3 664.785 1364020
3 664.785 1363105
3 664.785 1361125
3 665.877 1361005
3 665.877 1360446
3 665.877 1357083
3 667.451 1354149
3 668.256 1351673
3 672.213 1533036
3 672.213 1522022
3 672.213 1521306
3 672.213 1482378
3 672.213 1469913
3 672.213 1465008
3 672.213 1449911
3 672.213 1437165
3 672.213 1432526
3 673.151 1417395
3 673.151 1405088
3 673.151 1401006
3 673.151 1396412
3 674.256 1394893
3 674.836 1394471
3 674.836 1394459
3 674.836 1391582
3 676.905 1388360
3 676.905 1385199
3 677.745 1384518
3 678.607 1383642
3 679.549 1382171
3 679.549 1381649
3 679.549 1376493
3 679.549 1371035
3 680.408 1368180
3 680.408 1365249
3 686.014 1544963
3 686.014 1539532
3 686.014 1523136
3 686.014 1503485
3 686.014 1498580
3 686.014 1492085
3 686.014 1457706
3 686.014 1442596
3 686.014 1435118
3 687.006 1434452
3 687.006 1425973
3 687.006 1425678
3 687.006 1420307
3 687.846 1419607
3 687.846 1409585
3 687.846 1409339
3 687.846 1405607
3 687.846 1404374
3 687.846 1397644
3 687.846 1395129
3 688.757 1394512
3 688.757 1393657
3 689.73 1390952
3 689.73 1390554
3 689.73 1389975
3 690.301 1388176
3 690.301 1388121
3 690.301 1386101
3 690.301 1382319
3 691.137 1381711
3 691.137 1376519
3 691.137 1375683
3 692.588 1375542
3 692.588 1373502
3 693.522 1369953
3 693.522 1369212
3 693.522 1368878
3 694.253 1368318
3 700.203 1464175
3 700.203 1457249
3 700.203 1451829
3 701.133 1445538
3 701.133 1429259
3 701.133 1428559
3 701.133 1428148
3 701.133 1426512
3 702.077 1421901
3 702.077 1411580
3 702.077 1406699
3 702.077 1406424
3 702.925 1394909
3 702.925 1394209
3 702.925 1383328
3 702.925 1382243
3 703.875 1381766
3 703.875 1377620
3 703.875 1371592
3 703.875 1371310
3 703.875 1368865
3 714.088 1547312
3 714.088 1519706
3 714.088 1518561
3 714.088 1512802
3 714.088 1506792
3 714.088 1502679
3 714.088 1500297
3 714.088 1483890
3 714.088 1459215
3 714.702 1449410
3 714.702 1441630
3 714.702 1437054
3 714.702 1431536
3 714.702 1430660
3 714.702 1428877
3 714.702 1422318
3 714.702 1420065
3 715.306 1416166
3 715.306 1410922
3 715.306 1410222
3 715.306 1409551
3 716.193 1408344
3 716.193 1397727
3 716.193 1396887
3 717.081 1396495
3 717.081 1392974
3 717.081 1391927
3 718.092 1390277
3 718.092 1386123
3 718.092 1385278
3 719.463 1375404
3 720.084 1372535
3 720.084 1370742
3 720.084 1366705
3 726.356 1366462
3 728.42 1518836
3 728.42 1510892
3 728.42 1500313
3 728.42 1493857
3 728.42 1465729
3 729.127 1426801
3 729.127 1411691
3 729.127 1407960
3 729.72 1404306
3 730.748 1398991
3 731.23 1393741
3 733.662 1381337
3 734.666 1381179
3 734.666 1379794
3 736.587 1374739
3 736.587 1374524
3 737.098 1373928
3 737.098 1373153
3 737.098 1372515
3 737.606 1372427
3 738.622 1371420
3 738.622 1370720
3 742.345 1550924
3 742.345 1540370
3 742.345 1531401
3 742.345 1527611
3 742.345 1506901
3 742.345 1506582
3 742.345 1497626
3 742.345 1495908
3 742.345 1485450
3 742.345 1484777
3 742.345 1483843
3 743.326 1478778
3 743.326 1475798
3 743.326 1474368
3 743.326 1469238
3 743.326 1452264
3 743.326 1452080
3 743.326 1448480
3 743.326 1437351
3 744.386 1432429
3 744.386 1428720
3 744.386 1427648
3 744.386 1407067
3 744.386 1405163
3 744.386 1404908
3 744.386 1399355
3 745.46 1398339
3 745.46 1398245
3 745.46 1391740
3 745.46 1387891
3 749.657 1387213
3 749.657 1384350
3 749.657 1379984
3 750.219 1379284
3 750.219 1375255
3 750.219 1374933
3 750.219 1373672
3 750.743 1370938
3 751.227 1369943
3 751.227 1369454
3 752.65 1368399
3 752.65 1367103
3 753.483 1364668
3 753.483 1363491
3 753.483 1363019
3 754.369 1360193
3 756.152 1475106
3 756.152 1473060
3 756.152 1455028
3 756.152 1454691
3 756.985 1445899
3 757.609 1444603
3 758.3 1444082
3 758.3 1443163
3 758.3 1436797
3 758.927 1428960
3 758.927 1426958
3 758.927 1424824
3 758.927 1422608
3 758.927 1420233
3 758.927 1417898
3 758.927 1414446
3 759.596 1413303
3 763.407 1410659
3 763.407 1404334
3 764.551 1403249
3 766.293 1402204
3 766.293 1401428
3 770.404 1524364
3 770.404 1507556
3 770.404 1501528
3 770.404 1488920
3 770.404 1477147
3 770.404 1457496
3 770.404 1451292
3 770.404 1446935
3 771.374 1441661
3 771.374 1437061
3 771.374 1435971
3 771.374 1426834
3 771.374 1424630
3 773.05 1418833
3 773.05 1418280
3 773.05 1408223
3 773.05 1407523
3 773.05 1407318
3 773.941 1402068
3 773.941 1386094
3 773.941 1382188
3 773.941 1381542
3 773.941 1381488
3 773.941 1379948
3 774.702 1379126
3 774.702 1379013
3 774.702 1374732
3 775.666 1374475
3 775.666 1374342
3 776.331 1371612
3 776.331 1370912
3 776.809 1369576
3 780.771 1363365
3 780.771 1363140
3 784.547 1459102
3 784.547 1447204
3 784.547 1445748
3 784.547 1441194
3 784.547 1440384
3 784.547 1436000
3 784.547 1432548
3 784.547 1425456
3 784.547 1424372
3 784.547 1424000
3 784.547 1423672
3 784.547 1422376
3 785.621 1418645
3 785.621 1412330
3 785.621 1410436
3 786.511 1408540
3 786.511 1398809
3 786.511 1393559
3 786.511 1393005
3 786.511 1391051
3 787.094 1385083
3 787.67 1383035
3 787.67 1379984
3 787.67 1374379
3 789.805 1373779
3 791.437 1371238
3 791.437 1370872
3 791.437 1370764
3 792.331 1370689
3 792.331 1366569
3 792.331 1361052
3 793.173 1360087
3 793.173 1359368
3 794.467 1358743
3 795.637 1352650
3 796.694 1349472
3 796.694 1348868
3 796.694 1348704
3 798.201 1489239
3 798.201 1469334
3 798.201 1466842
3 798.201 1460347
3 798.201 1458727
3 798.201 1454968
3 798.201 1454856
3 798.201 1452158
3 798.201 1449907
3 798.201 1446944
3 798.201 1446293
3 798.201 1444339
3 798.201 1435766
3 798.936 1434293
3 798.936 1430516
3 798.936 1430473
3 798.936 1424016
3 798.936 1414179
3 798.936 1410591
3 798.936 1405798
3 798.936 1404096
3 799.645 1402364
3 799.645 1397991
3 799.645 1396599
3 799.645 1395445
3 800.481 1391039
3 800.951 1389715
3 800.951 1385411
3 800.951 1374335
3 801.645 1373747
3 801.645 1368570
3 802.341 1366224
3 806.932 1364649
3 806.932 1364132
3 807.442 1364103
3 808.383 1363949
3 812.534 1492710
3 812.534 1463862
3 812.534 1448786
3 812.534 1443114
3 812.534 1425845
3 812.534 1416556
3 812.534 1411389
3 812.534 1410784
3 812.534 1409484
3 813.493 1405628
3 813.493 1405433
3 813.493 1400510
3 814.351 1387660
3 814.351 1385782
3 814.351 1381770
3 815.947 1380859
3 817.593 1378154
3 817.593 1377454
3 822.269 1375353
3 822.269 1374630
3 822.269 1373441
3 822.269 1370231
3 823.328 1370189
3 824.157 1368485
3 826.446 1472646
3 826.446 1471215
3 826.446 1460489
3 826.446 1457626
3 826.446 1451598
3 827.353 1426675
3 827.353 1414805
3 827.918 1406110
3 827.918 1404960
3 828.409 1404366
3 828.409 1403761
3 828.409 1398605
3 829.679 1395742
3 834.681 1390298
3 834.681 1387140
3 834.681 1386134
3 834.681 1384569
3 834.681 1383001
3 835.55 1382281
3 835.55 1380806
3 838.38 1375650
3 839.208 1369549
3 840.015 1526058
3 840.015 1514463
3 840.015 1510948
3 840.015 1501074
3 840.015 1472946
3 840.015 1470687
3 840.015 1467681
3 840.762 1452289
3 840.762 1449530
3 840.762 1443010
3 840.762 1440072
3 840.762 1439372
3 841.347 1436809
3 841.347 1431811
3 841.347 1425278
3 841.347 1417627
3 841.98 1417243
3 841.98 1409129
3 841.98 1409097
3 841.98 1407246
3 842.563 1405662
3 842.563 1404881
3 842.563 1399320
3 842.563 1398917
3 843.071 1394800
3 843.071 1392055
3 843.84 1388396
3 843.84 1379009
3 843.84 1373775
3 845.426 1373567
3 845.426 1373097
3 845.426 1371989
3 846.24 1370899
3 846.24 1365528
3 848.004 1362449
3 854.017 1441164
3 854.017 1437510
3 854.017 1436460
3 854.017 1433038
3 854.017 1425635
3 854.017 1424933
3 854.017 1421503
3 854.017 1417289
3 854.731 1409038
3 855.349 1407096
3 855.349 1406789
3 855.349 1406708
3 855.349 1405000
3 855.349 1404244
3 856.101 1403256
3 856.101 1398016
3 856.954 1395530
3 856.954 1393029
3 856.954 1387019
3 857.822 1383755
3 858.686 1383524
3 858.686 1377792
3 861.509 1377029
3 868.033 1472206
3 868.033 1454594
3 868.033 1447911
3 868.033 1438763
3 868.033 1433513
3 868.657 1426713
3 868.657 1424278
3 868.657 1423121
3 868.657 1418289
3 868.657 1417371
3 868.657 1409158
3 869.316 1409104
3 869.882 1409042
3 869.882 1406929
3 870.458 1405288
3 870.458 1403460
3 871.025 1398233
3 871.025 1393328
3 871.672 1390465
3 871.672 1385134
3 879.317 1383981
3 879.317 1380592
3 880.93 1378216
3 880.93 1377971
3 882.551 1473765
3 882.551 1439276
3 882.551 1438187
3 882.551 1430307
3 882.551 1425754
3 882.551 1421410
3 882.551 1417959
3 882.551 1417537
3 882.551 1416841
3 883.932 1414275
3 883.932 1413546
3 883.932 1413411
3 884.541 1406568
3 884.541 1402692
3 884.541 1396227
3 884.541 1396137
3 885.141 1389986
3 885.733 1388921
3 886.853 1383550
3 896.498 1554755
3 896.498 1543394
3 896.498 1541620
3 896.498 1498734
3 896.498 1492706
3 896.498 1485835
3 896.498 1464869
3 896.498 1463798
3 897.196 1461748
3 897.196 1459601
3 897.934 1458422
3 897.934 1447845
3 897.934 1443891
3 897.934 1443543
3 897.934 1442289
3 898.501 1437724
3 898.501 1437551
3 898.501 1427142
3 898.501 1424480
3 899.058 1419887
3 899.058 1416233
3 900.071 1412832
3 900.071 1408710
3 900.071 1404366
3 900.675 1401353
3 901.368 1399363
3 902.253 1399231
3 903.919 1392123
3 903.919 1391871
3 904.608 1391259
3 905.295 1388866
3 905.295 1384218
3 906.149 1384158
3 906.961 1382740
3 906.961 1382069
3 907.806 1380876
3 908.647 1380742
3 910.337 1447490
3 910.337 1447153
3 910.337 1441997
3 910.337 1431004
3 910.337 1421907
3 910.337 1418181
3 910.337 1418061
3 910.337 1399587
3 910.337 1398633
3 910.337 1388858
3 911.381 1386763
3 911.381 1383953
3 911.381 1383236
3 911.381 1378144
3 912.181 1373557
3 912.181 1372318
3 913.009 1369487
3 914.408 1367837
3 914.408 1366354
3 914.914 1365486
3 915.801 1364247
3 917.317 1364023
3 917.317 1363266
3 917.317 1363031
3 918.694 1361574
3 918.694 1361120
3 918.694 1360420
3 919.51 1359361
3 919.51 1358146
3 919.51 1357860
3 920.156 1357547
3 921.51 1355727
3 921.51 1352675
3 921.51 1352151
3 921.51 1350614
3 922.38 1350603
3 924.201 1471015
3 924.201 1458582
3 924.201 1452409
3 925.021 1446682
1 925.021 1440149
3 925.021 1435728
3 925.021 1434121
3 925.021 1433155
3 925.021 1421285
3 925.861 1415771
3 925.861 1400661
3 925.861 1397700
3 925.861 1397000
3 925.861 1394225
3 926.477 1388981
3 926.477 1387730
3 926.477 1387500
3 926.999 1383967
3 926.999 1382344
3 927.574 1382328
3 927.574 1381702
3 928.176 1380406
3 938.526 1559964
3 938.526 1541208
3 938.526 1521330
3 938.526 1516910
3 938.526 1514280
3 938.526 1513580
3 938.526 1485452
3 938.526 1484899
3 938.526 1479558
3 939.244 1464980
3 939.244 1462528
3 939.244 1460577
3 939.244 1436511
3 939.244 1426637
3 940.156 1417115
3 940.156 1404989
3 940.156 1402546
3 941.017 1390518
3 941.017 1390070
3 941.017 1390019
3 941.934 1389238
3 941.934 1388343
3 941.934 1384990
3 942.823 1383103
3 943.483 1379489
3 944.76 1377308
3 945.306 1376131
3 945.306 1374901
3 945.306 1374506
3 945.306 1374445
3 945.89 1373745
3 950.187 1371632
3 950.187 1370675
3 952.565 1558667
3 952.565 1543557
3 952.565 1539211
3 952.565 1519092
3 952.565 1506569
3 953.462 1501017
3 953.462 1492658
3 953.462 1489163
3 953.462 1480448
3 953.462 1479010
3 953.462 1474979
3 954.315 1473305
3 954.315 1458556
3 954.315 1454544
3 954.909 1437974
3 954.909 1436907
3 955.715 1435413
3 956.205 1434790
3 956.205 1431927
3 956.205 1431479
3 957.039 1428115
3 959.274 1426108
3 964.236 1423960
3 964.236 1423203
3 964.236 1422585
3 964.912 1413222
3 964.912 1410317
3 964.912 1407602
3 966.599 1470401
3 966.599 1458105
3 966.599 1430881
3 966.599 1427772
3 966.599 1427134
3 967.183 1418903
3 967.183 1411975
3 967.183 1411791
3 967.183 1406541
3 967.751 1405841
3 967.751 1396661
3 967.751 1396214
3 968.29 1395045
3 968.29 1394525
3 968.29 1390185
3 968.895 1390171
3 968.895 1388731
3 968.895 1386266
3 968.895 1385566
3 968.895 1384270
3 969.502 1380849
3 969.502 1380516
3 969.502 1373726
3 970.339 1372821
3 971.157 1371359
3 973.265 1369864
3 973.265 1364493
3 980.374 1520265
3 980.374 1508636
3 980.374 1494197
3 980.374 1477627
3 980.374 1471599
3 980.374 1457493
3 980.374 1453481
3 980.374 1451885
3 980.374 1449436
3 981.129 1448736
3 981.129 1445935
3 981.129 1429694
3 981.129 1424323
3 981.686 1422765
3 981.686 1420668
3 981.686 1414903
3 981.686 1408247
3 982.363 1400579
3 982.363 1395627
3 982.363 1390768
3 983.201 1389638
3 983.201 1386232
3 984.036 1383352
3 984.036 1381882
3 984.844 1376370
3 984.844 1373843
3 984.844 1373133
3 985.658 1369854
3 986.468 1369632
3 986.468 1368384
3 987.278 1365422
3 988.061 1365186
3 992.755 1364039
3 994.251 1466101
3 994.251 1443546
3 994.251 1439908
3 994.251 1438390
3 994.251 1431857
3 994.251 1417401
3 994.954 1415034
3 995.437 1412411
3 995.437 1411832
3 995.437 1409528
3 995.437 1406410
3 995.437 1404464
3 995.437 1398699
3 995.437 1395543
3 996.039 1392339
3 996.039 1392213
3 996.039 1387198
3 996.039 1386498
3 996.039 1385503
3 997.323 1381992
3 997.323 1380203
3 998.063 1378343
3 998.063 1369383
3 998.67 1369269
3 999.878 1367595
3 1000.53 1366224
3 1000.53 1365134
3 1001.13 1364096
3 1001.13 1361442
3 1001.72 1360859
3 1002.83 1359880
3 1004.58 1359763
3 1008.76 1534724
3 1008.76 1524861
3 1008.76 1515353
3 1008.76 1506678
3 1008.76 1501428
3 1008.76 1500728
3 1008.76 1495375
3 1009.37 1488880
3 1009.37 1480431
3 1009.37 1473791
3 1009.37 1469662
3 1009.37 1465650
3 1009.94 1464608
3 1009.94 1461163
3 1010.58 1444593
3 1010.58 1438492
3 1010.58 1435629
3 1011.45 1434929
3 1011.45 1422253
3 1011.45 1420534
3 1011.45 1419470
3 1012.39 1414099
3 1012.39 1413109
3 1012.39 1409811
3 1012.39 1400842
3 1012.39 1397979
3 1012.39 1397683
3 1012.39 1392630
3 1012.39 1392540
3 1013.3 1391080
3 1013.3 1387115
3 1013.3 1384255
3 1014.11 1382214
3 1014.11 1376657
3 1014.11 1371337
3 1014.11 1369120
3 1014.75 1367762
3 1014.75 1366432
3 1018.33 1365952
3 1018.33 1365702
3 1022.31 1546518
3 1022.31 1544705
3 1022.31 1505777
3 1022.31 1502642
3 1022.31 1501942
3 1022.31 1482847
3 1022.31 1456830
3 1022.31 1455712
3 1022.31 1433176
3 1022.9 1426919
3 1022.9 1421679
3 1022.9 1421632
3 1022.9 1410623
3 1022.9 1410509
3 1023.53 1405539
3 1023.53 1403272
3 1023.53 1401384
3 1023.53 1397543
3 1023.53 1396453
3 1024.4 1391026
3 1026.02 1390848
3 1026.02 1390693
3 1026.02 1384689
3 1026.71 1383184
3 1026.71 1382047
3 1026.71 1381347
3 1027.25 1377335
3 1027.25 1373925
3 1027.75 1370194
3 1028.23 1369494
3 1028.76 1366571
3 1028.76 1365226
3 1030.8 1364589
3 1036.07 1484661
3 1036.07 1478105
3 1036.07 1464859
3 1036.07 1458623
3 1036.07 1452218
3 1036.07 1439220
3 1036.86 1437108
3 1036.86 1427879
3 1036.86 1423692
3 1036.86 1421202
3 1036.86 1417028
3 1037.79 1413120
3 1037.79 1411387
3 1038.62 1411351
3 1038.62 1411283
3 1039.45 1411182
3 1039.45 1408319
3 1039.45 1402582
3 1040.28 1396753
3 1040.28 1395457
3 1040.28 1395059
3 1041.12 1394822
3 1041.12 1394122
3 1043.73 1393844
3 1044.46 1389200
3 1046.8 1388108
3 1047.6 1383461
3 1047.6 1379521
3 1050.72 1568713
3 1050.72 1533183
3 1050.72 1528845
3 1050.72 1516099
3 1050.72 1508865
3 1050.72 1503494
3 1050.72 1493809
3 1050.72 1477402
3 1050.72 1452727
3 1050.72 1448929
3 1050.72 1433547
3 1051.71 1431593
3 1051.71 1417448
3 1052.55 1406392
3 1052.55 1404656
3 1052.55 1395111
3 1052.55 1392723
3 1053.38 1388711
3 1053.38 1388661
3 1054.22 1383411
3 1054.22 1378744
3 1055.89 1377687
3 1055.89 1374129
3 1055.89 1373588
3 1056.4 1371189
3 1056.4 1370715
3 1056.4 1370350
3 1056.4 1370156
3 1056.4 1369601
3 1057.2 1369576
3 1057.2 1368010
3 1057.2 1367006
3 1059.03 1363140
3 1061.56 1361732
3 1061.56 1359763
3 1064.02 1429904
3 1064.02 1427336
3 1064.02 1419531
3 1064.02 1410528
3 1064.02 1410140
3 1064.98 1407701
3 1064.98 1404733
3 1064.98 1402278
3 1065.83 1395068
3 1065.83 1394384
3 1065.83 1393684
3 1065.83 1391245
3 1065.83 1388673
3 1066.47 1387040
3 1066.47 1384898
3 1066.47 1384198
3 1067.28 1380927
3 1067.28 1380521
3 1067.95 1379993
3 1068.5 1379293
3 1069.52 1378488
3 1074.95 1376081
3 1075.44 1375679
3 1075.44 1374979
3 1075.44 1373635
3 1078.22 1510025
3 1078.22 1509214
3 1078.22 1505420
3 1078.22 1501473
3 1078.22 1498965
3 1078.22 1479314
3 1078.22 1468866
3 1078.22 1458992
3 1079.2 1458273
3 1079.2 1455410
3 1079.2 1446246
3 1079.2 1425134
3 1080.2 1421769
3 1080.2 1418601
3 1080.2 1416213
3 1080.2 1413583
3 1080.2 1409489
3 1080.9 1404922
3 1080.9 1402068
3 1081.41 1398669
3 1081.99 1390965
3 1081.99 1385959
3 1081.99 1381030
3 1081.99 1380330
3 1081.99 1377919
3 1082.65 1374542
3 1082.65 1373264
3 1083.18 1365404
3 1084.22 1364056
3 1084.22 1360946
3 1084.22 1360792
3 1084.22 1359518
3 1084.22 1357640
3 1084.72 1357442
3 1085.69 1356482
3 1086.15 1355782
3 1092.06 1473903
3 1092.06 1459758
3 1092.06 1459400
3 1092.06 1453927
3 1092.06 1441026
3 1092.06 1440345
3 1092.06 1434244
3 1092.06 1429939
3 1092.06 1426700
3 1092.06 1423406
3 1092.73 1422178
3 1092.73 1419177
3 1092.73 1418645
3 1092.73 1417317
3 1092.73 1414272
3 1092.73 1413000
3 1092.73 1410312
3 1093.36 1406635
3 1093.36 1405931
3 1093.36 1404331
3 1093.91 1401808
3 1093.91 1399124
3 1093.91 1397149
3 1093.91 1394188
3 1093.91 1393327
3 1094.56 1390439
3 1094.56 1390153
3 1094.56 1387633
3 1095.41 1387154
3 1096.22 1385847
3 1096.22 1385432
3 1096.22 1384077
3 1097.15 1375198
3 1098.13 1374596
3 1098.92 1370213
3 1099.44 1369934
3 1099.44 1369721
3 1099.44 1369048
3 1099.95 1368348
3 1099.95 1366694
3 1099.95 1366036
3 1100.45 1363831
3 1100.45 1361910
3 1101.47 1361762
3 1102.05 1360880
3 1103.69 1360066
3 1105.25 1356648
3 1105.86 1356126
3 1106.66 1489597
3 1106.66 1479149
3 1106.66 1470138
3 1106.66 1444121
3 1106.66 1438093
3 1106.66 1437607
3 1107.31 1436720
3 1107.99 1433318
3 1107.99 1432406
3 1107.99 1430218
3 1107.99 1424968
3 1108.6 1408375
3 1108.6 1404737
3 1108.6 1404037
3 1108.6 1401934
3 1108.6 1399738
3 1109.22 1399247
3 1109.89 1397656
3 1109.89 1395680
3 1109.89 1393993
3 1109.89 1392356
3 1110.43 1391171
3 1110.43 1390648
3 1110.43 1389594
3 1110.43 1386328
3 1111.18 1381900
3 1111.18 1381073
3 1111.18 1380884
3 1112 1376933
3 1112 1374470
3 1112 1371092
3 1112 1369565
3 1112.86 1369546
3 1117.92 1369441
3 1118.97 1368865
3 1120.45 1461251
3 1120.45 1455241
3 1120.45 1445164
3 1120.45 1444427
3 1120.45 1437768
3 1120.45 1437068
3 1120.45 1436264
3 1121.03 1430308
3 1121.03 1428751
3 1121.03 1428622
3 1121.68 1427763
3 1121.68 1426442
3 1121.68 1422703
3 1121.68 1422003
3 1121.68 1418058
3 1122.34 1413823
3 1122.34 1410714
3 1122.34 1400803
3 1122.89 1399028
3 1122.89 1398535
3 1123.42 1397892
3 1124.01 1397876
3 1124.01 1397825
3 1124.6 1397024
3 1125.41 1393247
3 1125.41 1391946
3 1126.37 1391861
3 1126.37 1391319
3 1126.37 1388115
3 1127.38 1385309
3 1128.94 1382875
3 1129.79 1379414
3 1131.41 1374125
3 1131.41 1374043
3 1134.19 1470675
3 1134.19 1460447
3 1134.19 1435569
3 1134.19 1419329
3 1134.19 1414791
3 1134.78 1414079
3 1134.78 1406726
3 1134.78 1401698
3 1134.78 1398000
3 1135.37 1396912
3 1135.37 1393180
3 1135.37 1390109
3 1136.01 1385745
3 1136.01 1379735
3 1138.75 1379578
3 1138.75 1376906
3 1138.75 1375837
3 1138.75 1375782
3 1138.75 1375302
3 1139.65 1375095
3 1139.65 1374207
3 1142.84 1372997
3 1148.46 1504405
3 1148.46 1498030
3 1148.46 1491101
3 1148.46 1480040
3 1148.46 1476721
3 1148.46 1460151
3 1148.46 1459518
3 1149.13 1459259
3 1149.13 1447224
3 1149.13 1442191
3 1149.78 1436308
3 1149.78 1429082
3 1149.78 1427429
3 1149.78 1427323
3 1150.37 1425187
3 1150.37 1421991
3 1150.97 1416384
3 1150.97 1415255
3 1151.93 1413686
3 1151.93 1411550
3 1151.93 1410994
3 1151.93 1409952
3 1152.83 1409546
3 1152.83 1404581
3 1155 1403869
3 1155.52 1401910
3 1155.52 1401822
3 1155.52 1401458
3 1155.52 1401091
3 1155.52 1397841
3 1156.06 1397753
3 1157.07 1394015
3 1157.63 1393317
3 1160.11 1386893
3 1161.09 1386114
3 1162.14 1556149
3 1162.14 1517239
3 1162.14 1497588
3 1162.14 1480780
3 1162.14 1454595
3 1162.14 1444721
3 1162.14 1430576
3 1162.14 1417362
3 1162.14 1414766
3 1162.8 1413277
3 1162.8 1411314
3 1162.8 1409193
3 1162.8 1409149
3 1163.34 1404757
3 1163.34 1395914
3 1163.34 1394190
3 1163.34 1393231
3 1163.98 1389042
3 1163.98 1387894
3 1163.98 1385703
3 1163.98 1381303
3 1165.44 1380007
3 1165.44 1379126
3 1165.44 1376179
3 1166.18 1375479
3 1166.18 1375458
3 1167.35 1373514
3 1169.15 1370929
3 1170.13 1370229
3 1176.4 1495085
3 1176.4 1469512
3 1176.4 1463747
3 1176.4 1462870
3 1176.4 1458858
3 1176.4 1455126
3 1177.02 1449326
3 1177.02 1448626
3 1177.02 1445725
3 1177.02 1424512
3 1177.59 1421649
3 1177.59 1421084
3 1177.59 1419379
3 1177.59 1416815
3 1177.59 1402573
3 1177.59 1402056
3 1178.21 1399193
3 1178.21 1397910
3 1178.21 1387073
3 1180.68 1386632
3 1180.68 1386553
3 1180.68 1380525
3 1181.19 1378737
3 1182.2 1373084
3 1182.2 1372766
3 1182.2 1372066
3 1182.74 1370936
3 1182.74 1370342
3 1182.74 1364034
3 1182.74 1363324
3 1183.27 1363264
3 1183.27 1362564
3 1183.27 1361515
3 1183.27 1356610
3 1183.79 1352504
3 1183.79 1345114
3 1184.28 1340872
3 1184.28 1338247
3 1184.77 1337450
3 1184.77 1336750
3 1184.77 1332939
3 1184.77 1330626
3 1184.77 1329740
3 1185.37 1328503
3 1185.37 1328364
3 1190.26 1535067
3 1190.26 1518497
3 1190.26 1497961
3 1190.26 1482864
3 1190.26 1478949
3 1190.26 1459314
3 1190.26 1457201
3 1190.91 1453010
3 1190.91 1450823
3 1190.91 1448717
3 1190.91 1446604
3 1190.91 1446515
3 1190.91 1446022
3 1191.5 1442240
3 1191.5 1431413
3 1192.04 1426842
3 1192.04 1423961
3 1192.04 1420383
3 1193.47 1419454
3 1195.51 1415954
3 1196.53 1414899
3 1198.62 1410925
3 1198.62 1394430
3 1199.46 1394341
3 1199.46 1392040
3 1200.28 1385461
3 1200.28 1381038
3 1201.11 1380556
3 1204.29 1438459
3 1204.29 1429360
3 1204.29 1425693
3 1204.29 1420971
3 1204.29 1417152
3 1204.29 1415968
3 1204.29 1408609
3 1204.29 1408316
3 1204.29 1407647
3 1204.29 1406947
3 1205.24 1396183
3 1206.04 1393265
3 1206.04 1389908
3 1206.56 1389444
3 1207.04 1388720
3 1207.04 1387660
3 1208.14 1385376
3 1208.14 1385123
3 1208.14 1382431
3 1208.77 1381989
3 1208.77 1378230
3 1209.65 1365057
3 1210.4 1362577
3 1212.14 1362316
3 1212.14 1361616
3 1217.29 1359681
3 1218.43 1537106
3 1218.43 1511089
3 1218.43 1489414
3 1218.43 1486934
3 1219.02 1484251
3 1219.02 1480401
3 1219.02 1479283
3 1219.02 1470238
3 1219.02 1465432
3 1219.62 1460182
3 1219.62 1428048
3 1219.62 1427747
3 1219.62 1421254
3 1219.62 1419707
3 1220.54 1418222
3 1220.54 1418071
3 1221.09 1410299
3 1221.09 1407718
3 1221.09 1404089
3 1221.09 1401549
3 1221.75 1396393
3 1222.31 1393249
3 1222.31 1392703
3 1222.87 1392166
3 1223.43 1391691
3 1223.43 1388745
3 1223.43 1386752
3 1223.43 1386666
3 1223.43 1380546
3 1223.43 1376987
3 1223.43 1376373
3 1224.12 1375133
3 1224.12 1374481
3 1225.44 1369576
3 1229.53 1363140
3 1232.41 1537684
3 1232.41 1527810
3 1232.41 1524635
3 1232.41 1522087
3 1232.41 1496154
3 1232.41 1492142
3 1232.41 1490816
3 1232.41 1467622
3 1233.07 1461127
3 1233.07 1456663
3 1233.07 1446671
3 1233.07 1442235
3 1233.07 1429489
3 1233.07 1427036
3 1233.68 1424516
3 1234.24 1421272
3 1234.24 1421130
3 1234.24 1419627
3 1234.24 1413681
3 1234.24 1412931
3 1234.79 1405820
3 1235.42 1405289
3 1235.42 1405254
3 1236.27 1405131
3 1236.27 1396859
3 1236.27 1396320
3 1236.98 1392081
3 1236.98 1388069
3 1242.89 1385745
3 1244.55 1381974
3 1244.55 1380925
3 1246.79 1486924
3 1246.79 1480914
3 1246.79 1449419
3 1246.79 1444485
3 1246.79 1436659
3 1246.79 1433320
3 1248.32 1432620
3 1249.62 1417523
3 1250.33 1411726
3 1251.21 1401415
3 1251.21 1399915
3 1251.21 1398920
3 1252.66 1397445
3 1253.23 1396481
3 1255.18 1396229
3 1255.18 1392076
3 1255.18 1391680
3 1255.18 1387301
3 1255.83 1385485
3 1255.83 1383715
3 1257.95 1378644
3 1259.84 1375320
3 1260.34 1536437
3 1260.34 1508309
3 1260.34 1482355
3 1260.34 1474278
3 1260.34 1473973
3 1260.34 1471890
3 1260.34 1461779
3 1260.34 1461079
3 1260.34 1441428
3 1261.06 1438518
3 1261.06 1433843
3 1261.06 1428191
3 1261.62 1425273
3 1261.62 1422820
3 1261.62 1419807
3 1261.62 1419246
3 1261.62 1415112
3 1261.62 1413353
3 1262.22 1408029
3 1262.22 1401164
3 1262.22 1400357
3 1262.22 1398634
3 1262.22 1394986
3 1263.63 1392789
3 1263.63 1387539
3 1263.63 1382383
3 1263.63 1380803
3 1263.63 1372283
3 1266.08 1369952
3 1274.35 1453900
3 1274.35 1406146
3 1274.35 1401855
3 1274.35 1396957
3 1274.35 1393207
3 1274.35 1392507
3 1274.35 1390434
3 1275.26 1390282
3 1275.26 1389630
3 1275.26 1388985
3 1276.08 1388222
3 1276.08 1388200
3 1276.08 1384225
3 1276.9 1377431
3 1276.9 1376299
3 1276.9 1369838
3 1276.9 1368972
3 1276.9 1364854
3 1277.76 1363168
3 1277.76 1362468
3 1277.76 1362132
3 1278.59 1356226
3 1278.59 1353508
3 1278.59 1353318
3 1280.17 1352708
3 1280.17 1350309
3 1283.91 1350224
3 1287.26 1349748
3 1288.21 1506128
3 1288.21 1496490
3 1288.21 1492400
3 1288.21 1484940
3 1288.21 1484135
3 1288.21 1480101
3 1288.21 1475196
3 1288.88 1465671
3 1288.88 1457055
3 1288.88 1453155
3 1288.88 1441251
3 1288.88 1429720
3 1288.88 1422814
3 1288.88 1422472
3 1289.47 1417571
3 1289.47 1415924
3 1289.99 1413931
3 1289.99 1397123
3 1289.99 1397022
3 1289.99 1396322
3 1290.52 1392154
3 1291.6 1387249
3 1291.6 1382595
3 1292.63 1379418
3 1293.11 1373143
3 1298.85 1371993
3 1302.28 1450821
3 1302.28 1438848
3 1302.28 1434646
3 1302.28 1434598
3 1302.28 1433550
3 1302.28 1425871
3 1302.83 1424716
3 1303.41 1420492
3 1303.41 1412542
3 1303.41 1408841
3 1303.41 1407421
3 1303.41 1406570
3 1303.41 1402558
3 1303.97 1393981
3 1305.22 1387541
3 1305.22 1387448
3 1307.02 1383799
3 1307.53 1381438
3 1316.08 1503297
3 1316.08 1500155
3 1316.08 1495049
3 1316.08 1492821
3 1316.08 1483601
3 1316.08 1472303
3 1316.65 1455733
3 1316.65 1451038
3 1316.65 1449933
3 1316.65 1447696
3 1317.22 1446972
3 1317.22 1437975
3 1317.22 1433240
3 1317.22 1432516
3 1317.78 1423787
3 1317.78 1418365
3 1317.78 1417560
3 1318.31 1415821
3 1318.89 1411192
3 1322.24 1398214
3 1322.24 1397510
3 1322.24 1396348
3 1322.24 1393517
3 1323.12 1391144
3 1323.12 1388434
3 1323.12 1386500
3 1324.8 1380005
3 1328.53 1375956
3 1330.29 1476462
3 1330.29 1463716
3 1330.29 1452185
3 1330.29 1442716
3 1330.29 1437729
3 1330.29 1432842
3 1330.29 1429175
3 1331.21 1420314
3 1331.21 1419719
3 1331.21 1402911
3 1331.21 1402806
3 1331.21 1402191
3 1332.11 1400315
3 1332.92 1399654
3 1332.92 1391934
3 1332.92 1386481
3 1332.92 1379527
3 1333.79 1378563
3 1333.79 1375737
3 1333.79 1374622
3 1335.37 1372671
3 1335.37 1371129
3 1335.37 1370842
3 1335.37 1365686
3 1336.22 1363840
3 1344.02 1540687
3 1344.02 1526542
3 1344.02 1513796
3 1344.02 1505613
3 1344.02 1489203
3 1344.02 1476559
3 1344.58 1458094
3 1344.58 1442867
3 1344.58 1442629
3 1344.58 1434677
3 1344.58 1430745
3 1344.58 1424250
3 1344.58 1424116
3 1345.91 1420121
3 1345.91 1403313
3 1346.5 1400431
3 1347.11 1395181
3 1347.11 1387377
3 1347.11 1385307
3 1349.62 1383117
3 1349.62 1382971
3 1351.28 1378243
3 1351.28 1377908
3 1351.28 1377247
3 1352.19 1376752
3 1352.19 1373889
3 1353 1372874
3 1353.8 1369546
3 1354.32 1367624
3 1355.33 1365631
3 1358.48 1472241
3 1358.48 1467692
3 1358.48 1458329
3 1358.48 1452806
3 1358.48 1432416
3 1358.48 1432312
3 1358.48 1430482
3 1358.48 1425851
3 1358.48 1420086
3 1359.12 1415140
3 1359.12 1411847
3 1359.12 1408778
3 1359.12 1401476
3 1359.12 1399819
3 1359.67 1398430
3 1359.67 1397646
3 1360.17 1397183
3 1360.75 1396931
3 1361.36 1392491
3 1361.36 1391933
3 1361.36 1391845
3 1361.36 1390523
3 1361.36 1387401
3 1361.36 1386444
3 1361.96 1384278
3 1361.96 1382893
3 1361.96 1382817
3 1361.96 1375300
3 1361.96 1370395
3 1362.78 1370265
3 1364.19 1369165
3 1364.82 1368016
3 1365.9 1367380
3 1368.15 1365849
3 1368.15 1361655
3 1368.15 1361606
3 1372.46 1505260
3 1372.46 1477132
3 1372.46 1475275
3 1372.46 1473341
3 1372.46 1468183
3 1372.46 1466783
3 1372.46 1466140
3 1372.46 1452150
3 1372.46 1446325
3 1373.41 1443505
3 1373.41 1432745
3 1373.41 1429927
3 1373.41 1422194
3 1373.41 1418778
3 1373.41 1417635
3 1373.41 1409714
3 1374.31 1408326
3 1374.31 1399424
3 1374.31 1396983
3 1374.31 1394857
3 1374.31 1392921
3 1374.31 1383521
3 1375.18 1379453
3 1375.18 1378952
3 1375.18 1378423
3 1375.18 1377420
3 1375.96 1375019
3 1375.96 1374557
3 1375.96 1374319
3 1386.71 1459384
3 1386.71 1453619
3 1386.71 1447183
3 1386.71 1430646
3 1386.71 1418320
3 1386.71 1413070
3 1387.64 1406009
3 1387.64 1403196
3 1388.49 1402269
3 1388.49 1390962
3 1388.49 1390262
3 1390.12 1388496
3 1390.9 1388094
3 1390.9 1387033
3 1391.59 1383492
3 1392.63 1382792
3 1393.39 1378192
3 1393.39 1378157
3 1393.97 1373823
3 1394.77 1369829
3 1395.72 1369531
3 1395.72 1368854
3 1396.22 1368589
3 1396.22 1366591
3 1396.73 1365190
3 1397.69 1361212
3 1397.69 1359971
3 1400.5 1541642
3 1400.5 1516967
3 1400.5 1506745
3 1400.5 1502733
3 1400.5 1499348
3 1400.5 1496632
3 1400.5 1488005
3 1400.5 1466543
3 1400.5 1465356
3 1400.5 1463575
3 1400.5 1454186
3 1400.5 1449652
3 1400.5 1447144
3 1400.5 1419345
3 1400.5 1418879
3 1401.26 1415723
3 1401.26 1415029
3 1401.26 1406060
3 1401.26 1405576
3 1401.26 1405360
3 1401.26 1402764
3 1401.26 1395757
3 1401.94 1394347
3 1401.94 1384672
3 1401.94 1377873
3 1402.77 1373386
3 1403.35 1367285
3 1404.84 1366456
3 1405.32 1364422
3 1413.41 1361868
3 1413.96 1360572
3 1414.74 1478145
3 1414.74 1463014
3 1414.74 1459087
3 1414.74 1453107
3 1414.74 1433070
3 1414.74 1413612
3 1415.47 1413435
3 1415.47 1408524
3 1415.47 1399982
3 1415.47 1394611
3 1416 1389535
3 1416 1388576
3 1416.83 1382431
3 1417.64 1381139
3 1417.64 1375889
3 1419.03 1375219
3 1419.03 1375172
3 1419.57 1373565
3 1420.38 1373306
3 1425.4 1372284
3 1426.93 1371183
3 1428.8 1476738
3 1428.8 1459915
3 1428.8 1455467
3 1428.8 1451856
3 1428.8 1448333
3 1428.8 1444286
3 1428.8 1437248
3 1428.8 1432352
3 1428.8 1426594
3 1428.8 1415123
3 1428.8 1414423
3 1428.8 1414411
3 1428.8 1411324
3 1428.8 1404154
3 1428.8 1403454
3 1429.81 1398338
3 1429.81 1397513
3 1429.81 1389532
3 1430.63 1386661
3 1432.25 1384967
3 1432.25 1382672
3 1433.9 1379656
3 1433.9 1378169
3 1434.71 1377723
3 1437.09 1376054
3 1437.09 1373683
3 1437.91 1371713
3 1442.14 1518115
3 1442.14 1513070
3 1442.14 1474142
3 1442.14 1469237
3 1442.14 1453920
3 1442.14 1450959
3 1442.14 1449992
3 1442.14 1449283
3 1442.88 1433818
3 1442.88 1430846
3 1442.88 1421520
3 1442.88 1419390
3 1442.88 1414967
3 1442.88 1413798
3 1442.88 1408642
3 1444.81 1406688
3 1445.63 1405552
3 1446.47 1393146
3 1446.47 1392776
3 1446.47 1391407
3 1446.47 1387693
3 1446.47 1384384
3 1446.47 1382445
3 1446.47 1379379
3 1447.4 1368690
3 1447.4 1368132
3 1447.4 1367432
3 1448.21 1366199
3 1449.01 1365293
3 1449.01 1365048
3 1449.01 1363851
3 1449.01 1363140
3 1449.85 1361134
3 1452.18 1360996
3 1453.75 1360273
3 1454.6 1359763
3 1456.14 1506760
3 1456.14 1493152
3 1456.14 1473970
3 1456.14 1462808
3 1456.14 1460173
3 1456.14 1458874
3 1456.14 1449892
3 1456.14 1446764
3 1456.14 1437579
3 1456.14 1436695
3 1456.91 1428601
3 1456.91 1426516
3 1456.91 1424766
3 1456.91 1413129
3 1457.58 1410803
3 1457.58 1410050
3 1457.58 1392170
3 1457.58 1382905
3 1457.58 1378997
3 1458.15 1378724
3 1458.7 1377170
3 1459.68 1376251
3 1459.68 1375113
3 1460.18 1372896
3 1460.18 1369706
3 1460.69 1365106
3 1463.71 1364959
3 1463.71 1361940
3 1464.26 1361212
3 1464.73 1358500
3 1464.73 1358311
3 1465.19 1358289
3 1466.12 1357086
3 1466.58 1352486
3 1468.43 1352181
3 1469.39 1352034
3 1470.4 1450586
3 1470.4 1448540
3 1470.4 1444254
3 1470.4 1439098
3 1470.4 1437024
3 1470.4 1426549
3 1470.4 1419952
3 1471.72 1417502
3 1471.72 1414419
3 1471.72 1405760
3 1472.3 1385794
3 1472.91 1382636
3 1472.91 1375941
3 1474.05 1372969
3 1474.54 1372872
3 1474.54 1369310
3 1475.3 1366821
3 1476.44 1365272
3 1477.1 1363149
3 1477.94 1359885
3 1478.79 1359659
3 1481.15 1359371
3 1483.66 1358959
3 1484.26 1510188
3 1484.26 1505485
3 1484.26 1485834
3 1484.26 1482382
3 1484.26 1473988
3 1484.26 1467960
3 1484.26 1467501
3 1484.26 1461400
3 1485.05 1458578
3 1485.05 1450435
3 1485.05 1446944
3 1486.46 1442560
3 1486.46 1440824
3 1486.46 1439483
3 1487.34 1425971
3 1487.34 1419943
3 1487.34 1416907
3 1488.21 1416491
3 1489.04 1414064
3 1489.04 1410408
3 1489.04 1408385
3 1489.89 1405655
3 1490.72 1404770
3 1490.72 1404637
3 1490.72 1404584
3 1490.72 1399467
3 1491.61 1398478
3 1494.87 1396607
3 1498.11 1505393
3 1498.11 1495616
3 1498.11 1492973
3 1498.7 1491331
3 1498.7 1488993
3 1498.7 1473883
3 1498.7 1457726
3 1499.28 1452446
3 1499.28 1451382
3 1499.28 1449910
3 1499.28 1444984
3 1499.86 1422448
3 1499.86 1421127
3 1499.86 1419203
3 1499.86 1418065
3 1499.86 1407930
3 1500.39 1407390
3 1500.39 1405981
3 1500.39 1405924
3 1500.39 1404872
3 1500.96 1402945
3 1501.49 1399099
3 1501.49 1394090
3 1501.49 1393342
3 1501.49 1389568
3 1502.08 1389462
3 1503.1 1389262
3 1504.73 1385450
3 1505.58 1380293
3 1505.58 1379440
3 1512.42 1477038
3 1512.42 1469321
3 1512.42 1464292
3 1512.42 1456413
3 1512.42 1450312
3 1512.42 1445532
3 1512.42 1444004
3 1512.42 1422377
3 1512.42 1421081
3 1513.6 1418747
3 1513.6 1411311
3 1513.6 1408448
3 1513.6 1403110
3 1513.6 1400050
3 1513.6 1393939
3 1514.2 1393543
3 1514.2 1389827
3 1514.2 1388852
3 1514.2 1379510
3 1514.94 1378682
3 1515.77 1378379
3 1515.77 1376819
3 1516.59 1376569
3 1517.32 1375054
3 1517.82 1374927
3 1519.32 1368642
3 1520.14 1367942
3 1520.14 1366066
3 1521.81 1365919
3 1522.77 1365609
3 1522.77 1362148
3 1524.69 1360273
3 1524.69 1357705
3 1525.81 1357087
3 1525.81 1356780
3 1526.37 1449256
3 1526.37 1442765
3 1526.37 1439313
3 1526.37 1433548
3 1526.37 1425583
3 1526.95 1417869
3 1526.95 1410120
3 1526.95 1409258
3 1526.95 1403600
3 1526.95 1392816
3 1526.95 1392727
3 1526.95 1389350
3 1526.95 1388303
3 1527.82 1386806
3 1527.82 1380884
3 1528.47 1379298
3 1528.47 1378854
3 1528.47 1374732
3 1528.98 1371869
3 1528.98 1371494
3 1528.98 1370794
3 1528.98 1370233
3 1528.98 1369293
3 1529.51 1368898
3 1529.51 1368298
3 1529.51 1364636
3 1531.63 1363881
3 1531.63 1363643
3 1531.63 1363110
3 1532.63 1361827
3 1533.6 1361085
3 1534.12 1360704
3 1534.12 1357574
3 1534.12 1356874
3 1534.6 1356273
3 1540.39 1514041
3 1540.39 1501622
3 1540.39 1491405
3 1540.39 1474835
3 1540.92 1474658
3 1540.92 1473223
3 1540.92 1467389
3 1540.92 1466274
3 1540.92 1464241
3 1540.92 1458100
3 1540.92 1444660
3 1540.92 1439961
3 1541.5 1438720
3 1541.5 1438165
3 1541.5 1436490
3 1541.5 1436356
3 1541.5 1436121
3 1542.11 1430356
3 1542.62 1429905
3 1542.62 1427493
3 1543.13 1427441
3 1543.13 1426278
3 1543.13 1421554
3 1543.13 1419716
3 1543.13 1412477
3 1543.67 1411339
3 1543.67 1410729
3 1544.49 1410043
3 1545.6 1406734
3 1545.6 1406453
3 1546.15 1405973
3 1554.28 1565398
3 1554.28 1559297
3 1554.28 1539662
3 1554.28 1533652
3 1554.28 1532952
3 1554.28 1522450
3 1554.28 1502910
3 1554.28 1492256
3 1554.28 1487351
3 1554.28 1482101
3 1554.28 1480348
3 1554.28 1440414
3 1554.28 1435865
3 1555.08 1425991
3 1555.08 1418064
3 1555.08 1413230
3 1555.62 1411994
3 1555.62 1409623
3 1555.62 1409128
3 1555.62 1408923
3 1556.21 1397408
3 1556.21 1395300
3 1556.21 1393195
3 1556.21 1391496
3 1556.21 1376552
3 1556.21 1370812
3 1556.77 1365656
3 1558.8 1362764
3 1561.16 1360173
3 1561.16 1358352
3 1567.06 1355918
3 1568.04 1447393
3 1568.04 1430084
3 1568.04 1425528
3 1568.04 1422604
3 1568.04 1419666
3 1568.04 1419561
3 1568.59 1416109
3 1568.59 1412411
3 1568.59 1410237
3 1568.59 1399848
3 1568.59 1399148
3 1568.59 1393130
3 1568.59 1392400
3 1568.59 1387759
3 1568.59 1385779
3 1569.22 1378404
3 1569.22 1371909
3 1577.11 1371184
3 1577.11 1371098
3 1577.11 1370382
3 1577.75 1369660
3 1579.83 1369226
3 1580.36 1368842
3 1580.36 1368206
3 1580.36 1367421
3 1582.09 1604472
3 1582.09 1598631
3 1582.09 1584932
3 1582.09 1578904
3 1582.09 1567931
3 1582.09 1563794
3 1583.01 1546986
3 1583.01 1542604
3 1583.01 1503676
3 1583.01 1502976
3 1583.01 1493102
3 1583.01 1490519
3 1583.99 1470868
3 1583.99 1464335
3 1584.84 1461705
3 1584.84 1448992
3 1584.84 1447563
3 1584.84 1442561
3 1584.84 1440414
3 1584.84 1436782
3 1584.84 1435575
3 1584.84 1433577
3 1585.74 1422528
3 1586.52 1421009
3 1586.52 1418906
3 1588.64 1415403
3 1588.64 1405846
3 1589.17 1403990
3 1589.73 1402924
3 1589.73 1400122
3 1590.55 1400061
3 1590.55 1399422
3 1593.45 1396511
3 1594.22 1396045
3 1596.63 1472579
3 1596.63 1456974
3 1596.63 1455763
3 1596.63 1452225
3 1596.63 1430504
3 1596.63 1428886
3 1597.55 1426173
3 1598.37 1425473
3 1600.5 1424879
3 1601.2 1416504
3 1603.18 1414002
3 1604.55 1408093
3 1610.17 1483231
3 1610.17 1470485
3 1610.17 1452579
3 1610.17 1451879
3 1610.17 1435472
3 1610.87 1429462
3 1610.87 1426670
3 1610.87 1420022
3 1610.87 1415966
3 1611.84 1414087
3 1611.84 1407322
3 1611.84 1404346
3 1612.4 1395485
3 1612.4 1393500
3 1612.4 1387490
3 1613.02 1386790
3 1613.49 1385263
3 1614 1385216
3 1614 1383927
3 1614 1378665
3 1614.49 1375945
3 1614.49 1374195
3 1615.93 1372260
3 1624.63 1512115
3 1624.63 1504560
3 1624.63 1501697
3 1624.63 1499674
3 1624.63 1497534
3 1624.63 1480964
3 1624.63 1477681
3 1625.45 1476439
3 1625.45 1469836
3 1626.27 1464530
3 1626.27 1463314
3 1626.27 1462732
3 1626.27 1462499
3 1626.27 1454979
3 1626.83 1449918
3 1626.83 1448951
3 1627.65 1447887
3 1627.65 1447415
3 1627.65 1443623
3 1628.53 1439180
3 1628.53 1439046
3 1629.45 1438676
3 1629.45 1437100
3 1630.29 1436878
3 1630.29 1435767
3 1631.12 1432735
3 1631.12 1431335
3 1635.21 1430412
3 1638.46 1499338
3 1638.46 1479219
3 1638.46 1452984
3 1638.46 1442239
3 1638.46 1434892
3 1638.46 1433195
3 1639.37 1425686
3 1639.37 1418698
3 1640.2 1416567
3 1640.2 1397240
3 1641.54 1396740
3 1641.54 1395609
3 1642.41 1392954
3 1642.41 1391139
3 1642.41 1387523
3 1643.17 1382713
3 1643.17 1382633
3 1643.17 1381646
3 1643.17 1380956
3 1646.77 1379819
3 1646.77 1379584
3 1647.58 1379416
3 1647.58 1379218
3 1648.16 1379047
3 1648.66 1375164
3 1648.66 1373999
3 1649.6 1370582
3 1649.6 1369474
3 1650.08 1367504
3 1652.39 1525226
3 1652.39 1515055
3 1652.39 1505958
3 1652.39 1495674
3 1652.39 1490769
3 1652.39 1489020
3 1652.39 1487855
3 1652.39 1478886
3 1653.27 1475815
3 1653.27 1458807
3 1653.27 1455696
3 1653.27 1450072
3 1654.37 1444044
3 1654.37 1442076
3 1655.12 1439428
3 1655.12 1437548
3 1655.98 1432177
3 1655.98 1428699
3 1655.98 1427945
3 1656.85 1426330
3 1656.85 1413584
3 1658.35 1411305
3 1658.35 1402814
3 1658.86 1402255
3 1658.86 1399809
3 1660.98 1399297
3 1661.47 1399228
3 1662 1398234
3 1666.03 1593924
3 1666.03 1577116
3 1666.03 1571088
3 1666.03 1539932
3 1666.03 1527186
3 1666.03 1488258
3 1666.03 1487846
3 1666.03 1476030
3 1666.03 1475330
3 1666.03 1467217
3 1666.03 1439089
3 1666.03 1432823
3 1666.03 1427667
3 1667.04 1425601
3 1667.04 1414070
3 1667.04 1408999
3 1667.04 1399925
3 1667.89 1398867
3 1667.89 1398167
3 1667.89 1395386
3 1668.72 1395020
3 1670.3 1377049
3 1670.3 1374453
3 1671.66 1373753
3 1671.66 1369764
3 1672.8 1367527
3 1673.36 1366890
3 1680.59 1518303
3 1680.59 1511057
3 1680.59 1504537
3 1680.59 1484886
3 1680.59 1468167
3 1680.59 1455147
3 1681.16 1446655
3 1681.16 1438634
3 1681.16 1423921
3 1681.16 1412524
3 1681.16 1408477
3 1681.81 1403278
3 1681.81 1400433
3 1682.3 1394911
3 1682.3 1394304
3 1682.3 1394173
3 1682.3 1389654
3 1682.3 1386746
3 1682.3 1385614
3 1682.3 1385283
3 1682.3 1382525
3 1682.3 1376089
3 1682.9 1375452
3 1684.43 1375352
3 1684.43 1375289
3 1684.43 1371389
3 1685.76 1370752
3 1687.68 1368837
3 1693.45 1368122
3 1694.2 1552081
3 1694.2 1539077
3 1694.2 1538188
3 1694.2 1516755
3 1694.2 1510990
3 1694.2 1508654
3 1694.2 1502121
3 1694.2 1481231
3 1694.2 1474736
3 1694.2 1465602
3 1694.2 1460780
3 1695.15 1454923
3 1695.15 1451664
3 1695.15 1446508
3 1695.15 1441972
3 1695.15 1433003
3 1695.15 1422856
3 1695.93 1414509
3 1695.93 1412982
3 1696.46 1412282
3 1696.46 1406701
3 1696.46 1403431
3 1696.46 1403226
3 1696.46 1397976
3 1696.46 1396258
3 1697.07 1394718
3 1697.07 1394379
3 1697.07 1385092
3 1697.07 1384445
3 1697.63 1379289
3 1702.78 1372757
3 1706.7 1372553
3 1707.26 1367419
3 1708.55 1495966
3 1708.55 1483814
3 1708.55 1479958
3 1708.55 1476506
3 1708.55 1473876
3 1708.55 1472137
3 1708.55 1469867
3 1708.55 1463576
3 1708.55 1462271
3 1709.56 1450770
3 1709.56 1447161
3 1709.56 1439337
3 1709.56 1430250
3 1709.56 1427585
3 1709.56 1422389
3 1710.47 1421239
3 1710.47 1420697
3 1710.47 1410329
3 1710.47 1407869
3 1710.47 1407487
3 1710.47 1403475
3 1711.34 1402534
3 1711.34 1399414
3 1711.34 1393386
3 1711.34 1392079
3 1711.34 1381261
3 1711.89 1378383
3 1711.89 1376650
3 1713.38 1375201
3 1713.38 1375149
3 1713.38 1371322
3 1713.99 1370622
3 1714.45 1369376
3 1715.09 1365904
3 1716.66 1365364
3 1716.66 1362846
3 1721.75 1360821
3 1722.26 1570353
3 1722.26 1556928
3 1722.26 1528800
3 1722.26 1516054
3 1722.26 1510497
3 1722.26 1491361
3 1722.26 1486205
3 1722.26 1484760
3 1722.26 1484552
3 1722.26 1477155
3 1722.26 1473143
3 1722.26 1467133
3 1722.26 1459123
3 1722.97 1458423
3 1722.97 1449130
3 1722.97 1447307
3 1722.97 1441936
3 1722.97 1440477
3 1722.97 1437064
3 1722.97 1433982
3 1722.97 1429304
3 1722.97 1419505
3 1723.61 1419156
3 1723.61 1418499
3 1723.61 1417336
3 1723.61 1406163
3 1723.61 1400325
3 1723.61 1394093
3 1724.4 1393044
3 1724.4 1392375
3 1724.4 1391354
3 1724.4 1384821
3 1725.24 1384278
3 1726.08 1384123
3 1726.08 1382858
3 1726.08 1381408
3 1727.59 1378022
3 1727.59 1372184
3 1728.08 1372008
3 1728.08 1371484
3 1728.57 1367973
3 1728.57 1366637
3 1729.56 1366113
3 1731.41 1363068
3 1736.56 1564263
3 1736.56 1550412
3 1736.56 1528152
3 1736.56 1521657
3 1736.56 1511095
3 1736.56 1506547
3 1736.56 1496392
3 1736.56 1468264
1 1737.5 1466345
3 1738.31 1466269
3 1738.31 1463715
3 1738.31 1462924
3 1738.31 1450178
3 1738.31 1439323
3 1738.31 1428520
3 1738.31 1423177
3 1738.31 1418983
3 1739.22 1418198
3 1739.22 1418072
3 1739.22 1406402
3 1739.22 1404395
3 1739.22 1403695
3 1739.88 1399683
3 1739.88 1393030
3 1739.88 1392161
3 1739.88 1391782
3 1739.88 1390897
3 1740.88 1390868
3 1740.88 1386629
3 1740.88 1381379
3 1741.39 1380742
3 1741.88 1378272
3 1742.35 1374729
3 1750.12 1531313
3 1750.12 1528942
3 1750.12 1519760
3 1750.12 1488309
3 1750.12 1462948
3 1750.12 1461388
3 1750.12 1459196
3 1750.12 1447534
3 1750.12 1440500
3 1750.12 1413605
3 1750.12 1412333
3 1751.17 1411521
3 1751.93 1408658
3 1751.93 1399979
3 1752.76 1397768
3 1752.76 1395433
3 1752.76 1392157
3 1752.76 1385244
3 1753.6 1375370
3 1755.47 1374777
3 1755.47 1374077
3 1756.01 1371294
3 1758.79 1368730
3 1759.34 1368698
3 1764.32 1509672
3 1764.32 1478514
3 1764.32 1458395
3 1764.32 1449256
3 1764.32 1434433
3 1764.32 1428952
3 1765.43 1423307
3 1765.43 1423139
3 1765.43 1412189
3 1765.43 1409024
3 1766.32 1397154
3 1767.24 1396410
3 1767.24 1395858
3 1768.07 1385587
3 1768.57 1376990
3 1768.57 1376158
3 1768.57 1373630
3 1769.36 1371402
3 1770.16 1370148
3 1771.15 1369923
3 1771.75 1369748
3 1772.57 1365996
3 1772.57 1364505
3 1775.29 1363352
3 1775.29 1362652
3 1778.03 1534339
3 1778.03 1524067
3 1778.03 1515098
3 1778.03 1494979
3 1778.03 1493602
3 1778.03 1492884
3 1778.03 1492156
3 1778.03 1475429
3 1778.66 1469751
3 1778.66 1464324
3 1778.66 1456103
3 1779.56 1449162
3 1779.56 1447754
3 1779.56 1446519
3 1779.56 1446078
3 1779.56 1445460
3 1780.51 1435186
3 1780.51 1433555
3 1780.51 1430041
3 1781.36 1428963
3 1781.36 1425511
3 1781.93 1423940
3 1781.93 1419138
3 1786.76 1415852
3 1787.27 1414420
3 1787.27 1412760
3 1787.8 1412001
3 1787.8 1407285
1 1787.8 1406106
3 1788.4 1401244
3 1788.4 1399859
3 1788.91 1396600
3 1792.05 1555372
3 1792.05 1527244
3 1792.05 1521386
3 1792.05 1521374
3 1792.05 1482446
3 1792.05 1479417
3 1792.05 1478882
3 1792.05 1478659
3 1792.05 1474128
3 1792.05 1473439
3 1792.05 1461382
3 1792.74 1459569
3 1792.74 1438297
3 1792.74 1436904
3 1792.74 1434285
3 1792.74 1433475
3 1792.74 1430876
3 1793.59 1430176
3 1793.59 1422370
3 1793.59 1408968
3 1793.59 1407657
3 1794.49 1406957
3 1794.49 1404820
3 1794.49 1403718
3 1794.49 1402301
3 1794.49 1400562
3 1794.49 1394534
3 1794.49 1387898
3 1795.28 1386157
3 1795.28 1385444
3 1795.28 1382761
3 1795.28 1381880
3 1795.28 1376453
3 1795.28 1374115
3 1795.28 1372149
3 1795.28 1371268
3 1796.08 1371129
3 1796.08 1368915
3 1797.39 1364087
3 1798.33 1364010
3 1803.83 1363894
3 1804.65 1363076
3 1805.43 1359315
3 1806.23 1451872
3 1806.23 1442903
3 1806.23 1433957
3 1806.23 1431575
3 1806.23 1429963
3 1806.23 1428680
3 1806.23 1427494
3 1806.23 1421729
3 1806.23 1421029
3 1807.15 1418311
3 1807.95 1417725
3 1807.95 1407170
3 1807.95 1402225
3 1807.95 1401092
3 1807.95 1396768
3 1807.95 1394933
3 1807.95 1394391
3 1807.95 1392464
3 1808.87 1391835
3 1808.87 1388387
3 1809.67 1386263
3 1809.67 1384335
3 1809.67 1384154
3 1810.5 1383386
3 1814.08 1380142
3 1820.14 1508479
3 1820.14 1494373
3 1820.14 1472336
3 1820.14 1469439
3 1820.14 1469089
3 1820.14 1465778
3 1820.14 1464184
3 1820.14 1426582
3 1820.14 1422027
3 1821.13 1421426
3 1821.13 1420268
3 1821.13 1414467
3 1821.13 1413936
3 1821.13 1412654
3 1821.13 1408963
3 1822.06 1408753
3 1822.06 1404007
3 1822.06 1402502
3 1822.06 1402084
3 1822.91 1401389
3 1822.91 1401228
3 1826.12 1400596
3 1826.12 1381724
3 1826.12 1377712
3 1826.97 1377012
3 1829.84 1374985
3 1831.25 1373095
3 1831.96 1368945
3 1831.96 1368320
3 1831.96 1362520
3 1832.78 1357182
3 1833.57 1353869
3 1833.57 1353730
3 1833.57 1353633
3 1834.42 1491459
3 1834.42 1478713
3 1834.42 1476075
3 1834.42 1468764
3 1834.42 1464752
3 1834.42 1460162
3 1834.42 1435487
3 1834.42 1434207
3 1835.37 1427712
3 1835.37 1421066
3 1835.37 1421008
3 1835.37 1418423
3 1835.37 1417330
3 1835.37 1415852
3 1836.02 1411959
3 1836.02 1411934
3 1836.02 1408261
3 1836.02 1404274
3 1836.02 1404029
3 1836.02 1401999
3 1836.02 1398763
3 1836.02 1396024
3 1836.02 1395888
3 1836.73 1393258
3 1839.82 1390668
3 1840.31 1389983
3 1840.31 1389308
3 1840.31 1388033
3 1840.31 1388008
3 1840.31 1387818
3 1840.31 1376764
3 1840.85 1368714
3 1841.59 1365249
3 1845.2 1362075
3 1845.2 1361978
3 1847.11 1360765
3 1847.11 1359552
3 1848.07 1496380
3 1848.07 1444012
3 1848.07 1437731
3 1848.07 1433149
3 1848.07 1429083
3 1848.62 1415172
3 1848.62 1411117
3 1848.62 1407391
3 1849.16 1406203
3 1849.16 1405758
3 1849.16 1403942
3 1849.16 1397877
3 1849.16 1393235
3 1849.16 1380409
3 1849.16 1380340
3 1850.68 1379709
3 1850.68 1378358
3 1853.13 1373925
3 1853.13 1372109
3 1853.63 1367284
3 1855.73 1366721
3 1859.23 1365547
3 1860.43 1365182
3 1860.43 1364965
3 1862.14 1462998
3 1862.14 1449647
3 1862.14 1448432
3 1862.14 1443276
3 1862.14 1429925
3 1862.14 1412900
3 1862.14 1399813
3 1862.14 1395557
3 1862.79 1389283
3 1862.79 1387840
3 1863.3 1387140
3 1864.27 1386597
3 1864.73 1370713
3 1864.73 1366886
3 1876.3 1542548
3 1876.3 1535469
3 1876.3 1525595
3 1876.3 1520690
3 1876.3 1511011
3 1877.24 1492633
3 1877.24 1488621
3 1877.24 1475875
3 1877.24 1446580
3 1877.24 1442038
3 1877.24 1435659
3 1877.24 1434654
3 1877.24 1430642
3 1877.24 1421619
3 1877.24 1418980
3 1878.18 1416866
3 1878.18 1416683
3 1878.18 1415102
3 1878.18 1413704
3 1878.18 1405327
3 1879.04 1404627
3 1879.04 1396134
3 1879.66 1384004
3 1879.66 1380050
3 1879.66 1379326
3 1879.66 1374088
3 1879.66 1373561
3 1880.4 1372470
3 1881.18 1372026
3 1881.18 1371380
3 1881.67 1366224
3 1890.49 1468625
3 1890.49 1462256
3 1890.49 1461581
3 1890.49 1460881
3 1890.49 1459825
3 1890.49 1453086
3 1890.49 1451377
3 1891.48 1439980
3 1891.48 1439538
3 1891.48 1437334
3 1892.35 1430129
3 1892.35 1426014
3 1892.35 1420672
3 1893.19 1405895
3 1893.19 1404442
3 1893.19 1403971
3 1893.19 1402333
3 1894.08 1401580
3 1894.89 1399470
3 1896.55 1397870
3 1896.55 1391300
3 1897.4 1390579
3 1898.19 1389172
3 1899.01 1386168
3 1899.01 1384425
3 1899.01 1383429
3 1899.01 1382325
3 1904.21 1543046
3 1904.21 1542218
3 1904.21 1533937
3 1904.21 1527909
3 1904.21 1497130
3 1904.21 1478596
3 1904.21 1477479
3 1904.21 1471520
3 1904.21 1470545
3 1904.82 1466013
3 1904.82 1461454
3 1904.82 1455651
3 1904.82 1427523
3 1904.82 1405445
3 1904.82 1401433
3 1904.82 1395408
3 1905.37 1388676
3 1905.37 1388673
3 1905.37 1382908
3 1906 1382593
3 1906.51 1378561
3 1907.21 1376306
3 1907.72 1376098
3 1911.86 1370918
3 1912.33 1369570
3 1913 1368870
3 1913 1366432
3 1916.22 1366224
3 1918.55 1528034
1 1918.55 1523602
3 1918.55 1508213
3 1918.55 1498534
3 1918.55 1497822
3 1918.55 1457226
3 1919.45 1449487
3 1919.45 1435636
3 1919.45 1434571
3 1919.45 1431134
3 1920.3 1425884
3 1920.3 1425722
3 1920.3 1425003
3 1920.3 1422709
3 1920.3 1418902
3 1921.16 1415450
3 1921.96 1409920
3 1922.66 1409220
3 1923.27 1408397
3 1923.27 1403970
3 1923.83 1403920
3 1923.83 1401531
3 1924.85 1400557
3 1925.94 1399104
3 1926.44 1397634
3 1927.84 1395937
3 1928.64 1394615
3 1928.64 1389290
3 1930.32 1389231
3 1932.54 1451777
3 1932.54 1448352
3 1932.54 1446729
3 1932.54 1446477
3 1932.54 1439665
3 1932.54 1438178
3 1933.1 1433273
3 1933.1 1429661
3 1933.1 1428555
3 1933.1 1420493
3 1933.8 1414334
3 1933.8 1411178
3 1933.8 1409842
3 1933.8 1395028
3 1934.66 1394370
3 1934.66 1389214
3 1935.2 1385000
3 1935.2 1384512
3 1935.2 1382694
3 1935.68 1381293
3 1935.68 1376258
3 1938.67 1373457
3 1938.67 1369857
3 1939.23 1369563
3 1939.23 1365249
3 1945.06 1363189
3 1945.06 1363068
3 1946.07 1479095
3 1946.07 1477958
3 1946.07 1469080
3 1946.07 1440858
3 1946.62 1435825
3 1946.62 1430060
3 1946.62 1424591
3 1947.19 1423342
3 1947.19 1420204
3 1947.19 1407031
3 1947.19 1404883
3 1947.19 1400698
3 1947.72 1397802
3 1947.72 1396073
3 1947.72 1393698
3 1948.24 1392402
3 1949.29 1392061
3 1949.29 1391729
3 1949.82 1387551
3 1949.82 1386189
3 1950.32 1383220
3 1952.79 1383012
3 1952.79 1382938
3 1955.25 1382395
3 1960.35 1544244
3 1960.35 1532814
3 1960.35 1505195
3 1960.35 1458206
3 1960.35 1457953
3 1960.35 1451083
3 1960.35 1445073
3 1960.35 1440168
3 1960.35 1437592
3 1960.35 1407497
3 1960.35 1398528
3 1960.35 1398272
3 1960.35 1392507
3 1961.37 1385476
3 1961.37 1382539
3 1961.37 1382187
3 1961.37 1378735
3 1961.37 1373753
3 1962.25 1369312
3 1962.25 1368545
3 1962.86 1368014
3 1962.86 1366736
3 1963.8 1365203
3 1964.55 1362156
3 1965.34 1361207
3 1966.47 1361062
3 1967.27 1360358
3 1967.27 1359409
3 1970.82 1356833
3 1971.83 1354728
3 1972.36 1350805
3 1974.76 1548053
3 1974.76 1535307
3 1974.76 1525865
3 1974.76 1486937
3 1974.76 1482032
3 1974.76 1442275
3 1974.76 1439425
3 1974.76 1428513
3 1975.48 1428152
3 1975.48 1427813
3 1975.48 1409911
3 1975.48 1408162
3 1975.48 1407696
3 1975.48 1388457
3 1975.48 1388347
3 1976.03 1383632
3 1976.03 1381848
3 1976.54 1377035
3 1976.54 1375867
3 1976.54 1375838
3 1977.05 1374143
3 1977.54 1372160
3 1977.54 1367648
3 1978.52 1367176
3 1978.99 1366808
3 1979.47 1364780
3 1979.47 1364680
3 1980.34 1364648
3 1981.53 1363364
3 1981.53 1362664
3 1982.06 1360331
3 1982.06 1360042
3 1982.62 1358547
3 1985.82 1356126
3 1986.71 1355426
3 1988.27 1492001
3 1988.27 1487096
3 1988.27 1481940
3 1988.27 1478199
3 1988.27 1462457
3 1988.27 1444973
3 1989.22 1443263
3 1989.22 1439016
3 1989.22 1433389
3 1989.22 1430149
3 1989.22 1429897
3 1989.22 1418382
3 1990.12 1413315
3 1990.12 1412101
3 1990.12 1412076
3 1990.12 1406826
3 1990.83 1403924
3 1990.83 1398985
3 1991.32 1397944
3 1991.82 1394080
3 1991.82 1391449
3 1991.82 1388871
3 1992.39 1387844
3 1992.85 1385113
3 1992.85 1382843
3 1993.32 1382143
3 1993.96 1373926
3 1993.96 1373872
3 1994.77 1373172
3 1998.66 1373030
3 1999.44 1371191
3 2000.2 1370491
3 2002.48 1502846
3 2002.48 1496565
3 2002.48 1459248
3 2002.48 1452314
3 2002.48 1437217
3 2002.48 1434600
3 2002.48 1429350
3 2002.48 1425103
3 2002.48 1422279
3 2003.47 1412405
3 2003.47 1412305
3 2003.47 1409587
3 2003.47 1409007
3 2004.29 1400414
3 2004.29 1395328
3 2005.07 1385800
3 2005.07 1374255
3 2005.07 1371638
3 2005.61 1370111
3 2007.88 1369889
3 2007.88 1369601
3 2016.09 1479610
3 2016.09 1476287
3 2016.09 1463958
3 2016.09 1463503
3 2016.09 1456334
3 2016.09 1454455
3 2016.09 1454008
3 2017.14 1436757
3 2017.14 1423714
3 2017.14 1422747
3 2017.14 1409593
3 2018.02 1408871
3 2018.02 1406002
3 2018.85 1404620
3 2018.85 1402753
3 2018.85 1396344
3 2019.43 1392961
3 2019.43 1390544
3 2019.43 1388771
3 2019.43 1382355
3 2020.03 1381655
3 2020.52 1379303
3 2020.52 1378807
3 2021.5 1373436
3 2021.5 1372713
3 2022.07 1368701
3 2022.55 1367598
3 2025.46 1367405
3 2030.09 1517038
3 2030.09 1508502
3 2030.09 1496701
3 2030.09 1494747
3 2030.09 1493928
3 2030.09 1470616
3 2030.09 1456471
3 2030.09 1452459
3 2030.71 1434929
3 2030.71 1434167
3 2031.47 1433754
3 2031.47 1424785
3 2032.34 1421166
3 2032.34 1416662
3 2032.34 1410478
3 2033.18 1409732
3 2034.07 1404767
3 2034.07 1404377
3 2034.07 1404067
3 2034.92 1402826
3 2034.92 1401850
3 2035.46 1400839
3 2035.46 1399175
3 2035.95 1398175
3 2037.29 1397703
3 2040.28 1394694
3 2044.38 1461744
3 2044.38 1457819
3 2044.38 1449772
3 2044.38 1447540
3 2044.38 1424416
3 2044.38 1420703
3 2044.38 1420556
3 2045.02 1419303
3 2045.02 1414047
3 2045.02 1413016
3 2045.02 1408428
3 2045.02 1404010
3 2045.02 1400557
3 2045.02 1394567
3 2045.73 1390824
3 2045.73 1388057
3 2045.73 1386366
3 2046.38 1385722
3 2051.24 1384708
3 2052.05 1381845
3 2052.05 1381540
3 2052.05 1380533
3 2052.05 1379607
3 2052.05 1373762
3 2052.05 1372014
3 2052.95 1370591
3 2052.95 1367439
3 2052.95 1366280
3 2052.95 1366258
3 2052.95 1365781
3 2052.95 1365103
3 2053.84 1364756
3 2053.84 1360807
3 2053.84 1360288
3 2054.68 1359961
3 2054.68 1358142
3 2056.23 1356446
3 2056.88 1354789
3 2056.88 1354089
3 2057.35 1352567
3 2057.91 1351976
3 2057.91 1344980
3 2057.91 1343424
3 2057.91 1342882
3 2057.91 1341741
3 2057.91 1341586
3 2058.5 1466132
3 2058.5 1462720
3 2058.5 1437910
3 2058.5 1435666
3 2058.5 1431325
3 2058.5 1425736
3 2058.5 1414738
3 2059.32 1412445
3 2059.32 1411652
3 2059.32 1405165
3 2060.19 1404976
3 2060.19 1401973
3 2060.19 1393829
3 2060.19 1393790
3 2061.05 1392055
3 2061.05 1388744
3 2061.05 1387689
3 2061.05 1385631
3 2063.14 1385009
3 2064.14 1384406
3 2065.12 1384358
3 2065.6 1383207
3 2067.09 1382886
3 2068.08 1381166
3 2068.56 1379108
3 2072.15 1595537
3 2072.15 1589737
3 2072.15 1577223
3 2072.15 1572318
3 2072.15 1563984
3 2072.15 1537967
3 2072.15 1532551
3 2072.15 1504423
3 2072.15 1464448
3 2072.15 1453819
3 2072.15 1444874
3 2072.15 1434509
3 2073.13 1431701
3 2073.13 1422826
3 2073.13 1422051
3 2073.13 1421351
3 2073.72 1415909
3 2073.72 1412382
3 2073.72 1396544
3 2073.72 1395797
3 2073.72 1390884
3 2073.72 1390661
3 2074.31 1390205
3 2074.31 1389962
3 2074.31 1378548
3 2076.89 1370592
3 2078.06 1366324
3 2079.25 1365624
3 2081.63 1364384
3 2081.63 1363719
3 2081.63 1363540
3 2081.63 1362704
3 2081.63 1362449
3 2086.29 1596660
3 2086.29 1578072
3 2086.29 1571855
3 2086.29 1560534
1 2086.29 1539941
3 2086.29 1533931
3 2086.29 1493699
3 2086.29 1479195
3 2087.03 1450347
3 2087.03 1447164
3 2087.03 1443852
3 2087.03 1440963
3 2087.03 1434598
3 2087.03 1427434
3 2087.03 1422784
3 2087.03 1422260
3 2087.03 1419847
3 2087.03 1417472
3 2087.03 1403478
3 2087.03 1401121
3 2087.76 1398228
3 2087.76 1397903
3 2087.76 1395071
3 2088.47 1394712
3 2088.47 1394012
3 2088.47 1390125
3 2088.47 1384486
3 2089.03 1378902
3 2089.03 1378388
3 2089.86 1377455
3 2089.86 1375353
3 2089.86 1374825
3 2089.86 1373917
3 2089.86 1372218
3 2089.86 1369804
3 2090.68 1369599
3 2091.13 1369591
3 2094.66 1367498
3 2094.66 1367378
3 2095.98 1366335
3 2096.78 1365009
3 2096.78 1364429
3 2100.53 1506281
3 2100.53 1472503
3 2100.53 1464804
3 2100.53 1463856
3 2101.1 1443737
3 2101.1 1442467
3 2101.1 1438708
3 2102.24 1437412
3 2102.85 1435762
3 2102.85 1435291
3 2102.85 1434407
3 2102.85 1433016
3 2103.74 1426235
3 2103.74 1422527
3 2104.6 1418766
3 2104.6 1415455
3 2105.49 1407225
3 2105.49 1406873
3 2106.21 1401108
3 2106.21 1401049
3 2114.04 1547864
3 2114.04 1510492
3 2114.04 1495395
3 2114.04 1465292
3 2114.04 1458930
3 2114.04 1447024
3 2114.04 1443465
3 2114.04 1439453
3 2114.04 1426317
3 2114.04 1426016
3 2115.01 1423901
3 2115.01 1420441
3 2115.01 1419145
3 2115.01 1417055
3 2115.01 1415955
3 2115.89 1405317
3 2115.89 1404386
3 2115.89 1404101
3 2116.72 1402805
3 2117.55 1398591
3 2117.55 1397138
3 2117.55 1395728
3 2117.55 1391573
3 2117.55 1390873
3 2118.42 1386972
3 2119.23 1383926
3 2119.23 1383226
3 2119.23 1380638
3 2119.23 1380392
3 2120.07 1377967
3 2120.07 1375363
3 2120.07 1372717
3 2122.91 1369662
3 2124.55 1369426
3 2124.55 1368661
3 2125.11 1367191
3 2125.58 1366491
3 2126.2 1363932
3 2126.2 1362636
3 2126.77 1361272
3 2127.84 1360572
3 2128.34 1543885
3 2128.34 1517868
3 2128.34 1501060
3 2128.34 1486181
3 2128.34 1485929
3 2128.34 1484864
3 2128.95 1472118
3 2128.95 1466353
3 2128.95 1456133
3 2128.95 1444602
3 2128.95 1441892
3 2128.95 1435791
3 2129.56 1427496
3 2129.56 1423686
3 2129.56 1417126
3 2129.56 1411970
3 2129.56 1409225
3 2129.56 1405379
3 2129.56 1403787
3 2130.45 1402057
3 2132.06 1400967
3 2132.06 1399241
3 2132.87 1397282
3 2134.15 1394911
3 2134.62 1391640
3 2135.57 1380745
3 2135.57 1380014
3 2136.05 1379289
3 2138.92 1377963
3 2139.44 1377755
3 2142.32 1460543
3 2142.32 1440424
3 2142.32 1434414
3 2142.32 1431806
3 2142.32 1426257
3 2142.32 1422524
3 2143.26 1416759
3 2143.26 1415486
3 2143.26 1409778
3 2144.13 1406376
3 2144.13 1405169
3 2144.13 1404528
3 2144.13 1400516
3 2144.13 1397939
3 2144.13 1393741
3 2144.13 1393489
3 2145.11 1393041
3 2146.08 1385404
3 2146.68 1383026
3 2146.68 1381332
3 2146.68 1381040
3 2146.68 1380937
3 2146.68 1378837
3 2147.26 1376519
3 2149.1 1374855
3 2149.94 1368640
3 2149.94 1368122
3 2149.94 1367138
3 2149.94 1364973
3 2150.77 1361511
3 2150.77 1361210
3 2151.33 1360260
3 2151.33 1357198
3 2151.33 1356374
3 2152.66 1353461
3 2152.66 1352761
3 2153.25 1352449
3 2153.25 1352173
3 2153.25 1350375
3 2156.79 1475220
3 2156.79 1469798
3 2156.79 1467870
3 2156.79 1462393
3 2156.79 1454911
3 2156.79 1448219
3 2156.79 1442969
3 2157.72 1433532
3 2157.72 1431627
3 2157.72 1424914
3 2157.72 1423155
3 2158.45 1417518
3 2158.96 1417392
3 2158.96 1414995
3 2159.46 1412120
3 2159.46 1410854
3 2159.46 1409079
3 2159.97 1407844
3 2159.97 1402473
3 2163.53 1398294
3 2163.53 1396313
3 2163.53 1395773
3 2163.53 1390942
3 2164.82 1390617
3 2166.4 1390056
3 2167.99 1389105
3 2170.16 1508117
3 2170.16 1503212
3 2170.16 1486404
3 2170.16 1485524
3 2170.16 1470414
3 2170.16 1468876
3 2170.16 1462381
3 2170.82 1452520
3 2170.82 1449559
3 2170.82 1441110
3 2170.82 1425792
3 2170.82 1420827
3 2170.82 1417539
3 2171.73 1414799
3 2171.73 1414142
3 2172.55 1411722
3 2172.55 1409080
3 2173.27 1409037
3 2173.27 1408811
3 2173.27 1404766
3 2173.27 1404555
3 2173.9 1403994
3 2173.9 1403571
3 2173.9 1401894
3 2173.9 1398204
3 2173.9 1398032
3 2173.9 1396489
3 2174.46 1393342
3 2174.46 1389145
3 2174.46 1386282
3 2174.46 1385924
3 2174.46 1381533
3 2175 1379848
3 2175 1378108
3 2175 1377624
3 2176.07 1374983
3 2176.07 1371129
3 2177.1 1369612
3 2177.1 1367016
3 2177.63 1366316
3 2177.63 1366224
3 2184.24 1446603
3 2184.24 1436784
3 2184.24 1433797
3 2184.24 1432222
3 2184.24 1422124
3 2184.86 1418279
3 2184.86 1416114
3 2185.69 1410013
3 2186.55 1408991
3 2186.55 1406938
3 2187.12 1399320
3 2187.12 1397221
3 2187.12 1394963
3 2187.12 1393198
3 2187.12 1390715
3 2187.12 1386877
3 2189.56 1386206
3 2189.56 1383868
3 2190.06 1382595
3 2190.54 1380105
3 2190.54 1377969
3 2192.03 1377489
3 2193 1373270
3 2193 1368520
3 2195.9 1368375
3 2198.24 1495809
3 2198.24 1479239
3 2198.24 1470618
3 2198.24 1452526
3 2198.24 1448514
3 2198.24 1442046
3 2198.91 1432334
3 2198.91 1418115
3 2198.91 1417783
3 2199.78 1410206
3 2199.78 1406244
3 2199.78 1405227
3 2199.78 1402438
3 2201.48 1398815
3 2201.48 1396410
3 2202.36 1395722
3 2202.36 1392761
3 2203.09 1392183
3 2203.73 1391483
3 2205.52 1389359
3 2212.41 1491669
3 2212.41 1488622
3 2212.41 1482594
3 2212.41 1462943
3 2212.41 1458888
3 2212.41 1455950
3 2212.41 1452682
3 2213.12 1451427
3 2213.73 1449385
3 2213.73 1446576
3 2214.26 1445876
3 2214.26 1445660
3 2214.26 1439957
3 2214.26 1437757
3 2214.26 1433655
3 2214.8 1432319
3 2215.8 1431401
3 2215.8 1427069
3 2217.28 1422757
3 2217.28 1417494
3 2218.11 1414355
3 2218.11 1407593
3 2218.98 1407446
3 2226.09 1516434
3 2226.09 1499626
3 2226.09 1460698
3 2226.09 1445588
3 2226.09 1440683
3 2226.09 1439904
3 2226.09 1433932
3 2226.84 1430384
3 2226.84 1424543
3 2226.84 1420289
3 2227.68 1416521
3 2228.54 1416146
3 2228.54 1411645
3 2228.54 1406489
3 2228.54 1405789
3 2228.54 1402838
3 2229.22 1399959
3 2229.22 1390328
3 2229.22 1387213
3 2229.81 1380883
3 2230.29 1378102
3 2231.25 1377147
3 2231.25 1375454
3 2231.25 1372757
3 2236.24 1371119
3 2237.87 1370521
3 2238.54 1369028
3 2240.58 1505657
3 2240.58 1499365
3 2240.58 1482958
3 2240.58 1477528
3 2240.58 1477276
3 2240.58 1467351
3 2240.58 1461070
3 2240.58 1459102
3 2240.58 1455939
3 2240.58 1452487
3 2240.58 1447541
3 2241.33 1446935
3 2241.33 1431020
3 2241.33 1425516
3 2241.33 1421386
3 2241.33 1421312
3 2241.9 1410126
3 2242.88 1404886
3 2242.88 1393375
3 2243.39 1389677
3 2243.39 1389487
3 2243.39 1386192
3 2243.39 1384385
3 2243.97 1381434
3 2247.07 1380792
3 2249.68 1374259
3 2252 1374069
3 2254.4 1546742
3 2254.4 1538165
3 2254.4 1499255
3 2254.4 1473238
3 2254.4 1463364
3 2254.4 1455122
3 2255.09 1454369
3 2255.09 1449284
3 2255.09 1447243
3 2255.09 1441993
3 2255.09 1441730
3 2255.09 1439640
3 2255.89 1436914
3 2256.46 1434992
3 2256.46 1432778
3 2256.46 1427770
3 2256.46 1423047
3 2257.08 1417023
3 2257.08 1411783
3 2257.08 1410011
3 2257.08 1393652
3 2257.08 1392952
3 2257.08 1391087
3 2257.84 1389613
3 2257.84 1388842
3 2257.84 1385504
3 2257.84 1383662
3 2257.84 1383140
3 2258.35 1382668
3 2258.87 1374956
3 2258.87 1374732
3 2258.87 1370938
3 2258.87 1370809
3 2259.4 1369217
3 2259.4 1367572
3 2259.4 1367217
3 2259.89 1364494
3 2259.89 1364373
3 2260.4 1363140
3 2268.6 1474462
3 2268.6 1461083
3 2268.6 1459029
3 2268.6 1451009
3 2268.6 1445166
3 2269.51 1438520
3 2270.19 1438280
3 2270.19 1432425
3 2270.19 1431129
3 2270.19 1426166
3 2270.74 1426119
3 2270.74 1424995
3 2270.74 1416798
3 2270.74 1410770
3 2271.61 1405170
3 2281.47 1404007
3 2282.35 1490207
3 2282.35 1477343
3 2282.35 1473611
3 2282.35 1452199
3 2282.35 1448970
3 2282.35 1447784
3 2282.35 1443774
3 2282.35 1428677
3 2283.3 1408558
3 2283.3 1406984
3 2283.3 1400956
3 2283.3 1400872
3 2284.18 1393147
3 2284.18 1389135
3 2284.18 1388960
3 2285.11 1387119
3 2285.11 1383498
3 2286.77 1375249
3 2286.77 1375224
3 2287.58 1374938
3 2289.91 1373537
3 2290.41 1373402
3 2293.74 1368166
3 2293.74 1367798
3 2296.58 1559456
3 2296.58 1545000
3 2296.58 1544300
3 2296.58 1539710
3 2296.58 1529836
3 2296.58 1527893
3 2296.58 1511931
3 2297.3 1496466
3 2297.3 1494336
3 2297.3 1487511
3 2297.3 1467876
3 2297.3 1463186
3 2297.3 1461395
3 2298.08 1446298
3 2298.08 1446150
3 2298.08 1442698
3 2298.84 1433510
3 2298.84 1423636
3 2298.84 1418731
3 2298.84 1415747
3 2299.36 1413479
3 2299.36 1394932
3 2300.32 1394528
3 2300.32 1390448
3 2300.32 1389379
3 2300.91 1385442
3 2300.91 1385256
3 2303.94 1385048
3 2304.43 1384747
3 2304.43 1381081
3 2304.43 1379476
3 2305.01 1379376
3 2306.57 1374184
3 2307.08 1370640
3 2307.08 1370407
3 2307.08 1368414
3 2310.47 1472062
3 2310.47 1466822
3 2310.47 1460721
3 2310.47 1455704
3 2311.05 1449939
3 2311.05 1449927
3 2311.05 1445353
3 2311.05 1441619
3 2311.05 1441126
3 2311.61 1436714
3 2311.61 1431041
3 2311.61 1426670
3 2311.61 1424145
3 2312.14 1413921
3 2312.14 1413245
3 2312.14 1411755
3 2312.14 1409633
3 2312.65 1408068
3 2312.65 1405868
3 2312.65 1405733
3 2312.65 1398632
3 2312.65 1398218
3 2314.18 1396643
3 2314.69 1396557
3 2314.69 1391393
3 2314.69 1389781
3 2314.69 1388530
3 2316.14 1387920
3 2324.29 1465891
3 2324.29 1458487
3 2324.29 1457188
3 2324.29 1448052
3 2324.29 1442004
3 2324.29 1432590
3 2324.29 1430014
3 2324.29 1427151
3 2324.29 1427107
3 2325.43 1427076
3 2325.43 1424200
3 2325.43 1421256
3 2325.43 1411577
3 2326.6 1399605
3 2326.6 1395479
3 2327.37 1394636
3 2327.37 1391390
3 2328.31 1388817
3 2329.12 1387418
3 2329.94 1382513
3 2330.74 1379956
3 2330.74 1379181
3 2330.74 1375471
3 2330.74 1374698
3 2330.74 1373750
3 2330.74 1373733
3 2330.74 1372564
3 2334.82 1372263
3 2338.44 1500241
3 2338.44 1496681
3 2338.44 1429521
3 2338.44 1421480
3 2338.44 1415544
3 2338.44 1409182
3 2339.05 1408049
3 2339.05 1407627
3 2339.05 1393484
3 2339.05 1383863
3 2339.05 1380475
3 2339.05 1374938
3 2339.67 1372109
3 2339.67 1369842
3 2339.67 1368758
3 2339.67 1368640
3 2339.67 1368039
3 2339.67 1365895
3 2339.67 1365653
3 2339.67 1362302
3 2340.41 1359955
3 2340.41 1357811
3 2342.03 1356489
3 2342.69 1355116
3 2342.69 1353067
3 2342.69 1353025
3 2343.19 1352174
3 2345.86 1352081
3 2348.44 1351154
3 2349.45 1346548
3 2352.65 1564351
3 2352.65 1525423
3 2352.65 1522132
3 2352.65 1512617
3 2352.65 1511655
3 2352.65 1506284
3 2352.65 1478156
3 2352.65 1476119
3 2353.62 1464588
3 2353.62 1459405
3 2353.62 1442152
3 2353.62 1441520
3 2353.62 1438132
3 2353.62 1421725
3 2353.62 1421025
3 2353.62 1419494
3 2353.62 1417802
3 2354.56 1415482
3 2354.56 1414997
3 2354.56 1410577
3 2354.56 1409626
3 2354.56 1406996
3 2356.29 1405490
3 2356.29 1400334
3 2356.29 1400303
3 2357.12 1396961
3 2357.12 1393898
3 2357.12 1392949
3 2359.05 1389186
3 2359.05 1386939
3 2360.47 1386926
3 2360.95 1384913
3 2360.95 1380599
3 2361.69 1378915
3 2362.43 1378496
3 2362.43 1377663
3 2362.43 1375777
3 2363.09 1375424
3 2366.74 1485843
3 2366.74 1485143
3 2366.74 1463816
3 2366.74 1459804
3 2366.74 1453309
3 2366.74 1445261
3 2366.74 1444009
3 2366.74 1438476
3 2367.56 1433226
3 2367.56 1421919
3 2367.56 1416150
3 2368.07 1412418
3 2368.56 1381580
3 2368.56 1380824
3 2369.05 1379894
3 2369.05 1377983
3 2369.05 1377264
3 2369.05 1374787
3 2369.05 1369982
3 2369.05 1367405
3 2369.87 1361813
3 2369.87 1357287
3 2369.87 1355731
3 2369.87 1354629
3 2369.87 1350569
3 2369.87 1350432
3 2371.04 1350375
3 2371.78 1346517
3 2373.3 1344907
3 2373.3 1343848
3 2380.36 1458527
3 2380.36 1458342
3 2380.36 1450229
3 2380.36 1449852
3 2380.36 1427767
3 2380.92 1426834
3 2380.92 1423781
3 2380.92 1418889
3 2381.59 1418624
3 2381.59 1412512
3 2381.59 1412025
3 2381.59 1406502
3 2381.59 1405809
3 2381.59 1393063
3 2382.33 1392363
3 2382.33 1390009
3 2382.33 1389898
3 2382.33 1389198
3 2382.33 1385018
3 2382.86 1383813
3 2382.86 1378006
3 2382.86 1377306
3 2383.37 1377294
3 2383.37 1374071
3 2383.89 1370323
3 2383.89 1369623
3 2383.89 1369371
3 2385.96 1368138
3 2389.79 1366690
3 2390.3 1365994
3 2390.3 1365133
3 2390.3 1363140
3 2394.36 1507409
3 2394.36 1506113
3 2394.36 1486857
3 2394.36 1467206
3 2394.99 1461676
3 2394.99 1461561
3 2394.99 1452936
3 2394.99 1452592
3 2394.99 1449296
3 2394.99 1447120
3 2394.99 1443292
3 2394.99 1422913
3 2394.99 1414340
3 2395.66 1409885
3 2395.66 1409185
3 2395.66 1406697
3 2395.66 1401451
3 2408.17 1592245
3 2408.17 1587089
3 2408.17 1584201
3 2408.17 1558184
3 2408.17 1548310
3 2408.17 1537756
3 2408.17 1514532
3 2408.17 1499182
3 2408.17 1498840
3 2408.17 1484384
3 2408.17 1471485
3 2408.17 1470785
3 2408.17 1467860
3 2409.24 1463147
3 2410.06 1461373
3 2410.06 1449115
3 2410.06 1448627
3 2410.06 1432641
3 2410.06 1426826
3 2410.06 1421455
3 2410.06 1420499
3 2410.06 1410209
3 2410.98 1409609
3 2412.41 1402465
3 2412.41 1400386
3 2412.91 1397560
3 2412.91 1393992
3 2413.39 1390188
3 2413.39 1389624
3 2413.39 1388983
3 2413.93 1386990
3 2415.33 1386722
3 2415.33 1386097
3 2415.33 1380457
3 2418.86 1380379
3 2419.52 1377345
3 2419.52 1376645
3 2421.26 1376535
3 2422.34 1497061
3 2422.34 1491811
3 2422.34 1477900
3 2422.34 1477200
3 2422.34 1472961
3 2422.34 1471323
3 2422.34 1468339
3 2422.34 1456917
3 2422.34 1455533
3 2422.34 1451809
3 2423.33 1451801
3 2423.33 1448736
3 2423.33 1437871
3 2423.33 1434504
3 2423.33 1430396
3 2423.33 1427993
3 2424.3 1420051
3 2424.3 1406626
3 2425.14 1405152
3 2425.14 1399480
3 2425.14 1398562
3 2426.01 1398405
3 2426.01 1393031
3 2427.61 1392486
3 2427.61 1390284
3 2427.61 1386316
3 2427.61 1382357
3 2428.46 1381714
3 2428.46 1380768
3 2436.1 1465661
1 2436.1 1463574
3 2436.1 1444697
3 2436.9 1431127
3 2436.9 1425052
3 2436.9 1412032
3 2437.73 1409579
3 2437.73 1409474
3 2437.73 1409280
3 2437.73 1408666
3 2437.73 1408035
3 2437.73 1399862
3 2438.64 1399630
3 2439.45 1398121
3 2439.45 1396122
3 2439.45 1394052
3 2439.45 1392702
3 2439.45 1391221
3 2440.68 1385998
3 2440.68 1382885
3 2442.32 1381589
3 2444.7 1376989
3 2445.5 1374875
3 2450.09 1510778
3 2450.09 1500666
3 2450.09 1483234
3 2450.09 1477247
3 2450.09 1474876
3 2450.09 1470974
3 2450.09 1464996
3 2450.09 1462794
3 2450.09 1452920
3 2450.09 1448015
3 2450.09 1447749
3 2450.09 1444003
3 2451.22 1443398
3 2451.87 1442458
3 2451.87 1435041
3 2451.87 1425244
3 2451.87 1423474
3 2451.87 1415146
3 2451.87 1412435
3 2452.51 1407185
3 2453.45 1405461
3 2453.45 1401449
3 2453.97 1401356
3 2453.97 1396343
3 2454.46 1395739
3 2455.1 1394859
3 2455.1 1391775
3 2455.1 1391742
3 2455.1 1391333
3 2456.83 1388402
3 2458.32 1381701
3 2458.84 1378007
3 2459.32 1376670
3 2459.32 1374489
3 2459.82 1373789
3 2461.76 1373568
3 2464.1 1528621
3 2464.1 1522593
3 2464.1 1519730
3 2464.1 1519727
3 2464.1 1509142
3 2464.1 1499234
3 2464.1 1486070
3 2464.1 1483357
3 2464.81 1481643
3 2464.81 1473047
3 2464.81 1469571
3 2464.81 1463322
3 2464.81 1461101
3 2464.81 1461081
3 2465.39 1455316
3 2465.39 1448779
3 2465.39 1445608
3 2465.39 1427516
3 2465.39 1426816
3 2465.39 1412288
3 2465.99 1411150
3 2465.99 1409497
3 2466.52 1402865
3 2466.52 1402014
3 2466.52 1401558
3 2467.99 1400814
3 2468.49 1400765
3 2478.67 1552469
3 2478.67 1545966
3 2478.67 1532200
3 2478.67 1526088
3 2478.67 1520323
3 2478.67 1503753
3 2478.67 1503053
3 2478.67 1489628
3 2478.67 1475172
3 2479.3 1470019
3 2479.3 1455753
3 2479.3 1447300
3 2479.3 1447052
3 2479.84 1446157
3 2479.84 1443796
3 2479.84 1434117
3 2480.6 1424043
3 2480.6 1421987
3 2480.6 1421487
3 2480.6 1402557
3 2480.6 1401970
3 2484.7 1400675
3 2485.51 1399818
3 2485.51 1399705
3 2490.8 1395281
3 2490.8 1393695
3 2492.3 1469402
3 2492.3 1464503
3 2492.3 1455831
3 2492.3 1449753
3 2493.19 1444630
3 2493.19 1444503
3 2493.19 1443382
3 2493.19 1440984
3 2493.19 1438477
3 2494.11 1430674
3 2494.11 1420995
1 2494.94 1420515
3 2494.94 1419699
3 2496.05 1401639
3 2496.05 1399086
3 2496.05 1390039
3 2497.04 1388179
3 2498.69 1386205
3 2498.69 1384266
3 2498.69 1382467
3 2499.54 1381767
3 2501.15 1380229
3 2506.42 1428892
3 2506.42 1408676
3 2506.42 1408198
3 2506.42 1395001
3 2506.42 1375348
3 2507.52 1374874
3 2508.43 1372818
3 2508.43 1371240
3 2508.43 1366335
3 2508.43 1359958
3 2508.43 1353916
3 2508.93 1352921
3 2509.53 1349606
3 2509.53 1345728
3 2510.34 1343912
3 2511.13 1340637
3 2515.33 1337319
3 2515.33 1336393
3 2515.8 1335836
3 2515.8 1335835
3 2519.65 1335629
3 2520.13 1587377
3 2520.13 1554292
3 2520.13 1542630
3 2520.13 1527743
3 2520.13 1515806
3 2520.13 1508360
3 2520.13 1499391
3 2520.13 1497867
3 2520.13 1493796
3 2520.13 1483242
3 2520.13 1481303
3 2520.81 1478963
3 2520.81 1477332
3 2520.81 1472935
3 2520.81 1467704
3 2520.81 1461570
3 2520.81 1445649
3 2521.42 1445148
3 2521.42 1437116
3 2521.42 1426648
3 2521.98 1419534
3 2521.98 1415799
3 2521.98 1413524
3 2522.57 1406659
3 2522.57 1396716
3 2522.57 1393741
3 2528.01 1393623
3 2528.01 1392099
3 2528.01 1390897
3 2528.01 1390823
3 2528.01 1390116
3 2529.01 1385122
3 2531.47 1384694
3 2533.9 1383488
3 2534.4 1461417
3 2534.4 1456420
3 2534.4 1450392
3 2534.4 1448256
3 2534.4 1444401
3 2534.4 1443326
3 2534.4 1424919
3 2534.4 1414943
3 2534.4 1414824
3 2534.4 1412367
3 2535.01 1411667
3 2535.01 1411624
3 2536.55 1405859
3 2536.55 1403743
3 2536.55 1403581
3 2536.55 1402573
3 2537.23 1394931
3 2537.23 1390120
1 2538.89 1384838
3 2538.89 1384058
3 2539.72 1381493
3 2539.72 1378293
3 2540.55 1377959
3 2541.39 1376977
3 2542.24 1371773
3 2542.24 1370887
3 2542.24 1369448
3 2543.96 1368625
3 2544.43 1368535
3 2544.43 1366855
3 2547.2 1364613
3 2548.24 1529092
3 2548.24 1510493
3 2548.24 1510451
3 2548.24 1494766
3 2548.24 1489861
3 2548.24 1487907
3 2548.24 1478162
3 2548.24 1469525
3 2548.24 1463760
3 2548.24 1446952
3 2549.2 1436148
3 2549.2 1425553
3 2549.2 1410470
3 2549.2 1402842
3 2549.2 1400334
3 2549.87 1399655
3 2549.87 1397866
3 2549.87 1397166
3 2549.87 1395794
3 2550.38 1393513
3 2550.38 1392112
3 2550.88 1390330
3 2550.88 1389557
3 2550.88 1388742
3 2550.88 1386261
3 2551.7 1384201
3 2552.49 1382795
3 2552.49 1382095
3 2552.49 1377706
3 2557.38 1364791
3 2560.26 1364281
3 2562.09 1499892
3 2562.09 1490018
3 2562.09 1485113
3 2562.09 1472446
3 2562.09 1462604
3 2562.09 1462144
3 2562.09 1461594
3 2562.09 1456687
3 2562.74 1454175
3 2562.74 1447680
3 2562.74 1446478
3 2562.74 1446098
3 2562.74 1431780
3 2562.74 1421750
3 2563.3 1418175
3 2563.3 1417796
3 2563.3 1417639
3 2563.3 1413701
3 2563.3 1405776
3 2563.3 1397455
3 2563.3 1396737
3 2563.88 1391555
3 2563.88 1388672
3 2563.88 1385891
3 2563.88 1385454
3 2563.88 1383481
3 2566.18 1382149
3 2566.18 1381449
3 2568.06 1380125
3 2569.18 1379635
3 2569.18 1378897
3 2570.76 1378594
3 2572.12 1376090
3 2574.04 1374097
3 2576.66 1561769
3 2576.66 1545089
3 2576.66 1532592
3 2576.66 1531660
3 2576.66 1526755
3 2576.66 1517252
3 2576.66 1515617
3 2577.57 1510461
3 2577.57 1507669
1 2577.57 1507360
3 2577.57 1507170
3 2577.57 1496659
3 2577.57 1496011
3 2577.57 1483290
3 2578.41 1469808
3 2578.41 1455470
3 2578.41 1448975
3 2578.41 1445242
3 2578.41 1441230
3 2579.17 1439713
3 2579.17 1436430
3 2579.17 1435519
3 2579.17 1433598
3 2579.17 1431135
3 2579.17 1428062
3 2579.17 1424610
3 2579.17 1422303
3 2579.17 1417239
3 2580.19 1415151
3 2580.19 1410744
3 2581.1 1409747
3 2581.1 1408273
3 2581.79 1408197
3 2582.34 1406081
3 2582.34 1403071
3 2582.34 1398411
3 2583.32 1398203
3 2583.8 1397980
3 2583.8 1395626
3 2584.54 1394978
3 2585.35 1393828
3 2585.35 1393657
3 2585.35 1391708
3 2589.03 1391105
3 2589.03 1383710
3 2589.85 1381441
3 2590.63 1495694
3 2590.63 1489631
3 2590.63 1487953
3 2590.63 1482797
3 2590.63 1480864
3 2590.63 1472514
3 2590.63 1469542
3 2591.41 1441488
3 2591.99 1438067
3 2591.99 1436651
3 2591.99 1431283
3 2591.99 1429960
3 2591.99 1426483
3 2591.99 1411381
3 2592.81 1411206
3 2592.81 1405553
3 2594.46 1405126
3 2595.02 1401304
3 2595.02 1400604
3 2595.02 1399866
3 2595.68 1396855
3 2595.68 1393491
3 2595.68 1390233
3 2595.68 1389888
3 2597.34 1389635
3 2600.54 1387607
3 2600.54 1385689
3 2600.54 1382301
3 2601.91 1381169
3 2602.7 1378624
3 2604.11 1487319
3 2604.11 1486619
3 2604.11 1482565
3 2604.11 1454137
3 2604.11 1440510
3 2604.11 1440205
3 2604.11 1437720
3 2604.11 1419265
3 2604.11 1416548
3 2604.11 1413380
3 2604.11 1412680
3 2604.92 1409583
3 2604.92 1403444
3 2604.92 1398539
3 2604.92 1394657
3 2605.78 1391418
3 2605.78 1380926
3 2605.78 1380731
3 2605.78 1380112
3 2606.61 1378814
3 2606.61 1377216
3 2607.42 1376076
3 2607.42 1375429
3 2608.22 1374689
3 2608.22 1373463
3 2609.8 1369401
3 2610.46 1368041
3 2610.98 1366520
3 2611.65 1364586
3 2612.27 1361820
3 2612.27 1360932
3 2612.93 1360641
3 2612.93 1360298
3 2613.75 1357774
3 2613.75 1357329
3 2615.38 1357177
3 2617.07 1356629
3 2618.01 1452438
3 2618.01 1450915
3 2618.01 1439692
3 2618.01 1437046
3 2618.01 1436367
3 2618.01 1433843
3 2618.01 1425553
3 2618.01 1422206
3 2618.01 1419559
3 2618.79 1419525
3 2618.79 1414654
3 2619.29 1413433
3 2619.29 1409418
3 2619.29 1408297
3 2620.04 1404513
3 2620.04 1400989
3 2620.04 1395918
3 2620.04 1394754
3 2620.93 1390734
3 2620.93 1389438
3 2620.93 1388674
3 2621.85 1387909
3 2621.85 1387273
3 2621.85 1387030
3 2621.85 1383316
3 2623.49 1381196
3 2623.49 1373258
3 2625.13 1372591
3 2625.87 1371962
3 2625.87 1369519
3 2625.87 1368450
3 2630.58 1367379
3 2631.37 1364516
3 2631.37 1363857
3 2631.89 1363732
3 2631.89 1362620
3 2631.89 1361920
3 2631.89 1360626
3 2632.41 1526785
3 2632.41 1525049
3 2632.41 1511353
3 2632.41 1498607
3 2632.41 1481799
3 2632.41 1472830
3 2632.41 1470837
3 2632.41 1467460
3 2632.41 1454831
3 2632.41 1449581
3 2632.41 1433174
3 2632.41 1423300
3 2633.05 1417257
3 2633.05 1413805
3 2633.05 1399232
3 2633.05 1394327
3 2633.05 1393823
3 2633.05 1387722
3 2633.64 1380978
3 2633.64 1376073
3 2634.65 1372203
3 2634.65 1371390
3 2634.65 1369637
3 2635.15 1364914
3 2635.15 1364214
3 2636.9 1362025
3 2636.9 1362006
3 2642.55 1361660
3 2644.14 1360364
3 2646.53 1558386
3 2646.53 1551946
3 2646.53 1549923
3 2646.53 1528746
3 2646.53 1525294
3 2646.53 1520460
3 2646.53 1504995
3 2646.53 1497525
3 2646.53 1485032
3 2647.14 1482526
3 2647.14 1469780
3 2647.64 1452617
3 2647.64 1447712
3 2647.64 1439672
3 2647.64 1437504
3 2648.17 1434524
3 2648.17 1430848
3 2648.17 1425303
3 2648.17 1421472
3 2648.17 1419236
3 2648.17 1417870
3 2649.16 1417817
3 2649.16 1417455
3 2650.04 1415730
3 2650.04 1415289
3 2650.04 1413996
3 2651.15 1412987
3 2651.15 1412828
3 2651.15 1408736
3 2651.15 1407950
3 2651.15 1407737
3 2654.22 1407595
3 2655.05 1407017
3 2656.72 1406110
3 2660.09 1556197
3 2660.09 1538831
3 2660.09 1526085
3 2660.09 1520320
3 2660.09 1505338
3 2660.09 1493942
3 2660.09 1485447
3 2660.09 1466855
3 2660.09 1457008
3 2661.05 1443835
3 2661.05 1441609
3 2661.05 1441180
3 2661.73 1436275
3 2661.73 1432137
3 2662.24 1431337
3 2662.74 1426136
3 2662.74 1424842
3 2663.27 1421382
3 2663.27 1420662
3 2663.27 1411573
3 2663.27 1407995
3 2663.79 1399044
3 2663.79 1396104
3 2663.79 1395684
3 2663.79 1395464
3 2663.79 1394278
3 2663.79 1393664
3 2664.41 1392866
3 2664.41 1392742
3 2665 1388059
3 2665.56 1387566
3 2674.21 1510485
3 2674.21 1502096
3 2674.21 1489785
3 2674.21 1479911
3 2674.21 1440983
3 2674.21 1432545
3 2674.21 1429886
3 2674.21 1429452
3 2675.17 1425295
3 2675.17 1422957
3 2676.03 1415544
3 2676.03 1414003
3 2676.03 1408774
3 2676.03 1401002
3 2676.03 1398355
3 2676.03 1387937
3 2676.91 1384781
3 2676.91 1382038
3 2677.72 1381848
3 2678.72 1381092
3 2678.72 1380386
3 2679.72 1371709
3 2679.72 1371199
3 2680.24 1368224
3 2680.24 1367917
3 2680.72 1363068
3 2688.42 1486876
3 2688.42 1443351
3 2688.42 1438907
3 2688.42 1436737
3 2688.42 1431156
3 2688.42 1419932
3 2688.42 1419232
3 2688.42 1415832
3 2688.42 1411069
3 2688.42 1410419
3 2688.42 1409014
3 2688.42 1408688
3 2689.11 1403615
3 2689.11 1402915
3 2689.11 1399694
3 2689.11 1399567
3 2689.11 1396662
3 2689.11 1396139
3 2689.98 1391969
3 2689.98 1386819
3 2689.98 1386234
3 2689.98 1385520
3 2690.85 1384430
3 2690.85 1383943
3 2690.85 1383243
3 2693.64 1383006
3 2693.64 1382755
3 2694.22 1382731
3 2694.22 1382452
3 2694.72 1380680
3 2696.22 1377530
3 2696.22 1375241
3 2696.72 1373179
3 2696.72 1371179
3 2696.72 1370479
3 2697.42 1366942
3 2697.42 1366734
3 2698.23 1366224
3 2699.75 1365243
3 2700.31 1363261
3 2700.31 1362561
3 2701.12 1359763
3 2702.72 1480481
3 2702.72 1452704
3 2702.72 1447813
3 2702.72 1442563
3 2702.72 1438551
3 2702.72 1438444
3 2702.72 1437677
3 2702.72 1427769
3 2703.53 1422767
3 2703.53 1413569
3 2703.53 1399003
3 2703.53 1397431
3 2704.07 1396385
3 2704.07 1395156
3 2704.57 1392526
3 2704.57 1390034
3 2704.57 1387171
3 2705.13 1385203
3 2705.61 1384363
3 2705.61 1382903
3 2705.61 1378260
3 2705.61 1373881
3 2709.61 1371667
3 2710.62 1371595
3 2713.52 1370952
3 2714.37 1370252
3 2716.76 1572468
3 2716.76 1558362
3 2716.76 1541792
3 2716.76 1535764
3 2716.76 1533145
3 2716.76 1513494
3 2716.76 1498993
3 2716.76 1491172
3 2716.76 1488844
3 2716.76 1488350
3 2717.51 1481855
3 2717.51 1478101
3 2717.51 1475441
3 2717.51 1475400
3 2718.09 1470206
3 2718.09 1467353
3 2718.09 1457946
3 2718.09 1457033
3 2718.09 1452538
3 2718.09 1447298
3 2718.09 1436914
3 2718.09 1434004
3 2718.09 1430903
3 2718.68 1424875
3 2719.5 1424371
3 2719.5 1424115
3 2720.36 1423747
3 2720.36 1418255
3 2721.21 1418035
3 2721.21 1416339
3 2722.08 1415943
3 2722.08 1413005
3 2722.08 1410574
1 2722.94 1408201
3 2727.22 1404848
3 2727.87 1402858
3 2727.87 1402137
3 2729.03 1399406
3 2729.03 1399155
3 2729.03 1397509
3 2730.51 1532922
3 2730.51 1532129
3 2730.51 1522045
3 2730.51 1517140
3 2730.51 1494927
3 2730.51 1491185
3 2730.51 1483057
3 2730.51 1481918
3 2730.51 1465900
3 2730.51 1460135
3 2730.51 1446710
3 2730.51 1427970
3 2731.54 1427561
3 2731.54 1415678
3 2731.54 1411733
3 2731.54 1409001
3 2731.54 1400297
3 2731.54 1398194
3 2731.54 1395392
3 2731.54 1393537
3 2732.47 1392837
3 2733.26 1385433
3 2733.85 1379922
3 2733.85 1378029
3 2733.85 1374428
3 2733.85 1373796
3 2733.85 1373131
3 2734.37 1369669
3 2734.37 1368933
3 2734.37 1367773
3 2734.89 1367073
3 2736.47 1365270
3 2736.47 1364959
3 2737.16 1364028
3 2744.35 1471601
3 2744.35 1464055
3 2744.35 1444404
3 2744.35 1443339
3 2744.35 1440159
3 2744.35 1437296
3 2744.35 1429428
3 2745.24 1424057
3 2745.24 1411575
3 2745.24 1410875
3 2746.19 1408489
3 2746.19 1403401
3 2746.19 1401084
3 2746.19 1398221
3 2747.04 1393512
3 2747.04 1390801
3 2747.04 1387349
3 2747.96 1385945
3 2747.96 1385395
3 2747.96 1380695
3 2747.96 1372634
3 2747.96 1372159
3 2748.88 1366394
3 2748.88 1365776
3 2748.88 1364495
3 2748.88 1363919
3 2748.88 1361226
3 2748.88 1360187
3 2748.88 1359507
3 2750.78 1358505
3 2751.24 1358498
3 2751.86 1357275
3 2753.46 1354894
3 2754.84 1353740
3 2754.84 1350877
3 2758.54 1562386
3 2758.54 1536369
3 2758.54 1497441
3 2758.54 1491035
3 2758.54 1481403
3 2758.54 1472434
3 2758.54 1450750
3 2759.13 1450678
3 2759.13 1449390
3 2759.13 1445378
3 2759.13 1439777
3 2759.13 1434621
3 2759.13 1434594
3 2759.69 1433495
3 2759.69 1432299
3 2759.69 1414744
3 2759.69 1413649
3 2759.69 1408784
3 2759.69 1402267
3 2759.69 1396841
3 2759.69 1396235
3 2760.93 1381104
3 2761.91 1380392
3 2761.91 1379692
3 2761.91 1375339
3 2762.76 1374382
3 2763.55 1371278
3 2767.24 1367586
3 2767.24 1366711
3 2767.74 1366011
3 2767.74 1365825
3 2767.74 1364753
3 2768.32 1364053
3 2768.91 1363688
3 2769.93 1362947
3 2769.93 1359763
3 2772.65 1484999
3 2772.65 1446071
3 2772.65 1436705
3 2772.65 1413803
3 2772.65 1407775
3 2773.52 1407693
3 2773.52 1403681
3 2773.52 1397936
3 2774.27 1394868
3 2774.27 1387533
3 2774.27 1384675
3 2774.27 1377875
3 2774.84 1376123
3 2775.87 1375157
3 2776.38 1375152
3 2777.49 1373584
3 2779.05 1370883
3 2786.01 1551817
3 2786.01 1545294
3 2786.01 1525643
3 2786.01 1507551
3 2786.01 1497872
3 2786.01 1494426
3 2786.01 1491453
3 2786.01 1486301
3 2786.01 1484743
3 2786.69 1483417
3 2786.69 1482336
3 2787.22 1478545
3 2787.78 1472369
3 2787.78 1470335
3 2787.78 1461366
3 2787.78 1460666
3 2787.78 1454901
3 2788.82 1454612
3 2789.32 1453647
3 2789.32 1450591
3 2789.32 1448742
3 2789.32 1448154
3 2789.86 1445468
3 2789.86 1441823
3 2789.86 1439662
3 2790.88 1435722
3 2790.88 1426797
3 2790.88 1425412
3 2791.4 1424734
3 2791.4 1417712
3 2793.08 1417415
3 2794.07 1400399
3 2794.56 1397296
3 2796.02 1395508
3 2796.02 1394730
query_times: 114
Score = 1367243
