    Blocking waiting for file lock on package cache
    Blocking waiting for file lock on package cache
    Blocking waiting for file lock on package cache
    Finished release [optimized] target(s) in 0.03s
     Running `target/release/tester ../a.out 0092`
3 0.019 954975
3 0.019 936658
3 0.019 934924
3 0.019 907081
3 0.019 832873
3 0.019 829364
3 0.019 816917
3 0.019 814580
3 0.47 809557
3 0.47 789047
3 0.47 786744
3 0.47 784912
3 0.658 782575
3 0.658 778033
3 0.658 773451
3 0.658 769637
3 2.173 769128
3 2.173 768009
3 2.344 766321
3 2.495 765767
3 14.161 865862
3 14.161 863383
3 14.161 863370
3 14.161 838457
3 14.161 833137
3 14.161 814820
3 14.161 806828
3 14.161 797596
3 14.488 786807
3 14.488 784986
3 14.704 780444
3 14.998 762046
3 15.277 760933
3 15.277 755741
3 28.007 871135
3 28.007 856184
3 28.007 839745
3 28.007 795582
3 28.007 779756
3 28.007 779743
3 28.007 774078
3 28.377 771827
3 28.377 770505
3 28.377 770140
3 28.643 767186
3 31.154 765891
3 31.154 765337
3 31.154 763457
3 42.255 835017
3 42.255 828215
3 42.255 826511
3 42.255 824208
3 42.255 806151
3 42.255 802811
3 42.255 790893
3 42.255 790195
3 42.255 784994
3 43.798 781890
3 43.798 781424
3 43.798 781150
3 43.798 781076
3 44.123 780557
3 44.909 777704
3 56.166 900504
3 56.166 868356
3 56.166 847184
3 56.166 842637
3 56.166 840334
3 56.166 838600
3 56.166 828961
3 56.166 821363
3 56.166 816226
3 56.166 807724
3 56.166 806851
3 56.533 800812
3 56.533 790152
3 56.533 787849
3 56.763 787765
3 56.763 784690
3 56.763 783615
3 56.763 779461
3 56.763 779448
3 56.763 778122
3 56.763 775819
3 56.763 774626
3 57.779 772794
3 57.979 766546
3 57.979 762277
3 70.266 794247
3 70.266 786607
3 70.266 768449
3 70.266 768206
3 70.266 767652
3 70.623 767108
3 70.623 767095
3 70.623 764563
3 70.623 763323
3 70.952 754603
3 84.053 863253
3 84.053 842867
3 84.053 842313
3 84.053 840334
3 84.053 833574
3 84.053 803547
3 84.053 788958
3 84.053 782295
3 84.053 780238
3 84.053 778242
3 84.053 775939
3 84.698 774949
3 84.698 770694
3 84.698 770140
3 84.945 767186
3 86.434 765641
3 86.597 758011
3 86.597 757822
3 98.018 871580
3 98.018 869277
3 98.018 863441
3 98.018 859817
3 98.018 853193
3 98.235 850856
3 98.235 833467
3 98.235 823490
3 98.235 817697
3 98.235 817536
3 98.235 816959
3 98.457 812690
3 98.457 811180
3 98.457 806821
3 98.457 802279
3 98.457 798798
3 98.457 794529
3 98.679 792192
3 112.029 869378
3 112.029 861976
3 112.029 831807
3 112.029 807671
3 112.029 805692
3 112.029 798780
3 112.278 797647
3 112.278 795053
3 112.278 773778
3 112.795 758011
3 112.795 757822
3 126.043 863560
3 126.043 837708
3 126.043 830796
3 126.043 812479
3 126.043 802897
3 126.043 787906
3 126.043 783364
3 126.043 779307
3 126.41 777012
3 126.41 772259
3 127.788 767186
3 127.963 765452
3 128.122 757822
3 140.052 824943
3 140.052 813150
3 140.052 812925
3 140.052 807598
3 140.052 805935
3 140.052 803632
3 140.052 799363
3 140.052 797031
3 140.454 793656
3 140.454 793349
3 140.454 789991
3 140.454 787526
3 140.454 786742
3 140.454 786219
3 140.454 779171
3 140.454 772259
3 142.317 771059
3 142.317 770694
3 142.317 764727
3 142.317 764714
3 154.118 816324
3 154.118 806115
3 154.118 800310
3 154.118 798007
3 154.118 786044
3 154.401 782034
3 154.401 775368
3 154.401 775322
3 154.589 771786
3 168.246 878613
3 168.246 860296
3 168.246 835474
3 168.246 831950
3 168.246 830333
3 168.246 816960
3 168.246 804186
3 168.246 799917
3 168.246 790261
3 168.246 789707
3 168.246 780121
3 168.535 773209
3 168.687 771633
3 168.842 770088
3 168.997 767091
3 171.123 762762
3 182.096 960758
3 182.096 937533
3 182.096 904067
3 182.096 889810
3 182.096 882484
3 182.096 877942
3 182.096 872476
3 182.096 872221
3 182.096 869299
3 182.096 848249
3 182.096 848236
3 182.096 831005
3 182.096 808760
3 182.096 807402
3 182.096 802860
3 182.585 795534
3 196.306 845662
3 196.306 829706
3 196.306 807214
3 196.306 805148
3 196.306 795492
3 196.306 784991
3 196.306 773751
3 196.764 770227
3 196.764 767751
3 210.091 830537
3 210.091 829679
3 210.091 827406
3 210.372 827354
3 210.372 825017
3 210.372 824624
3 210.372 803114
3 210.372 795486
3 210.372 792322
3 210.658 788053
3 210.931 786727
3 210.931 786281
3 211.094 786173
3 211.094 785879
3 224.111 835995
3 224.111 805814
3 224.111 797094
3 224.111 797081
3 224.646 776051
3 224.646 774485
3 238.164 905811
3 238.164 854932
3 238.164 830796
3 238.164 817926
3 238.164 812479
3 238.164 805228
3 238.164 800686
3 238.543 789591
3 238.814 787288
3 238.814 786744
3 238.814 781166
3 239.131 772259
3 240.499 767186
3 241.31 765337
3 241.31 763457
3 252.088 869821
3 252.088 854830
3 252.088 830886
3 252.088 828583
3 252.088 827385
3 252.088 823161
3 252.088 823148
3 252.331 817332
3 252.331 807071
3 252.331 802978
3 252.526 784691
3 252.526 782297
3 252.526 778753
3 252.526 774566
3 252.744 771462
3 252.744 771095
3 252.95 771082
3 256.773 762754
3 266.095 937060
3 266.095 889542
3 266.095 855019
3 266.095 850462
3 266.095 827237
3 266.095 826411
3 266.095 821869
3 266.095 818499
3 266.095 813427
3 266.488 811124
3 266.488 809265
3 266.488 805437
3 266.696 804883
3 266.696 804594
1 267.032 804210
3 267.032 804197
3 267.032 802678
3 267.032 794763
3 267.032 790494
3 267.032 790023
3 267.032 786785
3 267.661 778609
3 267.661 775445
3 267.661 773134
3 280.113 832795
3 280.113 813701
3 280.113 794938
3 280.113 789267
3 280.113 788329
3 280.113 786571
3 280.362 784234
3 280.362 783680
3 280.362 781897
3 280.362 781884
3 280.362 773164
3 294.028 872482
3 294.028 851651
3 294.028 812513
3 294.028 799693
3 294.028 792015
3 294.028 789678
3 294.028 787765
3 294.028 767186
3 295.742 760125
3 295.742 757822
3 308.207 896875
3 308.207 896538
3 308.207 895475
3 308.207 887818
3 308.207 841081
3 308.207 840024
3 308.207 830445
3 308.207 823395
3 308.207 812277
3 308.207 788435
3 308.207 781832
3 308.207 781278
3 308.633 772826
3 308.633 765981
3 308.633 765614
3 308.633 763311
3 308.633 761612
3 309.053 761139
3 309.398 760872
3 309.398 760666
3 309.756 760028
3 322.077 896123
3 322.077 895449
3 322.077 875961
3 322.077 865713
3 322.077 857358
3 322.077 854401
3 322.077 831176
3 322.077 830622
3 322.524 809572
1 326.923 808251
3 326.923 806833
3 326.923 797289
3 327.387 787878
3 328.27 785142
3 328.482 781333
3 336.193 846058
3 336.193 845278
3 336.193 840551
3 336.193 826114
3 336.193 822021
3 336.193 819684
3 336.193 813996
3 336.193 813147
3 336.193 811821
3 336.599 807110
3 336.599 805349
3 336.599 804795
3 336.599 798797
3 336.91 796602
3 337.194 796096
3 337.468 793656
3 337.468 791791
3 337.468 788958
3 337.468 781802
3 337.784 780238
3 339.015 779697
3 339.015 771507
3 339.265 770808
3 339.265 770785
3 339.265 768433
3 339.663 767284
3 350.011 818135
3 350.011 811223
3 350.011 810669
3 350.011 795672
3 350.011 791403
3 350.011 785350
3 350.011 781966
3 364.156 855274
3 364.156 847344
3 364.156 840432
3 364.156 827808
3 364.156 825505
3 364.156 807777
3 364.156 792438
3 364.156 774978
3 364.518 774626
3 378.106 868423
3 378.106 852467
3 378.106 833156
3 378.106 824788
3 378.106 804119
3 378.106 803904
3 378.391 803447
3 378.391 803066
3 378.391 798939
3 378.391 798797
3 378.612 798291
3 378.612 796096
3 378.817 786744
3 379.004 782580
3 379.004 777012
3 379.004 772259
3 379.004 769523
3 379.004 767186
3 379.46 765641
3 379.46 765452
3 379.673 760125
3 379.673 757822
3 392.068 869344
3 392.068 825069
3 392.068 817297
3 392.068 802268
3 392.068 786906
3 392.068 782440
3 392.346 780767
3 393.477 778446
3 406.074 849659
3 406.074 798780
3 406.074 780463
3 406.397 773970
3 406.397 771633
3 408.503 770088
1 408.78 769792
3 408.78 767091
3 409.06 766286
3 409.58 762762
3 420.183 852222
3 420.183 824621
3 420.183 804407
3 420.183 804394
3 420.183 798742
3 420.183 779452
3 420.183 778023
3 420.183 776077
3 420.183 775759
3 420.598 775746
3 420.598 772540
3 420.598 771111
3 421.164 771034
3 421.164 771021
3 421.164 770780
3 434.055 913763
3 434.055 910841
3 434.055 910828
3 434.055 908247
3 434.055 887946
3 434.055 883229
3 434.055 873672
3 434.055 869629
3 434.366 852118
3 434.366 848512
3 434.366 847958
3 434.366 845655
3 434.653 842264
3 434.653 839602
3 434.653 826021
3 434.89 826008
1 435.096 817062
3 435.096 817049
3 435.096 816039
3 435.096 808481
3 435.096 808248
3 435.362 805752
3 448.123 909152
3 448.123 879125
3 448.123 876788
3 448.123 844640
3 448.123 828684
3 448.123 816250
3 448.123 815063
3 448.123 799418
3 448.508 783047
3 448.508 782580
3 448.508 780463
1 449.074 780075
3 449.074 777738
3 449.074 771633
3 449.074 771401
3 449.416 769208
3 449.416 767091
3 450.824 766284
3 452.133 763383
3 462.124 835248
3 462.124 816745
3 462.124 790938
3 462.124 786840
3 462.124 783069
3 462.124 778447
3 462.124 776548
3 462.124 772279
3 462.595 770545
3 462.595 762460
3 462.84 753692
3 476.224 839302
3 476.224 806632
3 476.224 801062
3 476.224 795596
3 476.224 787526
3 476.224 785573
3 476.596 782019
3 476.596 781342
3 476.895 779716
3 477.175 776503
3 490.268 802246
3 490.268 795562
3 490.268 794951
3 490.268 793202
3 490.268 792038
3 490.268 778635
3 490.268 777047
3 490.646 770292
3 490.951 767777
3 491.227 763380
3 491.493 762354
3 491.767 758730
3 491.767 757990
3 492.053 757971
3 504.07 861783
3 504.07 846754
3 504.07 814991
3 504.07 806820
3 504.07 788503
3 504.426 788490
3 505.306 788286
3 506.833 786859
3 506.833 772718
3 506.833 768176
3 506.833 766105
3 506.833 763546
3 506.833 761282
3 507.064 760872
3 518.06 878957
3 518.06 842481
3 518.06 840747
3 518.06 824164
3 518.06 809135
3 518.941 807401
1 524.007 804330
3 524.217 802087
1 525.414 801426
3 525.63 799766
3 525.63 797758
3 525.853 797372
3 532.008 827958
3 532.008 819436
3 532.008 809992
3 532.008 792308
3 532.355 791283
3 532.355 785584
3 532.355 784606
3 532.651 782060
3 532.651 781042
3 532.651 779658
3 532.651 777355
3 532.651 775958
3 533.476 774039
3 534.288 771122
3 534.558 769854
3 546.115 848198
3 546.115 829881
3 546.115 819812
3 546.115 812758
3 546.115 807032
3 546.115 804695
3 546.526 791255
3 546.526 782535
3 546.526 782522
3 546.526 780372
3 546.526 778384
3 546.732 777911
3 547.803 774215
3 547.978 773597
3 547.978 771912
3 560.075 802636
3 560.075 792189
3 560.075 789439
3 560.075 777451
3 560.075 777438
3 560.075 774792
3 560.357 768718
3 561.094 764713
3 561.094 761189
3 561.094 760921
3 561.094 758852
3 561.281 757467
3 574.178 822383
3 574.178 820046
3 574.178 818382
3 574.178 817841
3 574.178 817206
3 574.522 799346
3 574.522 798155
3 574.522 793900
3 575.083 792562
3 575.083 777021
3 575.624 774704
3 588.143 869227
3 588.143 860464
3 588.143 858812
3 588.143 856534
3 588.143 852782
3 588.143 850115
3 588.143 834159
3 588.143 832833
3 588.386 830496
3 588.386 812994
3 588.386 810399
3 588.386 799110
3 588.386 797699
3 588.581 793933
3 588.74 791792
3 588.896 788619
1 591.244 787463
3 591.585 782921
3 602.055 835491
3 602.055 824124
3 602.055 816245
3 602.055 802432
3 602.055 790053
3 602.055 779805
3 602.055 773314
3 602.055 770977
3 602.432 764476
3 602.432 762378
3 602.722 760795
3 616.241 856263
1 616.241 850834
3 616.241 821257
3 616.241 819714
3 616.241 807596
3 616.241 798876
3 616.241 789109
3 616.241 784240
3 616.241 783286
3 616.241 777049
3 616.241 774712
3 616.934 772642
3 617.224 761107
3 617.514 759456
3 630.039 819320
3 630.039 813625
3 630.039 813210
3 630.039 786067
3 630.039 774962
3 630.039 772259
3 630.276 770505
3 630.276 770140
3 630.466 767030
3 630.466 767017
3 630.466 764714
3 644.191 891250
3 644.191 872933
3 644.191 851966
3 644.191 824759
3 644.191 819950
3 644.191 803155
3 644.191 802410
3 644.191 789421
3 644.191 782715
3 644.839 780790
3 644.839 779636
3 644.839 777831
3 645.145 777355
3 645.411 773967
3 645.411 771507
3 645.701 770808
3 645.701 768433
3 645.983 767284
3 658.188 891102
3 658.188 879735
3 658.188 878171
3 658.188 877803
3 658.188 875466
3 658.188 871842
3 658.188 870681
3 658.188 858933
3 658.59 829356
3 658.59 826557
3 658.59 816957
3 658.59 816309
3 658.924 805590
3 659.206 801966
3 659.488 800731
3 659.488 799743
1 661.165 795342
3 665.499 794200
3 672.047 883330
3 672.047 853753
3 672.047 849498
3 672.047 834381
3 672.047 811793
3 672.047 805859
3 672.047 794492
3 672.047 794366
3 672.047 783817
3 672.047 782482
3 672.336 781774
3 672.336 778474
3 672.336 771572
3 674.176 769718
3 675.513 766745
3 675.805 763265
3 675.805 763172
3 676.107 758996
3 686.078 842562
3 686.078 827533
3 686.078 825294
3 686.078 804264
3 686.078 788308
3 686.078 781495
3 686.078 780621
3 686.078 778284
3 686.078 776081
3 686.078 770140
3 686.718 762462
3 686.718 760125
3 686.718 758187
3 687.014 757822
3 700.037 870364
3 700.037 842521
3 700.258 838274
3 700.258 836828
3 700.258 826580
3 700.258 821114
3 700.258 814628
3 700.584 796516
3 700.584 782498
3 700.584 781682
1 703.574 780503
3 703.574 778357
3 714.101 850629
3 714.101 850075
3 714.101 849903
3 714.101 847637
3 714.101 846524
3 714.101 843527
3 714.101 819605
3 714.101 815063
3 714.101 815026
3 714.101 809015
3 714.101 806297
3 714.101 804778
3 714.38 794342
3 714.38 788958
3 714.38 778386
3 714.38 777625
3 714.714 774385
3 714.714 772048
3 728.164 925132
3 728.164 895105
3 728.164 865954
3 728.164 847724
3 728.164 833938
3 728.164 830941
3 728.164 803695
3 728.164 795127
3 728.164 789144
3 728.569 787954
3 728.569 781042
3 728.858 778985
3 729.143 777831
3 729.411 777355
3 729.411 773967
3 730.474 770785
3 730.75 768433
3 730.75 767284
3 742.172 854201
3 742.172 829549
3 742.172 772851
3 742.886 767186
3 744.934 765337
3 744.934 763457
3 756.166 937030
3 756.166 879497
3 756.166 861180
3 756.166 858843
3 756.166 849124
3 756.166 825136
3 756.166 822833
3 756.166 812537
3 756.166 801027
3 756.166 794220
3 756.692 789678
3 756.692 775116
3 756.692 768433
3 756.692 767186
3 760.994 758376
3 760.994 758011
3 760.994 757822
3 770.061 849147
3 770.061 846562
3 770.061 834253
3 770.061 832433
3 770.061 824967
3 770.061 823337
3 770.061 820698
3 770.061 820144
3 770.061 813342
3 770.061 806291
3 770.061 800748
3 770.061 799399
3 770.061 798677
3 770.061 796374
3 770.53 795875
3 772.145 780924
3 772.145 780483
3 772.438 780168
3 772.438 778223
3 772.438 772562
3 779.788 771908
3 784.143 892593
3 784.143 826480
3 784.143 820703
3 784.143 804435
3 784.143 803320
3 784.143 799736
3 784.143 798837
3 784.54 798283
3 784.54 793290
3 784.54 788145
3 784.54 784895
3 784.54 784224
3 784.54 772062
3 784.54 772049
3 784.54 769746
3 784.933 767472
3 785.217 766026
3 785.217 759628
3 798.112 897535
3 798.112 874974
3 798.112 830699
3 798.112 819025
3 798.112 793574
3 798.112 789501
3 798.112 789487
3 798.112 788174
3 798.725 788111
3 798.891 775372
3 798.891 772160
3 798.891 769857
3 798.891 768158
3 799.321 767302
3 799.544 765145
3 799.544 764316
3 799.817 762266
3 799.817 761426
3 799.817 761139
3 812.15 954975
3 812.15 930153
3 812.15 922827
3 812.15 893250
3 812.15 890913
3 812.15 862421
3 812.15 846465
3 812.15 845095
3 812.409 809779
3 812.409 805906
3 812.409 801729
3 812.409 794817
3 812.603 784569
3 813.06 783935
3 813.06 781560
3 826.199 849022
3 826.199 830885
3 826.199 815856
3 826.199 811947
3 826.545 801515
3 826.545 795851
3 826.545 795838
3 826.843 788781
3 826.843 783840
3 826.843 777324
3 840.112 858175
3 840.112 828148
3 840.112 822163
3 840.112 819860
3 840.112 795313
3 840.112 788520
3 840.112 788283
3 840.112 786173
3 840.573 783978
3 854.06 861844
3 854.06 854932
3 854.06 836615
3 854.06 813060
3 854.06 810757
3 854.06 807548
3 854.06 806242
3 854.06 799455
3 854.06 796465
3 854.316 789553
3 854.316 787250
3 854.316 786744
3 854.316 782580
3 854.316 779302
3 854.316 776999
3 854.531 772259
3 854.855 767186
3 857.751 765337
3 857.751 762277
3 868.095 882406
3 868.095 879543
3 868.095 875562
3 868.095 860805
3 868.095 854512
3 868.095 851765
3 868.095 841517
3 868.095 836576
3 868.095 825322
3 868.357 822933
3 868.357 820604
3 868.357 811884
3 868.357 811312
3 868.357 807043
3 868.357 774341
3 868.357 767905
3 868.638 766155
1 871.243 765602
3 871.412 765469
3 871.571 762763
3 871.73 760426
3 871.73 758742
3 882.014 898114
3 882.014 862868
3 882.014 830852
3 882.014 821863
3 882.014 813440
3 882.014 809758
3 882.014 806374
3 882.348 805514
3 882.348 801306
3 882.348 795254
3 896.005 944084
3 896.005 911936
3 896.005 837439
3 896.005 835346
3 896.005 830576
3 896.005 805638
3 896.388 803603
3 896.388 803520
3 896.388 803066
3 896.388 801144
3 896.388 792825
3 896.388 788520
3 896.993 786088
3 896.993 783978
3 910.033 866917
3 910.033 844548
3 910.033 838968
3 910.033 838289
3 910.033 836392
3 910.033 836066
3 910.033 819695
3 910.033 796330
3 910.033 791153
3 910.033 790609
3 910.033 789744
3 910.358 785202
3 910.358 783483
3 910.358 780918
3 910.358 778941
3 910.561 778170
3 924.174 875297
3 924.174 845270
3 924.174 826992
3 924.174 805942
3 924.174 784975
3 924.174 765884
3 925.423 764212
3 926.092 759098
3 926.349 757093
3 938.046 858593
3 938.046 850537
3 938.046 844082
3 938.046 827312
3 938.046 822770
3 938.046 822314
3 938.046 820716
3 938.046 810468
3 938.046 809729
3 938.046 808988
3 938.462 805916
3 938.748 792612
3 943.26 789960
3 952.043 849577
3 952.043 828417
3 952.043 806379
3 952.043 796131
3 952.346 781042
3 952.346 776828
3 953.092 776352
3 953.643 775327
3 953.643 771633
3 953.941 767091
3 956.135 766286
3 956.301 762762
3 966.042 841520
3 966.042 839217
3 966.042 838129
3 966.042 823138
3 966.042 821941
3 966.042 819880
3 966.042 818440
3 966.402 816103
3 966.402 811561
3 966.402 802071
3 966.874 801287
1 971.887 800189
3 971.887 797852
3 971.887 787604
3 972.199 787591
3 972.199 778871
3 980.152 825462
3 980.152 814673
3 980.152 807563
3 980.152 795013
3 980.152 791756
3 980.152 788250
3 980.523 778327
3 980.523 778314
3 994.145 867985
3 994.145 865648
3 994.145 807008
3 994.145 792017
3 994.412 785663
3 994.412 785123
3 994.412 784279
3 995.399 777708
3 995.567 777324
3 995.907 776784
3 995.907 776189
3 1008.21 880767
3 1008.21 864811
3 1008.21 844893
3 1008.21 837981
3 1008.21 835234
3 1008.21 832897
3 1008.57 831135
3 1008.57 826593
3 1008.57 791800
3 1008.88 786872
3 1008.88 784569
3 1009.98 783935
3 1009.98 783381
3 1010.27 783079
3 1010.53 781560
3 1022.06 908640
3 1022.06 883818
3 1022.06 880294
3 1022.06 818432
3 1022.06 818147
3 1022.06 799830
3 1022.06 797527
3 1022.06 794530
3 1022.06 790261
3 1022.06 789707
3 1022.46 787589
3 1022.75 787375
3 1022.75 784807
3 1023.04 773970
3 1023.04 773209
3 1023.04 771633
3 1023.04 767091
3 1025.53 762762
3 1036.23 838266
3 1036.23 796555
3 1036.23 793031
3 1036.23 770920
3 1036.56 770249
3 1036.56 767224
3 1036.56 767150
3 1036.86 759726
3 1036.86 756292
3 1050.29 856571
3 1050.29 849659
3 1050.29 831931
3 1050.29 822314
3 1050.29 813443
3 1050.29 803976
3 1050.29 803231
3 1050.29 784914
3 1050.66 782729
3 1050.66 772095
3 1050.66 769792
3 1050.95 769357
3 1064.08 814318
3 1064.08 808666
3 1064.08 804291
3 1064.08 801754
3 1064.08 799641
3 1064.08 793480
3 1064.44 791018
3 1064.92 790632
3 1065.12 788475
3 1065.33 785903
3 1065.33 784507
3 1065.55 782838
3 1065.55 782280
3 1065.55 777225
3 1078 834701
3 1078 832398
3 1078 822150
3 1078 821820
3 1078 814908
3 1078 812758
3 1078 800040
3 1078 796864
3 1078.25 792164
3 1078.25 789503
3 1078.25 784961
3 1078.25 774947
3 1078.44 772748
3 1078.44 772644
3 1078.44 771730
3 1078.62 764795
3 1078.62 762335
3 1078.81 762322
3 1092.09 825452
3 1092.09 810423
3 1092.09 795048
3 1092.09 793511
3 1092.09 790955
3 1092.09 786934
3 1092.32 783788
3 1092.32 778275
3 1092.32 778143
3 1092.65 777366
3 1092.65 771521
3 1092.65 765884
3 1093.17 764743
3 1093.17 762738
3 1093.4 759564
3 1093.4 758853
3 1093.58 758722
3 1093.58 757093
3 1106.09 876316
3 1106.09 874013
3 1106.09 858057
3 1106.09 855156
3 1106.09 841658
3 1106.09 831314
3 1106.09 828801
3 1106.09 811561
3 1106.09 808318
3 1106.33 807764
3 1106.33 803603
3 1106.33 803590
3 1106.51 802071
3 1106.51 801287
3 1106.51 793166
3 1106.51 787877
3 1106.51 786695
3 1106.72 777039
3 1106.72 769468
3 1107.17 762831
3 1107.17 762277
3 1120.02 806135
3 1120.02 803798
3 1120.02 800714
3 1120.02 794031
3 1120.02 792110
3 1120.02 786047
3 1120.02 779422
3 1120.24 778137
3 1134.13 878755
3 1134.13 875065
3 1134.13 859952
3 1134.13 857615
3 1134.13 854170
3 1134.13 850703
3 1134.13 843922
3 1134.13 835640
3 1134.13 826148
3 1134.13 817625
3 1134.13 813083
3 1134.13 804281
3 1134.62 791052
3 1134.62 789380
3 1134.62 777538
3 1134.62 774039
3 1134.62 770705
3 1134.97 768557
3 1135.24 763984
3 1135.53 758376
3 1135.53 758187
3 1135.53 757822
3 1148.09 880205
3 1148.09 864611
3 1148.09 849404
3 1148.09 828354
3 1148.09 824085
3 1148.09 813921
3 1148.09 805903
3 1148.74 790990
3 1148.74 790190
3 1148.74 786509
3 1149.07 785921
3 1149.07 781067
1 1152.54 780522
1 1153.37 767046
3 1153.37 762777
3 1153.37 759603
3 1153.37 759564
3 1153.37 759098
3 1153.57 758722
3 1153.57 757093
3 1162.26 857958
3 1162.26 857227
3 1162.26 856443
3 1162.26 835501
3 1162.26 821920
3 1162.26 821907
3 1162.26 820388
3 1162.26 819604
3 1162.64 804811
3 1162.64 802936
3 1162.64 798762
3 1162.95 790996
3 1162.95 790442
3 1162.95 786394
3 1162.95 786315
3 1163.27 786173
3 1165.05 785879
3 1176.21 835255
3 1176.21 794793
3 1176.21 792848
3 1176.21 790511
3 1176.21 786366
3 1176.21 785969
3 1176.21 783021
3 1176.21 779726
3 1176.21 771667
3 1176.47 765591
3 1176.47 764807
3 1176.78 763526
3 1190.16 908457
3 1190.16 894863
3 1190.16 864836
3 1190.16 848918
3 1190.16 821594
3 1190.16 820426
3 1190.16 804470
3 1190.16 803686
3 1190.5 801287
3 1190.66 799553
3 1191.12 796602
3 1191.12 794231
3 1191.78 790811
3 1191.78 783978
3 1204.11 887526
3 1204.11 883902
3 1204.11 874357
3 1204.11 867733
3 1204.11 867179
3 1204.11 837638
3 1204.11 833369
3 1204.11 810144
3 1204.5 789094
3 1218.29 928024
3 1218.29 920622
3 1218.29 918888
3 1218.29 886740
3 1218.29 855173
3 1218.29 838177
3 1218.29 833839
3 1218.29 818788
3 1218.29 818775
3 1218.29 818298
3 1218.69 811386
3 1218.69 803701
3 1218.69 801398
3 1218.69 799351
3 1218.69 798797
3 1219.02 786173
3 1220 785879
3 1232.08 895164
3 1232.08 863016
3 1232.08 858409
3 1232.08 838880
3 1232.08 833226
3 1232.08 826410
3 1232.08 825856
3 1232.08 820266
3 1232.08 818525
3 1232.08 812322
3 1232.08 811760
3 1232.08 807491
3 1232.88 800588
3 1232.88 798251
3 1232.88 778685
3 1232.88 771728
3 1232.88 767186
3 1233.15 760125
3 1233.93 758187
3 1233.93 757822
3 1246.08 954975
3 1246.08 936658
3 1246.08 879125
3 1246.08 832583
3 1246.08 824896
3 1246.08 822313
3 1246.31 813856
3 1246.31 813205
3 1246.31 805228
3 1246.31 800686
3 1246.5 799108
3 1246.5 794839
3 1246.7 794285
3 1246.7 791982
3 1246.7 788104
3 1246.7 783364
3 1246.91 774562
3 1247.21 772259
3 1247.21 770140
3 1247.39 760159
3 1247.39 758011
3 1247.39 757822
3 1260.2 844999
3 1260.2 844494
3 1260.2 829503
3 1260.2 824504
3 1260.2 816641
3 1260.2 814907
3 1260.2 812757
3 1260.59 801224
3 1260.59 794114
3 1260.59 786707
3 1260.91 777375
3 1260.91 777362
3 1260.91 776251
1 1261.22 775666
3 1261.22 775183
3 1261.22 766463
3 1274.07 894406
3 1274.07 886667
3 1274.07 873748
3 1274.07 858175
3 1274.07 854651
1 1274.07 853371
3 1274.07 851729
3 1274.07 842429
3 1274.07 842201
3 1274.07 839837
3 1274.07 833625
3 1274.07 826867
3 1274.44 823541
3 1274.44 816380
3 1274.44 811838
3 1274.44 804099
3 1274.74 803036
3 1274.74 800733
3 1274.74 799424
3 1274.74 794882
3 1274.74 790503
3 1274.95 776441
3 1274.95 775115
3 1275.11 773272
3 1275.11 766376
3 1275.11 764950
3 1288.2 862989
3 1288.2 860603
3 1288.2 860590
3 1288.2 845394
3 1288.2 828932
3 1288.2 826629
3 1288.2 820401
3 1288.2 819847
3 1288.2 811386
3 1288.61 798939
3 1288.61 794186
3 1288.61 787399
3 1288.93 787375
3 1289.23 784935
3 1289.23 782578
3 1289.4 781166
3 1289.55 777012
3 1289.55 772259
3 1289.55 769994
3 1289.55 762729
3 1289.55 758187
3 1289.55 757822
3 1302.02 886531
3 1302.02 847790
3 1302.02 841528
3 1302.02 830739
3 1302.02 821066
3 1302.02 791601
3 1302.02 787769
3 1302.26 781340
3 1302.42 777443
3 1302.42 766778
3 1302.58 763393
3 1302.58 763380
3 1316.14 855064
3 1316.14 848764
3 1316.14 831932
3 1316.14 829706
3 1316.14 818917
3 1316.14 808656
3 1316.14 780621
3 1316.46 778284
3 1316.77 771278
3 1316.77 769759
3 1316.77 769269
3 1316.77 768715
3 1317.07 766121
3 1317.07 765337
3 1317.07 762277
3 1330.22 858897
3 1330.22 855350
3 1330.22 840580
3 1330.22 825697
3 1330.22 817883
3 1330.22 813579
3 1330.22 796833
3 1330.22 796279
3 1330.59 795318
3 1330.59 791268
3 1330.59 788931
3 1330.59 787589
3 1331.06 784879
3 1331.06 780238
3 1331.06 779697
3 1331.27 777625
3 1331.62 774551
3 1331.62 768433
3 1331.82 767284
3 1344.1 885586
3 1344.1 832217
3 1344.1 808468
3 1344.1 807009
3 1344.1 800081
3 1344.54 798302
3 1344.54 796303
3 1344.93 796290
3 1344.93 790694
3 1344.93 790469
3 1344.93 786200
3 1345.35 773441
3 1345.35 772209
3 1345.35 771946
3 1358.12 866223
3 1358.12 858897
3 1358.12 854170
3 1358.12 792308
3 1358.12 791283
3 1358.12 789018
3 1358.12 782715
3 1358.4 782239
3 1358.4 781630
3 1358.4 775327
3 1358.4 770785
3 1358.64 767091
3 1360.56 766286
3 1360.56 762762
3 1372.1 891766
3 1372.1 876801
3 1372.1 860845
3 1372.1 837623
3 1372.1 832537
3 1372.1 825129
3 1372.49 816363
3 1372.49 805638
3 1372.49 803904
3 1372.49 801144
3 1372.49 800350
3 1372.81 799566
3 1372.81 799553
3 1372.81 796602
3 1373.11 788178
3 1373.11 786727
3 1373.41 786173
3 1373.58 783978
3 1386.06 852755
3 1386.06 837199
3 1386.06 831300
3 1386.06 813021
3 1386.06 813008
3 1386.06 805951
3 1386.06 801409
3 1386.47 795775
3 1386.75 795762
3 1387.03 785514
3 1387.03 776770
3 1387.03 769858
3 1387.59 768317
3 1387.59 768304
3 1400.04 844061
3 1400.04 822513
3 1400.04 817971
3 1400.04 817905
3 1400.04 807657
3 1400.27 793766
3 1400.27 792628
3 1400.27 785716
3 1414.15 859788
3 1414.15 845041
1 1414.15 834355
3 1414.15 831539
3 1414.15 830755
3 1414.15 814200
3 1414.15 812438
3 1414.15 804808
3 1414.15 801323
3 1414.54 797746
3 1414.75 791075
3 1414.75 790856
3 1414.92 790837
3 1414.92 790072
3 1414.92 789881
3 1414.92 787544
3 1415.11 783991
3 1415.11 783437
3 1415.11 781134
3 1415.11 776973
3 1428.04 849314
3 1428.04 833358
3 1428.04 804516
3 1428.04 794220
3 1428.04 785701
3 1428.04 771728
3 1428.27 769348
3 1428.46 767186
3 1428.81 765891
3 1428.81 762831
3 1428.81 762277
3 1442.03 895311
3 1442.03 873261
3 1442.03 865286
3 1442.03 840999
3 1442.03 819303
1 1442.03 815348
3 1442.03 797031
3 1442.03 790306
3 1442.03 787969
3 1442.03 781323
3 1442.03 781310
3 1442.03 781057
3 1445.62 776786
3 1446.48 773621
3 1446.48 769079
3 1446.73 766622
3 1446.73 765465
3 1456.22 873747
3 1456.22 841731
3 1456.22 834529
3 1456.22 829987
3 1456.22 821808
3 1456.22 803547
3 1456.22 797746
3 1456.59 787152
3 1456.59 782717
3 1456.59 782086
3 1456.59 778448
3 1456.59 774065
3 1456.92 769523
3 1457.2 767186
3 1466.69 758011
3 1466.69 757822
3 1470.1 851020
3 1470.1 850406
3 1470.1 832089
3 1470.1 829752
3 1470.1 828018
3 1470.1 826638
3 1470.1 819955
3 1470.1 804926
3 1470.1 777487
3 1470.1 772945
3 1470.44 767763
3 1470.44 765859
3 1470.44 764477
3 1470.44 762802
3 1470.44 762779
3 1470.68 760783
3 1470.68 760442
3 1470.68 759176
3 1470.89 757919
3 1484.12 846779
3 1484.12 830823
3 1484.12 809571
3 1484.12 804031
3 1484.46 800851
3 1485.47 798701
1 1492.36 797473
3 1492.63 791069
3 1492.63 785752
3 1498.23 872482
3 1498.23 861792
3 1498.23 829776
3 1498.23 810176
3 1498.23 808263
3 1498.23 798698
3 1498.23 782826
3 1498.23 778284
3 1498.64 776081
3 1498.64 770694
3 1498.94 769523
3 1498.94 767186
3 1499.45 765891
3 1499.64 765337
3 1499.64 762277
3 1512.22 888719
3 1512.22 881807
3 1512.22 877763
3 1512.22 845615
3 1512.22 843278
3 1512.22 838724
3 1512.22 838170
3 1512.22 822916
3 1512.61 810881
3 1512.61 810327
3 1512.61 808024
3 1512.61 806078
3 1512.61 805986
3 1512.61 805225
3 1512.61 795356
3 1512.61 791087
3 1512.61 784537
3 1512.99 778386
3 1512.99 777625
3 1513.47 777327
3 1513.85 774385
3 1514.04 772048
3 1526.04 918581
3 1526.04 916244
3 1526.04 914510
3 1526.04 886018
3 1526.04 858175
3 1526.04 828932
3 1526.04 820601
3 1526.04 819847
3 1526.04 819581
3 1526.04 818032
3 1526.32 815196
3 1526.32 813996
3 1526.32 810355
3 1526.32 805610
3 1526.32 805602
3 1526.32 801627
3 1526.32 796833
3 1526.32 796279
3 1526.32 792010
3 1526.57 791087
3 1526.57 789707
3 1527.2 787375
3 1527.2 784807
3 1527.2 780265
3 1527.2 773145
3 1527.2 771545
3 1527.4 769208
3 1527.56 768433
3 1527.56 767284
3 1540.11 893371
3 1540.11 877258
3 1540.11 869856
3 1540.11 837840
3 1540.11 823504
3 1540.11 805692
3 1540.11 779171
3 1540.11 772259
3 1540.7 769759
3 1540.7 769606
3 1540.7 768975
3 1540.87 767186
3 1540.87 758376
3 1541.04 758187
3 1541.04 757822
3 1554 867921
3 1554 852892
3 1554 830639
3 1554 825629
3 1554 819426
3 1554 812322
3 1554 798498
3 1554.36 784433
3 1554.36 782130
3 1554.65 778694
3 1554.65 778137
3 1568.16 881570
3 1568.16 863253
3 1568.16 836615
3 1568.16 805225
3 1568.16 792010
3 1568.16 777625
3 1568.51 776049
3 1568.51 775327
3 1568.8 773612
3 1569.08 771633
3 1569.64 767091
3 1575.02 766286
3 1575.02 762762
3 1582.18 920702
3 1582.18 914273
3 1582.18 850453
3 1582.18 835346
3 1582.18 833429
3 1582.18 832913
3 1582.18 830576
3 1582.18 830563
3 1582.59 829515
3 1582.59 825086
3 1582.59 804036
3 1582.9 803590
3 1582.9 802071
3 1582.9 801287
3 1584.08 801175
3 1584.42 794644
3 1584.42 790102
3 1584.42 789894
3 1584.42 787557
3 1584.77 774774
3 1584.77 769335
3 1584.77 767186
3 1586.77 765337
3 1586.77 763457
3 1596.22 897200
3 1596.22 867173
3 1596.22 865223
3 1596.22 860954
3 1596.22 849161
3 1596.22 842031
3 1596.22 815508
3 1596.22 815287
3 1596.61 812984
3 1596.61 807436
3 1596.61 800479
3 1596.61 788361
3 1596.93 787911
3 1596.93 775340
3 1596.93 773124
3 1596.93 771605
3 1597.25 768281
3 1610.25 956510
3 1610.25 895453
3 1610.25 890799
3 1610.25 870240
3 1610.25 868721
3 1610.25 861321
3 1610.25 858984
3 1610.25 836794
3 1610.25 834503
3 1610.25 829961
3 1610.64 825505
3 1610.64 807223
3 1610.64 790857
3 1610.64 788520
3 1610.86 786727
3 1611.03 786173
3 1612.12 783978
3 1624.05 846213
3 1624.05 830135
3 1624.05 811553
3 1624.05 807011
3 1624.37 791982
3 1624.65 788104
3 1624.65 785079
3 1624.97 783364
3 1625.62 779307
3 1625.62 779302
3 1625.62 774562
3 1625.62 772259
3 1628.04 771637
3 1628.04 770160
3 1628.04 768975
3 1628.23 767186
3 1628.23 758011
3 1628.39 757822
3 1638.14 823078
3 1638.14 820639
3 1638.14 819885
3 1638.14 803485
3 1638.14 801182
3 1638.36 799389
3 1638.36 798835
3 1638.36 796640
3 1638.54 787288
3 1638.54 786984
3 1638.54 784879
3 1638.54 772048
3 1652.21 946987
3 1652.21 907849
3 1652.21 902637
3 1652.21 872595
3 1652.21 865320
3 1652.21 850133
3 1652.21 849579
3 1652.21 810813
3 1652.21 806271
3 1652.21 785333
3 1652.21 781799
3 1652.21 781413
3 1652.69 780388
3 1652.69 779252
3 1653.85 776694
3 1655.24 776592
3 1655.24 775085
3 1655.83 774309
3 1655.83 769154
3 1656.14 767397
3 1666.09 837091
3 1666.09 830408
3 1666.09 816435
3 1666.09 804317
3 1666.09 799550
3 1666.09 797213
3 1666.09 787849
3 1666.09 786424
3 1666.49 780553
3 1666.49 780540
3 1666.49 774831
3 1666.49 772528
3 1667.06 771312
3 1667.06 768975
3 1667.06 767186
3 1667.9 765452
3 1668.17 758187
3 1668.17 757822
3 1680.16 880991
3 1680.16 880978
3 1680.16 866881
3 1680.16 864578
3 1680.16 854291
3 1680.16 832644
3 1680.16 831299
3 1680.16 814327
3 1680.16 809785
3 1680.56 788824
3 1680.84 788811
3 1680.84 788588
3 1680.84 782486
3 1681.57 781450
3 1694.17 901174
3 1694.17 900243
3 1694.17 888125
3 1694.17 884501
3 1694.17 863451
3 1694.17 855285
3 1694.64 855272
3 1694.64 849219
3 1694.64 846998
3 1694.64 813019
3 1694.64 794471
3 1694.64 789813
3 1694.64 787610
3 1696.6 787510
3 1696.6 777298
3 1708.24 936956
3 1708.24 906929
3 1708.24 879086
3 1708.24 842079
3 1708.51 839570
3 1708.51 835301
3 1708.51 832998
3 1708.51 826374
3 1708.51 823337
3 1708.51 816918
3 1708.51 815600
3 1708.86 808595
3 1708.86 806558
3 1708.86 804255
3 1708.86 791023
3 1709.47 787545
3 1709.47 786601
3 1709.47 786072
3 1709.47 782346
3 1722.02 870402
3 1722.02 826184
3 1722.02 797951
3 1722.02 795648
3 1722.02 793311
3 1722.02 789488
3 1722.02 787250
1 1722.4 783803
3 1722.4 782449
3 1722.4 770916
3 1722.4 764132
3 1722.62 760780
3 1722.62 756511
3 1722.79 755082
3 1736.08 866187
3 1736.08 861645
3 1736.08 852937
3 1736.08 847703
3 1736.08 843448
3 1736.08 832674
3 1736.08 830818
3 1736.08 817218
3 1736.08 799376
3 1736.08 792464
3 1736.38 789629
3 1736.38 787403
3 1736.38 786769
3 1736.38 778734
1 1736.38 771362
3 1736.38 765114
3 1736.59 760845
3 1750.08 820509
3 1750.08 811069
3 1750.08 809799
3 1750.08 806527
3 1750.08 784188
3 1750.08 776810
3 1750.39 776243
3 1750.39 774792
3 1750.57 771163
3 1750.57 768718
3 1755.23 767029
3 1755.44 764692
3 1755.44 764138
3 1755.44 764125
3 1764.1 888554
3 1764.1 872567
3 1764.1 870230
3 1764.1 814567
3 1764.1 788605
3 1764.1 777697
3 1764.1 777532
3 1764.44 771507
3 1764.73 770808
3 1764.73 767284
3 1778.08 872876
3 1778.08 870988
3 1778.08 843145
3 1778.08 828648
3 1778.08 824247
3 1778.08 823542
3 1778.33 814742
3 1778.33 814720
3 1778.33 807863
3 1778.33 799406
3 1778.33 775883
3 1778.69 767390
3 1778.69 766816
3 1778.87 765635
3 1792.09 834685
3 1792.09 813635
3 1792.09 805516
3 1792.09 804599
3 1792.09 789248
3 1792.09 780463
3 1792.09 778933
3 1792.09 774391
3 1792.09 771099
3 1792.49 767819
3 1792.49 757987
3 1792.49 756989
3 1806.08 852161
3 1806.08 833844
3 1806.08 822356
3 1806.08 820225
3 1806.08 818037
3 1806.08 815315
3 1806.08 810786
3 1806.08 810232
3 1806.57 802369
3 1806.57 794826
3 1806.57 794297
3 1806.57 789755
3 1812.61 788021
3 1820.15 825181
3 1820.15 818269
3 1820.15 802431
3 1820.15 799952
3 1820.15 795133
3 1820.15 791084
3 1821.03 785108
3 1821.3 784360
3 1823.26 782729
3 1823.26 778974
3 1823.26 774432
3 1823.26 772095
3 1823.26 771080
3 1823.26 769357
3 1834.2 913671
3 1834.2 898642
3 1834.2 897200
3 1834.2 894863
3 1834.2 877075
3 1834.2 864649
3 1834.2 840203
3 1834.2 815658
3 1834.2 810176
3 1834.2 808263
3 1834.2 802370
3 1834.2 793604
3 1834.2 770457
3 1834.66 769468
3 1835.17 766546
3 1835.17 762277
3 1848.15 858886
3 1848.15 843857
3 1848.15 841520
3 1848.15 837424
3 1848.15 830741
3 1848.15 828662
3 1848.15 827878
3 1848.62 827432
3 1848.62 821987
3 1848.62 819684
3 1848.62 812682
3 1848.62 808890
3 1848.62 807974
3 1848.62 799655
3 1848.62 794547
3 1849.1 787921
3 1849.1 785584
3 1849.4 782060
3 1849.7 781042
3 1849.7 780134
3 1849.7 777831
3 1850.04 777355
3 1850.04 773967
3 1850.19 771507
3 1850.57 767284
3 1862.14 845157
3 1862.14 840888
3 1862.14 836874
3 1862.14 826452
3 1862.14 824115
3 1862.14 812322
3 1862.51 810588
3 1862.51 803496
3 1862.51 796813
3 1862.84 794839
3 1862.84 794285
3 1862.84 791982
3 1862.84 790276
3 1863.17 783364
3 1863.17 774562
3 1863.17 772259
3 1863.47 771633
3 1864.37 767091
3 1868.34 762762
3 1876.06 879944
3 1876.06 836988
3 1876.06 825675
3 1876.06 823338
3 1876.06 819950
3 1876.06 812087
3 1876.37 796131
3 1876.37 795258
3 1876.37 784397
3 1876.83 783105
3 1876.83 782759
3 1876.83 778574
3 1876.83 774646
3 1876.83 770104
3 1877.04 769854
3 1890.04 881457
3 1890.04 880858
3 1890.04 876316
3 1890.04 814454
3 1890.04 806774
3 1890.04 803632
3 1890.04 796973
3 1890.04 796228
3 1890.36 779730
3 1890.36 778123
3 1890.36 776087
3 1890.36 771545
3 1890.36 770808
3 1890.6 769428
3 1890.6 767091
3 1893.38 766286
3 1893.66 762762
3 1904.04 890859
3 1904.04 858843
3 1904.04 842809
3 1904.04 840705
3 1904.04 818572
3 1904.04 810363
3 1904.04 808311
3 1904.04 794407
3 1904.04 785349
3 1904.04 785167
3 1904.43 783615
3 1904.43 778255
3 1904.43 776736
3 1904.43 775952
3 1904.43 774626
3 1905.87 771728
3 1905.87 770457
3 1905.87 768070
3 1906.1 762831
3 1906.1 762277
3 1918.04 814007
3 1918.04 802464
3 1918.04 800945
3 1918.04 800237
3 1918.04 800161
3 1918.04 799421
3 1918.26 796148
3 1918.26 782194
3 1918.26 780628
3 1919.85 772776
3 1919.85 772763
3 1921.5 771733
3 1923.38 766135
3 1932.14 862833
3 1932.14 858691
3 1932.14 855921
3 1932.14 840868
3 1932.14 817643
3 1932.14 815306
3 1932.51 810764
3 1932.51 808453
3 1932.51 788301
3 1932.51 787403
3 1932.83 781226
3 1932.83 779707
3 1932.83 779466
3 1946.15 834715
1 1946.15 812627
3 1946.15 795707
3 1946.15 783184
3 1946.15 775715
3 1946.15 772230
3 1946.15 771446
3 1946.62 767544
3 1947.99 763572
3 1948.26 760087
3 1948.53 759303
3 1960.01 843448
3 1960.01 841592
3 1960.01 841177
3 1960.01 841143
3 1960.01 830609
3 1960.01 830369
3 1960.01 826114
3 1960.01 824226
3 1960.38 791327
3 1960.38 790962
3 1960.38 775235
3 1960.38 773434
3 1960.38 764701
3 1960.38 762364
3 1960.72 757822
3 1974.01 934537
3 1974.01 904510
3 1974.01 889703
3 1974.01 879455
3 1974.01 874933
3 1974.01 847432
3 1974.01 846441
3 1974.01 831342
3 1974.01 811311
3 1974.01 790261
3 1974.01 789926
3 1974.01 789707
3 1974.45 780121
3 1974.7 773209
3 1974.7 767091
3 1975.75 766286
3 1976.05 762762
3 1988.22 982665
3 1988.22 908457
3 1988.22 882847
3 1988.22 864311
3 1988.22 844749
3 1988.22 819030
3 1988.22 808565
3 1988.22 806471
3 1988.22 792609
3 1988.64 790875
3 1988.92 787103
3 1988.92 786565
3 1989.18 770140
3 1989.62 767004
3 1989.62 764701
3 1989.62 760159
3 1989.62 758011
3 1989.62 757822
3 2002.08 788690
3 2002.08 786667
3 2002.08 783896
3 2002.08 782923
3 2002.08 778818
3 2002.08 774563
3 2016.13 860275
3 2016.13 858541
3 2016.13 852001
3 2016.13 849698
3 2016.13 824071
3 2016.13 817550
3 2016.13 797732
3 2016.13 795614
3 2016.13 794095
3 2016.13 793167
3 2016.55 791283
3 2016.55 787589
3 2017.61 780463
3 2017.61 771633
3 2017.61 767091
3 2018.82 766286
3 2018.98 762762
3 2030.12 858620
3 2030.12 853306
3 2030.12 843717
3 2030.12 821190
3 2030.12 810401
3 2030.48 799442
3 2030.48 791794
3 2030.77 787449
3 2044.08 838170
3 2044.08 829828
3 2044.08 822916
3 2044.08 821864
3 2044.08 817322
3 2044.08 809690
3 2044.49 805526
3 2044.49 803189
3 2044.49 801210
3 2044.49 771728
3 2045.07 767186
3 2045.07 757822
3 2058.13 863305
3 2058.13 824167
3 2058.13 823436
3 2058.13 808445
3 2058.13 799550
3 2058.13 797213
3 2058.13 790152
3 2058.13 788514
3 2058.13 787765
3 2058.13 783469
3 2058.13 781166
3 2058.53 779307
3 2058.53 772259
3 2059.32 770140
3 2059.58 767017
3 2059.86 764714
3 2072.03 964951
3 2072.03 932803
3 2072.03 916847
3 2072.03 914510
3 2072.03 884483
3 2072.03 865941
3 2072.03 837449
3 2072.03 828148
3 2072.03 791791
3 2072.03 790261
3 2072.28 787589
3 2072.28 787250
3 2072.46 786744
3 2072.61 786266
3 2072.61 783865
3 2072.78 781562
3 2086.1 873627
3 2086.1 866671
1 2086.1 843424
3 2086.1 837160
3 2086.1 834106
3 2086.1 826799
3 2086.1 825619
3 2086.1 820024
3 2086.1 815482
3 2086.5 811056
3 2086.5 795034
3 2086.5 792731
3 2086.5 781119
3 2087.38 779769
3 2087.38 776754
3 2087.67 776287
3 2088.46 774417
3 2088.72 773908
3 2100.03 894863
3 2100.03 873261
3 2100.03 865286
3 2100.03 844888
3 2100.03 829828
3 2100.03 822916
3 2100.03 798780
3 2100.28 795053
3 2100.28 786744
3 2100.28 785261
3 2100.6 776736
3 2100.6 775952
3 2100.6 774978
3 2100.6 774626
3 2114.04 904534
3 2114.04 851543
3 2114.04 833226
3 2114.04 803489
3 2114.04 792354
3 2114.04 789438
3 2114.04 783099
3 2114.04 779490
3 2114.3 775600
3 2114.3 774774
3 2114.3 773469
3 2114.63 760125
3 2114.63 757822
3 2128.02 890361
3 2128.02 875332
3 2128.02 855865
3 2128.02 816727
3 2128.02 812458
3 2128.02 803510
3 2128.02 794814
3 2128.02 789918
3 2128.57 781694
3 2129.13 776940
3 2129.34 774922
3 2129.54 774603
3 2130.47 774138
3 2130.47 771057
3 2142.14 866190
3 2142.14 849464
3 2142.14 838347
3 2142.14 822391
3 2142.14 813553
3 2142.14 812999
3 2142.14 800269
3 2142.14 796474
3 2142.14 790811
3 2142.53 790421
3 2142.81 790040
3 2142.81 790027
3 2146.26 785879
3 2156.12 885086
3 2156.12 883352
3 2156.12 867290
3 2156.12 860378
3 2156.12 853543
3 2156.12 846666
3 2156.12 838609
3 2156.12 835389
3 2156.12 823441
3 2156.12 813254
3 2156.12 808295
3 2156.12 807126
3 2156.4 804614
3 2156.4 792988
3 2156.4 782740
3 2157.62 780283
3 2157.79 777980
3 2170.2 833937
3 2170.2 833119
3 2170.2 818128
3 2170.2 812042
3 2170.2 810853
3 2170.2 810299
3 2170.2 806421
3 2170.2 799329
3 2170.2 785985
3 2170.2 783682
3 2170.6 782864
3 2170.6 777158
3 2170.6 775952
3 2170.6 774626
3 2170.96 767100
3 2170.96 766546
3 2170.96 762277
3 2184.02 884555
3 2184.02 882509
3 2184.02 872501
3 2184.02 852480
3 2184.02 851061
3 2184.02 830011
3 2184.02 825469
3 2184.28 818767
3 2184.52 810865
3 2184.52 808368
3 2184.7 797626
1 2188.2 794799
3 2188.2 792496
1 2189.1 788301
3 2189.47 785998
3 2189.47 785444
3 2189.85 778833
3 2189.85 776496
3 2189.85 773637
3 2189.85 772021
3 2189.85 770827
3 2190.25 769521
3 2198.13 815268
3 2198.13 798031
3 2198.13 787689
3 2198.13 781483
3 2198.13 772763
3 2199.76 771733
3 2200.15 767494
3 2200.35 766135
3 2200.56 761593
3 2212.25 846436
3 2212.25 825386
3 2212.25 807754
3 2212.25 803125
3 2212.25 803112
3 2212.25 792864
3 2212.25 790788
3 2212.25 784282
3 2212.25 780658
3 2212.64 780252
3 2212.64 779705
3 2212.64 778029
3 2212.64 777866
3 2213.14 777808
3 2213.14 777720
3 2213.14 770860
3 2213.92 768206
3 2213.92 767905
3 2214.14 765602
3 2214.3 763284
3 2214.3 760426
3 2214.3 758742
3 2226.02 886349
3 2226.02 861527
3 2226.02 831950
3 2226.02 824624
3 2226.02 804599
3 2226.3 797118
3 2226.3 794200
3 2226.3 793112
3 2226.54 791560
3 2226.54 790365
3 2226.54 789232
3 2226.54 787803
3 2226.54 786242
3 2226.54 785167
3 2226.54 778255
3 2226.54 776736
3 2226.54 774626
3 2240.11 813562
3 2240.11 803592
3 2240.11 800465
3 2240.11 800118
3 2240.11 799274
3 2240.11 792176
3 2240.11 790511
3 2240.36 788174
3 2240.36 788124
3 2240.36 788111
3 2240.36 768821
3 2240.36 767302
3 2240.36 765145
3 2240.63 762266
3 2240.63 761979
3 2240.63 761612
3 2240.9 761139
3 2254.14 848992
3 2254.14 819573
3 2254.14 815526
3 2254.14 803408
3 2254.14 791883
3 2254.14 789400
3 2254.14 783951
3 2254.51 777039
3 2254.51 771814
3 2254.51 767545
3 2255.1 762277
3 2268.09 853099
3 2268.09 832049
3 2268.09 827530
3 2268.09 822441
3 2268.09 822343
3 2268.09 822330
3 2268.09 820609
3 2268.09 805580
3 2268.09 801038
3 2268.43 794713
3 2268.61 792410
3 2270.27 789025
3 2270.27 787506
3 2270.59 786254
3 2270.59 784257
3 2270.59 777268
3 2270.9 776177
3 2271.97 774503
3 2277.01 769032
3 2277.01 764763
3 2282.09 813927
3 2282.09 791689
3 2282.09 788208
3 2282.09 787147
3 2282.09 786623
3 2282.09 778055
3 2282.09 771728
3 2282.09 770667
3 2282.33 768281
3 2282.33 766762
3 2282.33 765978
3 2282.33 765965
3 2296.02 841143
3 2296.02 798711
3 2296.02 790962
3 2296.34 785297
3 2296.34 784339
3 2296.34 783148
3 2296.34 782755
3 2296.34 782524
3 2296.34 780221
3 2296.34 774091
3 2296.34 772975
3 2296.71 771728
3 2296.71 767186
3 2298.08 765891
3 2298.4 765337
3 2298.4 762277
3 2310.16 857852
3 2310.16 854185
3 2310.16 832126
3 2310.16 825214
3 2310.16 806897
3 2310.5 791433
3 2311.58 778808
3 2311.58 777218
3 2311.87 774881
1 2324.14 848661
3 2324.14 846678
3 2324.14 824336
3 2324.14 821180
3 2324.14 820094
3 2324.14 815552
3 2324.14 802205
3 2324.14 783536
3 2324.14 774772
3 2324.64 772965
3 2324.64 772952
3 2324.64 770584
3 2324.64 769430
3 2325.05 768048
3 2325.91 767769
3 2325.91 767756
3 2338.16 897221
3 2338.16 878904
3 2338.16 812178
3 2338.16 794119
3 2338.16 791139
3 2338.16 790585
3 2338.16 783286
3 2338.16 781637
3 2338.16 777368
3 2338.49 766521
3 2338.49 764232
3 2338.49 763678
3 2338.49 761511
3 2338.49 761139
3 2352.14 906432
3 2352.14 904095
3 2352.14 850252
3 2352.14 822409
3 2352.14 821855
3 2352.14 815196
3 2352.14 798291
3 2352.14 789926
3 2352.14 789707
3 2352.4 773970
3 2352.4 773209
3 2352.4 769428
3 2352.58 767091
3 2355.66 762762
3 2366.01 872544
3 2366.01 861177
3 2366.01 837704
3 2366.01 832603
3 2366.01 826178
3 2366.01 797220
3 2366.24 794612
3 2366.42 787639
3 2366.42 784117
3 2366.42 783664
3 2366.42 781686
3 2366.42 780918
3 2366.42 780145
3 2366.42 774944
3 2366.42 755784
3 2366.64 750737
3 2380.12 906569
3 2380.12 855690
3 2380.12 827071
3 2380.12 814179
3 2380.12 811842
3 2380.44 801027
3 2380.7 796813
3 2380.7 783469
3 2380.7 781166
3 2381.11 776999
3 2381.11 772259
3 2381.28 770694
3 2381.28 764714
3 2394.02 819523
3 2394.02 797031
3 2394.02 790119
3 2394.02 787288
3 2394.02 786744
3 2394.4 774626
3 2408.18 864716
3 2408.18 832700
3 2408.18 831333
3 2408.18 806943
3 2408.18 802401
3 2408.18 800064
3 2408.18 787093
3 2408.47 783877
3 2408.47 782844
3 2408.47 780170
3 2408.47 774124
3 2422.11 854978
3 2422.11 836661
3 2422.11 820705
3 2422.11 808373
3 2422.11 796025
3 2422.11 793344
3 2422.11 789113
3 2422.48 788904
3 2422.77 784362
3 2423.06 784295
3 2423.06 784282
3 2423.32 779609
3 2423.32 775067
3 2436.24 823553
3 2436.24 803066
3 2436.24 789905
3 2436.24 787602
3 2436.24 787250
3 2436.63 786744
3 2436.63 786394
3 2436.63 774626
3 2450.12 865391
3 2450.12 860180
3 2450.12 858661
3 2450.12 841752
3 2450.12 818235
3 2450.12 814611
3 2450.12 813244
3 2450.12 783127
3 2450.12 775773
3 2450.12 773412
3 2450.12 771504
3 2450.39 769977
3 2450.39 766560
3 2453.37 765836
3 2464.23 847335
3 2464.23 821808
3 2464.23 813539
3 2464.23 804484
3 2464.23 803700
3 2464.23 788045
3 2464.23 785708
3 2464.62 784279
3 2464.62 781166
3 2465.1 779171
3 2465.26 778685
3 2465.42 775600
3 2465.42 765066
3 2465.42 760524
3 2465.42 758187
3 2465.59 757822
3 2478.09 934693
3 2478.09 881702
3 2478.09 877160
3 2478.09 857329
3 2478.09 834837
3 2478.09 820324
3 2478.09 816520
3 2478.09 808244
3 2478.09 803040
3 2478.09 799930
3 2478.09 798550
3 2478.09 792564
3 2478.09 776087
3 2478.35 773750
3 2478.51 770088
3 2478.51 769208
3 2478.99 768433
3 2478.99 767284
3 2492.17 856872
3 2492.17 826845
3 2492.17 811638
3 2492.17 800849
3 2492.17 795744
3 2492.17 791489
3 2492.17 782769
3 2492.17 769956
3 2492.17 767653
3 2492.17 764547
3 2492.49 758269
3 2492.49 755966
3 2492.49 753600
3 2492.74 753189
3 2492.74 752318
3 2493.07 751697
3 2506.19 886565
3 2506.19 884228
3 2506.19 826695
3 2506.19 804599
3 2506.19 801660
3 2506.19 801321
3 2506.19 799018
3 2506.19 792231
3 2506.58 780463
3 2506.58 778255
3 2506.58 775952
3 2506.88 774626
3 2520.05 936658
3 2520.05 936495
3 2520.05 931311
3 2520.05 915608
3 2520.05 904908
3 2520.05 898225
3 2520.05 879908
3 2520.05 876284
3 2520.05 872368
3 2520.05 820926
3 2520.05 816384
3 2520.05 795224
3 2520.65 774326
3 2520.65 773772
3 2534.06 875172
3 2534.06 865777
3 2534.06 861508
3 2534.06 851543
3 2534.06 819527
3 2534.06 819492
3 2534.06 814985
3 2534.06 796668
3 2534.06 786762
3 2534.06 781182
3 2534.37 779663
3 2534.37 778879
3 2534.37 772528
3 2534.61 770457
3 2534.61 769468
3 2534.77 762831
3 2534.77 762277
3 2548.09 920735
3 2548.09 888719
3 2548.09 881807
3 2548.09 863490
3 2548.09 840432
3 2548.09 838129
3 2548.09 830187
3 2548.09 811804
3 2548.34 811515
3 2548.34 802897
3 2548.34 791032
3 2548.34 790167
3 2548.34 789546
3 2548.55 787765
3 2548.55 772851
3 2548.55 767186
3 2548.88 758011
3 2549.03 757822
3 2562.04 862474
3 2562.04 860143
3 2562.04 835563
3 2562.04 831021
3 2562.04 828684
3 2562.04 812137
3 2562.04 805225
3 2562.31 803649
3 2562.31 799107
3 2562.31 783462
3 2562.31 781943
3 2562.5 781159
3 2562.66 769208
3 2562.66 768471
3 2562.83 767091
3 2564.14 762762
3 2576.08 830918
3 2576.08 828615
3 2576.08 823224
3 2576.08 823161
3 2576.08 820824
3 2576.08 809878
3 2576.08 805833
3 2576.08 803304
3 2576.08 797101
3 2576.49 797088
3 2576.49 796439
3 2576.49 767302
3 2576.73 765145
3 2576.73 764316
3 2576.73 763476
3 2576.73 761426
3 2576.73 761139
3 2590.05 875045
3 2590.05 863869
3 2590.05 859630
3 2590.05 830497
3 2590.05 818265
3 2590.05 817094
3 2590.05 796044
3 2590.05 796031
3 2590.05 767566
3 2590.39 766976
3 2590.39 766707
3 2590.39 766425
3 2590.9 764927
3 2590.9 762624
3 2604.07 891353
3 2604.07 879959
3 2604.07 879405
3 2604.07 851901
3 2604.07 837838
3 2604.07 824257
3 2604.07 824244
3 2604.07 809627
3 2604.07 805927
3 2604.07 804408
3 2604.46 802071
3 2604.46 801144
3 2604.78 798797
3 2604.78 798531
3 2604.95 798399
3 2604.95 786281
3 2604.95 783978
3 2618.13 877238
3 2618.13 869836
3 2618.13 851519
1 2618.13 849974
3 2618.13 835070
3 2618.13 831446
3 2618.13 816773
3 2618.13 814436
3 2618.13 807812
3 2618.53 804514
3 2618.53 791703
3 2618.53 790119
3 2618.53 789400
3 2618.87 784520
3 2618.87 784165
3 2619.15 777901
3 2619.15 777888
3 2619.15 766961
3 2619.15 762750
3 2619.47 759529
3 2619.47 756399
3 2632.08 847278
3 2632.08 837270
3 2632.08 828550
3 2632.08 826247
3 2632.28 816244
3 2632.28 811702
3 2632.28 810920
3 2632.28 794433
3 2632.28 794420
3 2632.28 784413
3 2632.65 781968
3 2632.65 780408
3 2633.16 770160
3 2646.12 868893
3 2646.12 868275
3 2646.12 866125
3 2646.12 851134
3 2646.12 823291
3 2646.12 808262
3 2646.12 788513
3 2646.12 786176
3 2646.12 784895
3 2646.51 778439
3 2646.51 777245
3 2646.75 765904
3 2646.75 762634
3 2647.13 759628
3 2660.07 875958
3 2660.07 874785
1 2660.07 846759
3 2660.07 823292
3 2660.07 816380
3 2660.07 809756
3 2660.07 801170
3 2660.07 795757
3 2660.39 791488
3 2660.39 790934
3 2660.58 785198
3 2660.78 783915
3 2661.8 783649
3 2661.8 780480
3 2662.08 779988
3 2662.08 778662
3 2662.86 777822
3 2662.86 777268
3 2662.86 774132
3 2662.86 771829
3 2663.17 767287
3 2663.17 764950
3 2674.08 895883
3 2674.08 895629
3 2674.08 875138
3 2674.08 847295
3 2674.08 827189
3 2674.08 821844
3 2674.08 820485
3 2674.08 818182
3 2674.08 800836
3 2674.08 796776
3 2674.08 794439
3 2674.08 784880
3 2674.56 784354
3 2675.19 783941
3 2688.14 908289
3 2688.14 887239
3 2688.14 856756
3 2688.14 848101
3 2688.14 810216
3 2688.14 785892
3 2688.14 785248
3 2688.14 782861
3 2688.51 780706
3 2688.51 779366
3 2688.8 778369
1 2691.27 777400
3 2691.27 775097
3 2691.58 767156
3 2691.58 763410
3 2691.58 763352
3 2691.89 760349
3 2702.08 798792
3 2702.08 797811
3 2702.08 793542
3 2702.08 791239
3 2702.08 787840
3 2702.08 784020
3 2702.08 780396
3 2702.61 773772
3 2716.11 849372
3 2716.11 849359
3 2716.11 844817
3 2716.11 833577
3 2716.11 829237
3 2716.11 826684
3 2716.11 825722
3 2716.11 809012
3 2716.11 808577
3 2716.53 802720
3 2716.53 796907
3 2716.53 796627
3 2716.84 795114
1 2720.09 790682
3 2720.09 790510
3 2720.09 787375
3 2720.09 786427
3 2720.09 782908
3 2720.43 775147
3 2720.43 774124
1 2730.09 947020
3 2730.09 932324
3 2730.09 910745
3 2730.09 910709
3 2730.09 906440
3 2730.09 833651
3 2730.44 819675
3 2730.74 819121
3 2731.31 803556
1 2738.27 801708
3 2738.57 792806
3 2738.57 790510
3 2738.57 787728
3 2738.88 786209
3 2738.88 785968
3 2739.11 778858
3 2739.11 777432
3 2739.11 771946
3 2744.12 947956
3 2744.12 940554
3 2744.12 937030
3 2744.12 934693
3 2744.12 906604
3 2744.12 905116
3 2744.12 875089
3 2744.12 850417
1 2744.12 809139
3 2744.12 790693
3 2744.12 779112
3 2744.36 777660
3 2758.17 831397
3 2758.17 816406
3 2758.17 803853
3 2758.17 799952
3 2758.17 797789
3 2758.17 795486
3 2758.53 793187
3 2758.53 791217
3 2758.53 790261
3 2758.88 789926
3 2758.88 785384
3 2758.88 780121
3 2759.45 773209
3 2759.73 771633
3 2761.22 767091
3 2761.49 766286
3 2761.79 762762
3 2772.09 828795
3 2772.09 817248
3 2772.09 805092
3 2772.09 793217
3 2772.09 792601
3 2772.09 780662
3 2772.34 780649
3 2772.49 778979
3 2772.49 775498
3 2772.66 766778
3 2772.81 766421
3 2772.81 763023
3 2786.04 807882
3 2786.04 807328
3 2786.04 803691
3 2786.04 803197
3 2786.41 794971
3 2786.41 789472
3 2786.41 788690
3 2786.65 788136
3 2789.18 777884
3 2789.37 775157
3 2789.76 774652
3 2789.76 772349
query_times: 12
Score = 751763
