    Blocking waiting for file lock on package cache
    Finished `release` profile [optimized] target(s) in 0.03s
     Running `target/release/tester ../a.out 0099`
3 0.022 949439
3 0.022 941329
3 0.022 935320
3 0.022 934192
3 0.022 932406
3 0.022 930144
3 0.022 923791
3 0.022 921979
3 0.432 914271
3 0.799 910872
3 0.799 905647
3 14.195 1001627
3 14.195 992440
3 14.195 989099
3 14.195 985201
3 14.195 980915
3 14.195 953376
3 14.195 952248
3 14.57 950648
3 14.57 944352
3 28.156 1010408
3 28.156 1001793
3 28.156 1000665
3 28.156 989681
3 28.156 980368
3 28.156 971103
3 28.156 970802
3 28.156 966516
3 28.156 958674
3 28.156 955384
3 28.546 954550
3 28.546 952436
3 28.755 943427
3 28.755 942299
3 28.755 938797
3 28.989 936926
3 28.989 936625
3 42.127 993233
3 42.127 955547
3 42.127 950556
3 42.127 947324
3 42.127 943319
3 42.411 941895
3 42.411 940109
3 42.411 939295
3 42.411 938994
3 42.665 938797
3 42.846 938054
3 42.846 937753
3 43.046 936625
3 56.122 985666
3 56.122 961950
3 56.122 957654
3 56.122 945240
3 56.122 944655
3 56.402 941212
3 56.402 940933
3 56.402 936926
3 56.609 936625
3 70.078 1051145
3 70.078 1042132
3 70.078 1032945
3 70.078 1025547
3 70.078 1008241
3 70.078 963379
3 70.078 961025
3 70.078 956837
3 70.078 954546
3 70.078 952410
3 70.388 950965
3 70.564 950664
3 70.741 937753
3 70.741 936625
3 84.122 1007019
3 84.122 1002733
3 84.122 990319
3 84.122 966642
3 84.122 963954
3 84.122 962060
3 84.122 961818
3 84.122 956619
3 84.122 952633
3 84.475 938994
3 84.653 937753
3 84.653 936625
3 98.121 1018645
3 98.121 980959
3 98.121 976377
3 98.121 972025
3 98.121 963012
3 98.121 961226
3 98.121 952611
3 98.121 948606
3 98.121 946826
3 98.471 944761
3 98.471 943633
3 98.471 938678
3 98.471 934365
1 100.736 933585
3 100.736 933284
3 112.093 959942
3 112.093 951310
3 112.093 941029
3 112.093 937145
3 112.093 932414
3 112.329 930440
3 112.329 929052
3 112.329 927824
3 112.329 923109
3 112.895 918709
3 112.895 918154
3 126.004 1033317
3 126.004 1017065
3 126.004 1008052
3 126.004 980458
3 126.004 971271
3 126.257 970970
3 126.257 965485
3 126.257 961179
3 126.257 960878
3 126.257 947994
3 126.257 939564
3 126.527 934365
1 138.797 933284
3 140.011 1021288
3 140.011 1017002
3 140.011 1016701
3 140.011 1001547
3 140.011 963861
3 140.011 950664
3 140.011 949536
3 140.43 948828
3 140.43 945240
3 140.43 936625
3 154.047 1008890
3 154.047 1005432
3 154.047 991793
3 154.047 979379
3 154.047 979078
3 154.047 970065
3 154.326 960878
3 154.976 945240
3 155.154 936625
3 168.015 986143
3 168.015 969891
3 168.015 954253
3 168.015 945240
3 168.253 937740
3 168.429 936625
3 182.098 1045883
3 182.098 1023497
3 182.098 1021050
3 182.098 1016764
3 182.098 1007577
3 182.098 979983
3 182.098 973825
3 182.098 959328
3 182.098 957192
3 182.098 952293
3 182.4 948007
3 182.4 947024
3 182.4 946485
3 182.4 944349
3 182.4 943221
3 182.4 939295
3 182.662 938994
3 182.662 936625
3 196.11 1027230
3 196.11 1010978
3 196.11 973292
3 196.11 960286
3 196.11 945698
3 196.11 941700
3 196.11 936501
3 196.361 934412
3 196.541 934365
1 207.163 933284
3 210.135 933512
3 210.135 930772
3 210.135 919969
3 210.135 919049
3 210.368 909744
3 224.028 1011137
3 224.028 1007207
3 224.028 998020
3 224.028 995884
3 224.028 986871
3 224.028 981672
3 224.028 978331
3 224.35 967961
3 224.35 961803
3 224.35 960527
3 224.35 951408
3 224.605 948179
3 224.605 945698
3 224.605 944904
3 224.605 943118
3 224.605 942980
3 224.841 937570
3 225.014 934365
1 234.354 933284
3 238.105 978898
3 238.105 974612
3 238.105 974311
3 238.105 948596
3 238.347 946132
3 238.347 943198
3 238.534 940911
3 238.716 936625
3 252.025 973553
3 252.025 964148
3 252.025 960858
3 252.025 955887
3 252.025 946700
3 252.025 943996
3 252.025 942454
3 252.025 939164
3 252.36 938797
3 252.36 937740
3 252.36 936625
3 266.145 1020531
3 266.145 1019403
3 266.145 981717
3 266.145 957464
3 266.145 941212
3 266.145 940911
3 266.145 936625
3 280.041 1029544
3 280.041 1025258
3 280.041 1009006
3 280.041 999993
3 280.041 998865
3 280.041 983227
3 280.041 981672
3 280.041 945541
3 280.041 938797
3 280.361 937753
3 280.361 936625
3 294.083 996940
3 294.083 996183
3 294.083 982544
3 294.083 959532
3 294.083 954950
3 294.083 943944
3 294.083 942158
3 294.083 941030
3 294.717 940911
3 294.717 939164
3 294.918 936625
3 308.076 1009852
3 308.076 1000665
3 308.076 1000364
3 308.076 987950
3 308.076 951379
3 308.076 950645
3 308.076 937740
3 308.076 936625
3 322.007 975070
3 322.007 968485
3 322.007 968184
3 322.007 959171
3 322.007 955694
3 322.007 947024
3 322.007 943280
3 322.302 938994
3 322.478 938797
3 322.478 936625
1 336.06 1070607
3 336.06 1066602
3 336.06 1023727
3 336.06 1022303
3 336.06 1008664
3 336.06 1004378
1 336.314 981320
1 336.314 977951
3 336.314 977756
3 336.314 976628
3 336.314 967615
3 336.699 966261
3 336.699 964189
3 336.699 962403
3 336.908 959113
3 336.908 958434
3 336.908 955108
3 337.111 954148
3 337.285 953847
3 337.464 951628
3 337.464 948338
3 337.682 946914
3 337.682 945921
3 347.919 945217
3 347.919 944812
3 347.919 943026
3 348.565 942023
3 350.052 1009434
3 350.052 1007298
3 350.052 1005874
3 350.052 973645
3 350.306 951951
3 364.132 1031144
3 364.132 1008758
1 364.132 992734
3 364.132 983721
3 364.132 982593
3 364.378 974686
3 364.378 974385
3 364.378 970241
3 364.378 962403
3 364.378 960276
3 364.378 958398
3 364.378 955108
3 364.378 950971
3 364.378 947707
3 364.682 945921
3 378.072 1002286
3 378.072 998281
3 378.072 986509
3 378.072 985381
3 378.072 979256
3 378.072 978559
3 378.072 950965
3 378.072 949837
3 378.072 945541
3 378.072 936926
3 378.439 936625
3 392.071 1046597
3 392.071 1030265
3 392.071 1021846
3 392.071 1012594
3 392.071 1009740
3 392.318 977511
3 392.318 973225
3 392.318 972924
3 392.318 956672
3 406.149 974229
3 406.149 961564
3 406.149 952949
3 406.149 951525
3 406.149 947520
3 406.149 947003
3 406.149 935566
3 406.149 926553
3 406.149 921354
3 406.447 918274
3 406.447 909659
3 406.447 909358
3 406.971 907157
3 406.971 904048
3 407.17 901721
3 409.103 899835
3 420.042 978259
3 420.042 964620
3 420.042 960909
3 420.042 940073
3 420.042 935787
3 420.042 926669
3 420.042 926600
3 420.342 917747
3 420.342 917208
3 420.342 916619
3 434.084 943957
3 434.084 930895
3 434.084 924515
3 434.084 920229
3 434.084 911614
3 434.084 907609
3 434.305 899775
3 434.305 898304
3 434.79 897384
3 434.79 897083
3 434.79 895230
3 434.79 891935
3 434.79 890763
3 448.002 971137
3 448.002 958723
3 448.002 949536
3 448.002 948269
3 448.002 945999
3 448.243 935951
3 448.243 934527
3 448.446 933585
3 448.446 933284
1 456.396 932972
3 456.396 932124
3 456.591 927677
3 456.591 926253
1 459.343 925293
3 460.676 924282
3 460.676 922146
3 462.027 1007083
3 462.027 998468
3 462.027 996682
3 462.243 964649
3 462.243 962551
3 462.243 962459
3 462.459 948325
3 462.459 946901
3 462.459 943611
3 476.095 1021517
3 476.095 995353
3 476.095 990154
3 476.095 981141
3 476.095 967502
3 476.095 965366
3 476.095 962307
3 476.095 962006
3 476.367 960527
3 476.367 944668
3 476.367 943221
3 476.546 939295
3 476.546 938054
3 476.546 937753
3 476.546 936625
3 490.074 966527
3 490.074 950195
3 490.074 948420
3 490.074 947643
3 490.074 937763
3 490.074 933821
3 490.074 927781
3 490.074 926653
3 490.318 925412
3 490.318 923800
3 490.318 923420
3 490.476 923372
3 490.476 922292
3 504.067 962347
3 504.067 959767
3 504.067 933334
3 504.067 932408
3 504.067 928235
3 504.067 928118
3 504.067 922596
3 504.067 918591
3 504.627 916917
3 504.627 914781
3 504.627 912995
3 505.596 912069
3 505.596 912041
3 505.596 911740
3 505.792 909328
3 505.792 907735
3 519.14 952225
3 519.14 944063
3 519.14 942980
3 519.14 938975
3 519.14 933776
3 519.14 931007
3 519.14 924202
3 519.765 918425
3 519.765 911461
3 519.765 909291
3 519.765 907456
3 520.336 904007
3 520.336 903170
3 532.065 1050844
3 532.065 1023250
3 532.065 1001730
3 532.065 992543
3 532.065 983530
3 532.065 966224
3 532.065 963078
3 532.065 950664
3 532.065 949373
3 532.065 947984
3 532.403 946940
3 532.403 943599
3 532.403 942471
3 533.098 941895
3 533.098 938994
3 533.277 937753
3 533.277 936625
1 545.218 933781
3 545.404 933459
3 545.404 929454
3 546.009 1040211
3 546.009 1028255
3 546.009 1010949
3 546.009 1002124
3 546.009 1000996
3 546.009 985380
3 546.009 968074
3 546.009 958887
3 546.009 956751
3 546.327 949837
3 546.327 934365
3 560.094 935450
3 560.094 928235
3 560.094 922410
3 560.094 914811
3 560.094 913683
3 560.359 907580
3 560.359 906156
3 560.789 904020
3 560.789 899734
3 574.147 976691
3 574.147 976531
3 574.147 967226
3 574.147 954305
3 574.147 947685
3 574.366 940614
3 574.366 940133
3 574.366 931309
3 574.591 927304
3 574.765 921818
3 574.765 917208
3 574.963 916701
3 574.963 916619
3 588.023 967380
3 588.023 946923
3 588.023 943155
3 588.023 933968
3 588.023 933009
3 588.023 930760
3 588.023 924243
1 588.023 915589
3 588.271 915342
3 588.271 914165
3 588.271 910875
3 602.109 999460
3 602.109 997324
3 602.109 988137
3 602.109 977903
3 602.109 970831
3 602.109 965632
3 602.109 960222
3 602.109 957007
3 602.109 948577
3 602.402 946583
3 602.402 943378
3 602.402 934365
3 616.021 976155
3 616.021 975854
3 616.021 966841
3 616.021 957654
1 616.021 945912
3 616.021 944717
3 616.021 935412
3 616.021 935215
3 616.021 929606
3 616.021 927820
3 616.021 926934
3 616.021 926489
3 616.021 925065
3 616.021 923639
3 616.411 923561
3 616.411 922912
3 616.411 921265
3 616.411 916925
3 630.01 972453
3 630.01 956121
3 630.01 954799
3 630.01 953915
3 630.01 948658
3 630.01 946819
3 630.01 943108
3 630.01 918449
3 630.01 916663
3 630.01 912377
3 630.478 907422
3 630.661 904170
3 644.114 1024003
3 644.114 1014816
3 644.114 994546
3 644.114 985596
3 644.114 976981
3 644.114 976680
3 644.388 943221
3 644.567 941626
3 644.567 939295
3 644.567 938994
3 644.567 936625
3 658.149 1012511
3 658.149 980282
3 658.149 978146
3 658.149 974141
3 658.149 950751
3 658.149 938224
3 658.149 936800
1 670.2 922248
3 670.2 920176
3 670.2 919048
3 670.413 918434
3 670.413 913650
3 670.598 913235
3 670.598 912386
3 670.598 911258
3 670.825 910241
3 671.001 909122
3 672.076 1006829
3 672.076 1001989
3 672.076 998214
3 672.076 969460
3 672.076 968036
3 672.076 966250
3 672.076 964303
3 672.076 950664
3 672.076 949536
3 672.373 949264
3 672.373 936501
3 672.373 934412
3 672.577 934365
3 686.062 1002202
3 686.062 974721
3 686.062 970435
3 686.062 961248
3 686.062 960007
3 686.062 946368
3 686.062 937753
3 686.062 936625
3 700.146 1007207
3 700.146 990052
3 700.146 981039
3 700.146 972265
3 700.146 963078
3 700.146 961950
3 700.146 954546
3 700.146 952410
3 700.146 950664
3 700.146 949536
3 700.476 945240
3 700.652 939526
3 700.652 936926
3 700.652 936625
3 709.88 935567
3 710.057 934413
3 710.057 934112
3 710.057 929454
3 714.113 998020
3 714.113 986064
3 714.113 979342
3 714.113 965369
3 714.113 963078
3 714.113 961950
3 714.358 952554
3 714.358 951788
3 714.358 950664
3 714.589 949536
3 714.589 945240
3 714.795 939700
3 714.795 936625
1 719.883 935567
3 719.883 935354
3 719.883 933781
3 720.103 931787
3 720.273 929454
3 728.152 1020463
3 728.152 1016177
3 728.152 1007562
3 728.152 1007073
3 728.152 1006772
3 728.152 994358
3 728.454 976034
3 728.643 962459
3 728.83 956973
3 728.83 956672
3 742.043 1012746
3 742.043 1003559
3 742.043 994546
3 742.043 977240
3 742.043 950285
3 742.043 949984
3 742.321 945698
3 742.506 941700
3 742.506 936501
3 742.506 934365
3 756.039 1017431
3 756.039 1016540
3 756.039 1005755
3 756.039 1002641
3 756.039 993336
3 756.039 977574
3 756.039 968959
3 756.039 967535
3 757.47 963977
3 757.47 959694
3 757.682 950507
3 757.682 950461
3 757.682 947171
3 757.682 945109
3 757.682 943611
3 770.151 1025813
3 770.151 990312
3 770.151 976673
3 770.151 975867
3 770.151 970729
3 770.151 963898
3 770.151 958218
3 770.151 951484
3 770.151 942471
3 770.744 938994
3 771.083 937753
3 771.418 936625
3 784.016 963078
3 784.016 961950
3 784.016 945618
3 784.016 944550
3 784.016 925576
3 784.016 923986
3 784.016 923764
3 784.016 920764
3 784.34 912069
3 784.34 911577
3 785.364 910013
3 798.078 985380
3 798.078 976193
3 798.078 961950
3 798.078 949536
3 798.347 945240
3 798.347 936625
3 812.153 998073
3 812.153 981741
3 812.153 955561
3 812.153 952154
3 812.153 943454
3 812.459 931913
3 812.459 926655
3 812.459 926354
3 812.459 913342
3 812.459 912325
3 812.459 911197
3 812.459 910078
3 812.459 908744
3 812.459 908439
3 812.459 907320
3 812.772 907015
3 812.937 905998
3 812.937 904879
3 826.089 983088
3 826.089 981960
3 826.089 980536
3 826.089 969939
3 826.089 960632
3 826.089 951619
3 826.089 946940
3 826.402 943599
3 826.402 942471
3 826.604 933284
3 840.095 1002290
3 840.095 970390
3 840.095 964604
3 840.095 960308
3 840.095 960007
3 840.095 959771
3 840.095 954550
3 840.095 950264
3 840.541 936625
3 854.059 972481
3 854.059 970695
3 854.059 966409
3 854.059 957396
3 854.059 947862
3 854.059 939924
3 854.059 924838
3 854.059 924161
3 854.059 922915
3 854.059 921271
3 854.059 917436
3 854.059 915359
3 854.506 913102
3 854.663 908816
3 868.072 983054
3 868.072 978768
1 868.072 974805
3 868.072 970800
3 868.072 965020
3 868.072 958902
3 868.072 948938
3 868.072 946802
3 868.072 931148
3 868.072 924416
3 868.072 915403
3 868.435 910204
3 882.092 992571
3 882.092 978903
3 882.092 961597
3 882.092 957156
3 882.092 954885
3 882.092 953151
3 882.092 947950
3 882.436 945698
3 882.436 945240
3 882.647 939257
3 882.647 936625
3 896.082 990280
3 896.082 981267
3 896.082 980966
3 896.082 976680
3 896.341 968990
3 896.341 966854
3 896.341 965726
3 896.341 960527
3 896.599 943221
3 896.599 938994
3 897.275 937753
3 897.275 936625
3 910.029 1018936
3 910.029 976061
3 910.029 974517
3 910.029 973737
3 910.029 960098
3 910.029 956093
3 910.029 948179
3 910.029 942980
3 910.029 938994
3 910.52 936625
3 924.068 1046558
3 924.068 1030306
3 924.068 1002712
3 924.068 969444
3 924.068 968020
3 924.068 965026
3 924.068 960421
3 924.068 957224
3 924.459 956622
3 924.459 955381
3 924.459 955145
3 924.459 951826
3 924.459 950315
3 924.459 947244
3 924.459 946116
3 924.459 938360
3 924.459 937360
3 924.459 936501
3 924.807 934713
3 924.807 934412
3 924.807 934365
1 925.697 931957
3 925.697 927194
1 935.52 922730
3 935.705 920506
3 935.705 919082
3 938.162 1037302
3 938.162 1013049
3 938.162 1009708
3 938.162 1005422
3 938.162 996409
3 938.162 992932
3 938.162 976680
3 938.162 974311
3 938.162 969565
3 938.162 957609
3 938.162 952192
3 938.582 949837
3 938.582 945541
3 938.582 945240
3 938.582 938797
3 938.582 936625
3 952.142 991932
3 952.142 989796
3 952.142 969566
3 952.142 966633
3 952.142 966332
3 952.142 965657
3 952.142 964852
3 952.142 960566
3 952.142 951951
3 966.134 934874
3 966.134 933846
3 966.134 931364
3 966.134 931151
3 966.134 929015
3 966.358 922915
3 966.358 920377
3 966.566 915944
3 966.566 913033
3 966.566 908747
3 980.054 958364
3 980.054 958084
3 980.054 955948
3 980.054 947333
3 980.054 945172
3 980.054 944044
3 980.054 942668
3 980.054 941559
3 980.368 938360
3 980.368 936161
3 980.368 933946
3 980.588 932818
3 980.588 930625
3 980.588 929682
3 980.588 927179
3 980.588 922563
3 980.588 922163
3 980.588 910439
3 980.849 908524
3 994.121 987523
3 994.121 979376
3 994.121 977240
3 994.343 947609
3 994.343 942471
3 994.55 938994
3 994.55 937753
3 994.753 936625
3 1008.11 995330
3 1008.11 986143
1 1008.11 975668
3 1008.11 966655
3 1008.11 950403
3 1008.34 942965
3 1008.34 925314
3 1008.34 920625
3 1008.34 918631
1 1008.57 916128
3 1008.75 915078
3 1008.93 912456
3 1022.15 987893
1 1022.15 975049
3 1022.15 973263
3 1022.15 973099
3 1022.15 966065
3 1022.15 962850
3 1022.44 949726
3 1022.44 949211
3 1022.62 945921
3 1036.13 1050354
3 1036.13 1050053
3 1036.13 1048061
3 1036.13 1039446
3 1036.13 1007217
3 1036.13 1002945
3 1036.13 986693
3 1036.13 986392
3 1036.13 979765
3 1036.49 962459
3 1036.49 956672
3 1050.05 972219
3 1050.05 970433
3 1050.05 966147
3 1050.05 952508
1 1053.32 939295
3 1053.49 937871
3 1053.49 927461
3 1053.49 925649
3 1053.49 915485
3 1053.9 915341
3 1053.9 915085
3 1053.9 914357
3 1054.27 911496
3 1054.27 908949
3 1054.27 908619
3 1054.48 907668
3 1054.65 906540
3 1054.65 904754
3 1054.65 902849
3 1054.65 902745
3 1064.01 1019182
3 1064.01 983392
3 1064.01 975685
3 1064.01 974777
3 1064.01 965590
3 1064.01 951951
3 1078.09 952408
3 1078.09 952107
3 1078.09 941483
3 1078.09 936284
3 1078.09 926298
3 1078.36 924162
3 1078.36 907095
3 1078.36 899775
3 1078.69 895355
3 1078.69 895054
3 1078.87 894212
3 1078.87 890763
3 1092.08 952062
3 1092.08 941753
3 1092.08 931899
3 1092.08 922886
3 1092.08 918600
3 1092.08 916384
3 1092.08 909272
3 1092.08 907263
3 1092.08 904280
3 1092.38 904048
3 1092.38 900938
3 1092.58 899835
3 1106.01 955662
3 1106.01 940508
3 1106.01 933248
3 1106.01 932707
3 1106.01 932398
3 1106.01 928774
3 1106.01 928393
3 1106.32 927265
3 1106.65 920349
3 1106.65 916063
3 1106.65 910078
3 1106.65 904879
3 1120.12 1033317
3 1120.12 1017065
3 1120.12 1008052
3 1120.12 1007751
3 1120.12 998564
3 1120.12 970565
3 1120.12 962006
3 1120.44 959006
3 1120.44 946826
3 1120.44 941700
3 1120.44 936501
3 1120.44 934713
3 1120.73 934412
3 1120.92 934365
1 1131.57 934197
3 1131.57 933284
1 1131.78 927677
3 1131.78 927101
3 1131.78 926253
3 1134.01 986291
3 1134.01 984155
3 1134.01 969172
3 1134.01 967748
3 1134.01 964141
3 1134.01 940202
3 1134.01 925216
3 1134.33 920334
3 1134.51 919010
3 1134.51 918014
3 1134.51 912838
3 1134.51 911719
3 1134.51 910872
3 1134.72 907433
3 1134.72 905647
3 1148.15 996759
3 1148.15 987746
3 1148.15 973148
3 1148.15 960152
3 1148.15 959851
3 1148.41 955246
3 1148.41 953003
3 1148.41 948421
3 1148.41 948179
3 1148.41 938994
3 1148.41 937753
3 1148.67 936625
3 1162.13 988501
3 1162.13 986715
3 1162.13 984074
3 1162.13 964439
3 1162.13 963544
3 1162.13 945893
3 1162.13 938386
3 1162.13 937645
3 1162.13 932247
3 1162.45 915915
3 1162.62 913526
3 1162.8 908524
3 1176.08 987871
3 1176.08 982672
3 1176.08 978258
3 1176.08 977130
3 1176.08 960878
3 1176.08 959006
3 1176.37 953807
3 1176.37 951895
3 1176.37 943280
3 1176.37 938994
3 1176.58 937753
3 1176.76 936625
3 1190.1 1018564
3 1190.1 1004925
3 1190.1 992511
3 1190.1 983498
3 1190.1 980157
3 1190.1 947826
3 1190.1 942471
3 1190.45 938994
3 1191.25 937753
3 1191.25 936625
3 1204.07 1008138
3 1204.07 997479
3 1204.07 989187
3 1204.07 980174
3 1204.07 973606
3 1204.35 956300
3 1204.35 930944
3 1204.35 925823
3 1204.58 922618
3 1204.58 916442
3 1204.58 914692
3 1204.82 914150
3 1204.82 910949
3 1205.01 910268
3 1218.11 997838
3 1218.11 960152
3 1218.11 959851
1 1218.11 959727
3 1218.11 956289
3 1218.11 952616
3 1218.11 948057
3 1218.38 945921
3 1232.06 963808
3 1232.06 960518
3 1232.06 959094
3 1232.06 956958
3 1232.06 935264
3 1232.06 926251
3 1232.06 924393
3 1232.06 917064
3 1246.07 1031584
3 1246.07 1014278
3 1246.07 1000639
3 1246.07 993456
3 1246.07 955770
3 1246.07 951484
3 1246.37 942471
3 1246.56 938994
3 1246.74 936625
3 1260.05 1025452
3 1260.05 1016265
3 1260.05 1002626
3 1260.05 997671
3 1260.05 992273
3 1260.05 990678
3 1260.05 983658
3 1260.05 966352
3 1260.05 960958
3 1260.34 956672
3 1274.09 1059240
3 1274.09 1027011
3 1274.09 999417
3 1274.09 983165
3 1274.09 979728
3 1274.09 978670
3 1274.09 973978
3 1274.09 970529
3 1274.09 970145
3 1274.4 960958
3 1274.4 956672
1 1275.59 951506
3 1288.07 968184
3 1288.07 955770
3 1288.07 951484
3 1288.07 950501
3 1288.07 947024
3 1288.07 945538
3 1288.07 942069
3 1288.07 939295
3 1288.07 938994
3 1288.57 937753
3 1288.57 936625
3 1302.05 988895
3 1302.05 975256
3 1302.05 959006
3 1302.05 956870
3 1302.05 939564
3 1302.05 938698
3 1302.35 936501
3 1302.35 934412
3 1302.35 934365
3 1316.11 1047063
3 1316.11 1029938
3 1316.11 1028810
3 1316.11 1020253
3 1316.11 1011504
3 1316.11 996329
3 1316.11 982690
3 1316.11 972714
3 1316.11 970691
3 1316.47 969809
3 1316.47 969016
3 1316.47 965977
3 1316.47 963841
3 1322.04 952757
3 1322.04 951629
3 1322.04 943611
3 1330.1 964707
3 1330.1 960125
3 1330.1 951112
3 1330.1 950315
3 1330.1 945116
3 1330.1 943280
3 1330.1 938994
3 1330.39 936625
3 1344.1 994362
3 1344.1 975776
3 1344.1 971490
3 1344.1 964857
3 1344.1 961749
3 1344.1 958518
3 1344.1 954825
3 1344.38 940321
3 1344.38 938535
3 1344.38 930241
3 1344.38 926882
3 1344.61 925648
3 1344.61 924552
3 1344.61 923049
3 1344.82 909521
3 1344.82 909238
3 1345.17 908036
3 1345.17 907735
3 1358.02 985813
3 1358.02 983129
3 1358.02 974514
3 1358.02 945994
3 1358.02 945693
3 1358.02 931106
3 1358.02 926738
3 1358.02 917725
3 1358.02 917457
3 1358.36 915671
3 1358.54 914165
3 1358.54 910875
3 1372.09 1034604
3 1372.09 998687
3 1372.09 995397
3 1372.09 993261
3 1372.09 991475
3 1372.09 982462
3 1372.31 969204
3 1372.31 941752
3 1372.31 940598
3 1372.31 925176
3 1372.31 923752
3 1372.59 914939
3 1386.15 1025029
3 1386.15 1024776
3 1386.15 1019830
3 1386.15 1006191
3 1386.15 1004055
1 1386.15 1001457
3 1386.15 979763
1 1386.15 974565
3 1386.15 965950
3 1386.15 951469
3 1386.15 951168
3 1386.15 949744
3 1386.55 944545
3 1386.55 943345
3 1386.55 935671
3 1386.55 935532
3 1386.76 931246
3 1386.96 924660
3 1386.96 923185
3 1387.17 913880
3 1387.17 912456
3 1400.13 1044957
3 1400.13 1039758
3 1400.13 1030571
3 1400.13 1030031
3 1400.13 1028903
3 1400.13 1015401
3 1400.13 1001762
3 1400.13 973292
3 1400.13 962763
3 1400.13 961655
3 1400.43 955246
3 1400.43 945900
3 1400.43 945357
3 1400.66 943280
3 1400.66 938994
3 1400.87 937753
3 1400.87 936625
3 1414.09 1009344
3 1414.09 999508
3 1414.09 973836
3 1414.09 967279
3 1414.09 959438
3 1414.09 958014
3 1414.09 951027
3 1414.09 943081
3 1414.09 932108
3 1414.09 926909
3 1414.09 913270
3 1414.09 912174
3 1414.46 912106
3 1414.46 908916
3 1414.67 904170
3 1428.11 1015520
3 1428.11 1001881
3 1428.11 999745
3 1428.11 982439
3 1428.11 977240
3 1428.11 962006
3 1428.11 960878
3 1428.11 945240
3 1428.11 945035
3 1428.11 941030
3 1428.5 940911
3 1428.5 936625
3 1442.15 982598
3 1442.15 968959
3 1442.15 954296
3 1442.15 954222
3 1442.15 947845
3 1442.44 947171
3 1442.44 945747
3 1442.66 945109
3 1442.66 943840
3 1442.87 943611
3 1456.09 985466
3 1456.09 976279
3 1456.09 967266
3 1456.09 953627
3 1456.35 952508
1 1464.17 936018
3 1464.17 932881
3 1464.5 928758
3 1464.5 919571
3 1464.5 918274
3 1464.69 917973
3 1464.69 917775
3 1464.69 916462
3 1464.69 911496
3 1464.92 905032
3 1464.92 904048
3 1464.92 902849
3 1464.92 902745
3 1470.02 965614
3 1470.02 964328
3 1470.02 959545
3 1470.02 958417
3 1470.02 948741
3 1470.02 946639
3 1470.02 945728
3 1470.02 940773
3 1470.02 939250
3 1470.02 937924
3 1470.34 933579
3 1470.34 931812
3 1470.34 929676
3 1470.87 927645
3 1470.87 927353
3 1470.87 920280
3 1471.08 919152
3 1471.56 918497
3 1471.56 917929
3 1471.56 916801
3 1484.01 977171
3 1484.01 971972
3 1484.01 960206
3 1484.01 946298
3 1484.01 945813
3 1484.01 932304
3 1484.28 932133
3 1484.28 927304
3 1484.28 926934
3 1484.28 925806
3 1484.28 916619
3 1498.02 1023819
3 1498.02 1007487
3 1498.02 993848
3 1498.02 988450
3 1498.02 970033
3 1498.02 965747
3 1498.02 963149
3 1498.43 962457
3 1498.43 958452
1 1500.41 949007
3 1512.2 960641
3 1512.2 955686
3 1512.2 942047
3 1512.2 941833
3 1512.2 934072
3 1512.2 932648
3 1526.1 983799
3 1526.1 974612
3 1526.1 974311
3 1526.43 971701
3 1526.7 936625
3 1540.09 977116
3 1540.09 954165
3 1540.09 942393
3 1540.09 931734
3 1540.09 930606
3 1540.09 930305
3 1540.09 927005
3 1540.09 926680
3 1540.53 922929
3 1540.53 917776
3 1540.53 917730
3 1540.53 917182
3 1540.53 912075
3 1540.53 912025
3 1541.16 911983
3 1554.23 1003220
3 1554.23 1000851
3 1554.23 987212
3 1554.23 983808
3 1554.23 971852
3 1554.23 965465
3 1554.23 961179
3 1554.23 960878
3 1554.67 959434
3 1554.67 957654
3 1554.67 945698
3 1554.67 945240
3 1555.04 943996
3 1555.04 940950
3 1555.04 940911
3 1555.36 939526
3 1555.36 936735
3 1555.36 936625
1 1561.59 934465
3 1561.59 933938
3 1561.59 931725
3 1561.59 930466
3 1561.59 927176
3 1561.59 927129
3 1562 924953
3 1562.28 924680
3 1562.28 924652
3 1568.06 986432
3 1568.06 984646
3 1568.06 983272
3 1568.06 945408
3 1568.06 933309
3 1568.06 932170
3 1568.06 930656
3 1568.06 922041
3 1568.52 918036
3 1568.52 912837
3 1568.52 912028
3 1568.84 910676
3 1568.84 900438
3 1568.84 899664
3 1568.84 895049
3 1568.84 892498
3 1569.24 892197
3 1569.24 890763
3 1582.02 1010474
3 1582.02 996835
3 1582.02 996086
3 1582.02 981869
3 1582.02 970097
3 1582.02 968817
3 1582.39 959804
3 1582.39 957207
3 1582.39 950710
3 1582.39 949976
3 1582.39 944578
3 1582.39 942149
3 1582.39 925817
3 1582.83 921812
3 1596.11 977296
3 1596.11 960280
3 1596.11 959121
3 1596.11 957993
3 1596.11 956261
3 1596.11 945782
3 1596.11 938705
3 1596.11 926798
3 1596.11 918449
3 1596.53 917809
3 1596.81 915656
3 1597.08 911370
3 1597.08 910013
3 1610.07 1025669
3 1610.07 1016656
3 1610.07 989062
3 1610.07 984776
3 1610.07 979577
3 1610.07 970390
3 1610.07 963175
3 1610.07 957715
3 1610.07 953203
3 1610.07 948051
3 1610.07 934412
3 1610.4 934365
3 1624.13 989920
3 1624.13 986443
3 1624.13 984307
3 1624.13 983179
3 1624.13 974166
3 1624.13 968885
3 1624.13 964303
3 1624.13 950664
3 1624.13 946368
3 1624.46 940933
3 1624.46 938994
3 1624.85 937753
3 1625.03 936625
3 1638.17 1051402
3 1638.17 1019173
3 1638.17 1005534
3 1638.17 996347
3 1638.17 992061
3 1638.17 991611
3 1638.17 982996
3 1638.17 978491
1 1640.83 970376
3 1640.83 965831
3 1641.03 949579
3 1641.03 944147
3 1641.25 940857
3 1641.44 939071
3 1652.02 962747
3 1652.02 949357
3 1652.02 947571
3 1652.02 943031
3 1652.02 942864
3 1652.02 940479
3 1652.02 939351
3 1652.02 933053
3 1652.02 928785
3 1652.38 924225
3 1652.38 922439
3 1652.38 919889
3 1652.38 919494
3 1652.82 918883
3 1652.82 918368
3 1652.82 917240
3 1654.34 916820
3 1666.12 978514
1 1666.12 977879
3 1666.12 947442
3 1666.12 946018
3 1666.12 937403
3 1666.12 934113
3 1666.42 931640
3 1666.42 931003
3 1666.64 929439
3 1666.64 926560
3 1666.86 921321
3 1666.86 917035
3 1674.47 915941
3 1680.01 958343
3 1680.01 954825
3 1680.01 943482
3 1680.01 941696
3 1680.01 939703
3 1680.01 930168
3 1680.01 929867
3 1680.01 926287
3 1680.01 917274
3 1680.01 916339
3 1680.46 915012
3 1680.46 909697
3 1680.46 909238
3 1680.66 907735
3 1694.01 978706
3 1694.01 977578
1 1694.01 977061
3 1694.01 975637
3 1694.01 971068
3 1694.01 953762
3 1694.01 946225
3 1694.01 941939
3 1694.01 933041
3 1694.01 931255
3 1694.39 927914
3 1694.39 919299
3 1694.39 918631
3 1694.39 916009
1 1696.94 913506
3 1697.57 912456
3 1708.12 985949
1 1708.12 971607
3 1708.12 939378
3 1708.12 934281
3 1708.32 933980
3 1708.32 933782
3 1708.32 933388
3 1708.55 932260
3 1708.55 929777
1 1711.42 924793
3 1712.41 923910
3 1712.6 921774
3 1712.6 921321
3 1712.8 919846
3 1722.1 947253
3 1722.1 944043
3 1722.1 939805
3 1722.1 938677
3 1722.1 937447
3 1722.39 935046
3 1722.39 926587
3 1722.39 918478
3 1722.39 916342
3 1722.39 913500
3 1722.39 912056
3 1722.39 910632
3 1736.01 958700
3 1736.01 952294
3 1736.01 950140
3 1736.01 948525
3 1736.01 944520
3 1736.01 940625
3 1736.01 938599
3 1736.01 933201
3 1736.01 930928
3 1736.01 929339
3 1736.01 927915
3 1736.01 925973
3 1736.42 924187
3 1736.42 922839
3 1736.63 920877
3 1736.63 920468
3 1736.63 919917
3 1736.63 915174
3 1750.17 965840
3 1750.17 957549
3 1750.17 952594
3 1750.17 942445
3 1750.17 937643
3 1750.45 934153
3 1750.45 932923
3 1750.45 928918
3 1750.45 927643
3 1750.45 926962
3 1750.45 926515
3 1750.72 922609
3 1750.72 912556
3 1750.72 911428
3 1750.72 909122
3 1764.1 998564
3 1764.1 976680
3 1764.1 970522
3 1764.1 967232
3 1764.1 960152
3 1764.1 959024
3 1764.54 958723
3 1764.54 955246
3 1764.54 952527
3 1764.54 950158
3 1764.9 945698
3 1765.17 945240
3 1765.17 940933
3 1765.17 938797
3 1765.51 936926
3 1765.51 936625
3 1778.09 931537
3 1778.09 930113
3 1778.09 926351
3 1778.09 917291
3 1778.09 911709
3 1778.43 911484
3 1780.94 911472
3 1781.15 908885
3 1781.37 908023
3 1781.37 907757
3 1792.17 990973
3 1792.17 976576
3 1792.17 963379
3 1792.17 962251
3 1792.17 956751
3 1792.59 952236
3 1792.59 951483
3 1792.87 947478
3 1792.87 945999
3 1792.87 945698
3 1793.19 945240
3 1793.19 936625
3 1806.04 1010496
3 1806.04 1005297
3 1806.04 996682
3 1806.04 968303
3 1806.04 966879
3 1806.04 963861
3 1806.04 963791
3 1806.04 955246
3 1806.51 949548
3 1806.51 938994
3 1807.06 936625
3 1820.06 989076
3 1820.06 971425
3 1820.06 967420
3 1820.06 951209
3 1820.36 946923
3 1820.36 943973
3 1820.36 939968
3 1820.36 937817
3 1820.36 933585
3 1820.36 933284
1 1827.63 927275
3 1827.63 926253
3 1834.06 992620
3 1834.06 980206
3 1834.06 979078
3 1834.06 969891
3 1834.06 960878
3 1834.59 947980
3 1834.59 947609
3 1834.59 945240
3 1834.59 943996
3 1834.94 943427
3 1834.94 937753
3 1834.94 936625
3 1848.06 1045155
3 1848.06 1044385
3 1848.06 1030746
3 1848.06 1025547
3 1848.06 1019403
3 1848.06 994546
3 1848.06 991809
3 1848.06 977240
3 1848.33 976275
3 1848.33 963861
3 1848.33 959851
3 1848.33 958723
3 1848.55 956517
3 1848.55 944399
3 1848.55 943599
3 1848.55 938994
3 1848.79 937753
3 1848.97 936625
3 1862.08 991934
3 1862.08 988644
3 1862.08 984639
3 1862.08 984334
3 1862.08 983215
3 1862.35 965503
3 1862.35 956490
3 1862.35 954354
3 1862.35 953932
3 1862.35 952508
1 1863.49 938500
3 1863.49 938199
3 1863.67 914357
3 1863.67 913632
3 1863.67 913235
3 1863.67 912036
3 1863.67 908949
3 1863.93 907491
3 1863.93 904048
3 1864.12 903873
3 1864.12 901721
3 1864.62 899835
3 1876.08 1045492
3 1876.08 1045317
3 1876.08 1031678
3 1876.08 1022491
3 1876.08 1000083
3 1876.08 982777
3 1876.08 978491
1 1878.07 973581
3 1878.07 956275
3 1881.18 951379
3 1881.36 951130
3 1881.36 947093
3 1881.36 941486
3 1890.09 1018464
3 1890.09 1013265
1 1890.09 999432
3 1890.09 988577
3 1890.09 977046
3 1890.09 972234
1 1890.09 961953
3 1890.09 960529
3 1890.09 959154
3 1890.55 956966
3 1890.55 956602
3 1890.55 954164
3 1890.55 953863
3 1890.55 949577
3 1890.55 947060
3 1890.55 946303
3 1890.55 940564
3 1890.55 937274
3 1890.92 936102
3 1890.92 932670
3 1890.92 931246
3 1890.92 924814
3 1890.92 922912
3 1891.22 921126
3 1891.22 918742
3 1891.44 918050
3 1891.44 915927
3 1891.66 912456
3 1904.59 1030332
3 1904.59 1030031
3 1904.59 1016392
3 1904.59 1012106
3 1904.59 1010978
3 1904.59 986871
3 1904.59 986725
3 1904.59 981672
3 1904.59 965225
3 1904.96 961220
3 1904.96 960987
3 1904.96 957654
3 1904.96 956032
3 1904.96 947978
3 1904.96 947127
3 1904.96 945999
3 1904.96 945698
3 1905.46 945240
3 1905.46 938797
3 1905.46 936625
3 1918.12 976183
3 1918.12 951111
3 1918.12 948731
3 1918.12 944445
3 1918.12 933666
3 1918.12 931530
3 1918.12 926851
3 1918.12 926550
3 1918.12 924332
3 1918.46 922908
3 1918.46 920772
3 1918.46 912159
3 1918.46 908524
3 1932.04 1041170
3 1932.04 1027531
3 1932.04 989845
3 1932.04 989544
3 1932.04 979015
3 1932.04 977130
3 1932.34 967846
3 1932.34 965164
3 1932.57 960878
3 1932.57 959810
3 1932.57 954855
3 1932.57 952642
3 1932.57 950664
3 1932.84 949536
3 1932.84 945240
3 1933.04 943913
3 1933.04 936926
3 1933.4 936625
3 1946.12 1035202
3 1946.12 1033317
3 1946.12 1012746
3 1946.12 1003733
3 1946.12 986427
3 1946.43 971438
3 1946.43 955186
3 1946.43 953263
3 1946.43 950688
3 1946.43 947058
3 1946.43 944410
3 1946.43 942772
3 1946.43 942471
1 1946.87 929805
3 1946.87 921327
3 1946.87 919903
3 1947.08 918923
3 1947.08 917137
3 1947.26 916009
1 1948.74 913506
3 1950.22 912456
3 1960.1 957442
3 1960.1 948255
3 1960.1 939640
3 1960.1 938223
3 1960.1 935354
3 1960.1 925073
3 1960.1 922192
3 1960.38 918187
3 1960.55 916248
3 1960.71 915120
3 1960.71 914819
3 1974.06 990653
3 1974.06 989229
3 1974.06 976720
3 1974.06 974934
3 1974.06 974385
3 1974.06 972249
3 1974.06 970825
3 1974.55 967464
3 1974.55 962066
3 1974.76 955593
3 1974.76 946288
3 1974.76 945035
3 1974.99 943611
3 1988.06 993785
3 1988.06 950910
3 1988.06 949124
3 1988.06 946786
3 1988.06 938171
3 1988.06 936747
3 1988.35 934611
3 1988.35 922839
3 1988.35 922535
3 1988.35 915174
3 2002.14 1030075
3 2002.14 1028947
3 2002.14 1015308
3 2002.14 1007501
3 2002.14 975272
3 2002.14 968935
3 2002.14 959748
3 2002.14 956780
3 2002.14 952494
3 2002.43 951506
1 2011.16 945109
3 2011.16 942693
3 2011.38 941494
3 2011.38 940857
3 2011.75 939071
3 2016.05 970105
3 2016.05 968864
3 2016.05 956050
3 2016.05 938744
3 2016.05 936635
3 2016.05 935302
3 2016.05 932236
3 2016.05 929626
3 2016.35 925553
3 2016.35 914348
3 2016.83 913150
3 2016.83 911364
3 2030.1 1010949
3 2030.1 1008813
3 2030.1 999626
3 2030.1 956751
3 2030.1 946826
3 2030.37 942980
3 2030.37 939295
3 2030.37 938054
3 2030.37 936926
3 2030.37 936625
1 2042.03 929454
3 2044.16 995445
3 2044.16 995016
3 2044.16 991699
3 2044.16 991011
3 2044.16 989225
3 2044.16 984939
3 2044.44 979457
3 2044.44 971300
3 2044.44 959528
3 2044.68 956241
3 2044.68 947228
3 2044.68 939071
3 2058.09 995562
3 2058.09 991276
3 2058.09 982661
3 2058.09 962431
3 2058.09 934979
3 2058.4 933477
3 2058.4 932351
3 2058.4 929472
3 2058.62 927336
3 2058.62 925674
3 2058.8 923575
3 2058.8 921789
3 2059.01 918499
3 2059.01 916363
3 2059.01 914939
3 2072.2 984523
3 2072.2 971326
3 2072.2 969540
3 2072.2 968412
3 2072.2 954773
3 2072.2 954187
3 2072.2 950768
3 2072.2 949837
3 2072.64 949536
3 2072.64 946132
3 2072.64 945240
3 2072.86 940933
3 2072.86 938797
3 2073.07 938054
3 2073.07 937753
3 2073.28 936625
3 2086.16 975161
3 2086.16 974517
3 2086.16 961818
3 2086.16 948179
3 2086.16 939564
3 2086.56 938999
3 2086.56 934713
3 2086.56 934412
3 2086.79 934365
1 2098.1 933284
3 2100.12 982902
3 2100.12 973889
3 2100.12 954111
3 2100.12 952961
3 2100.12 943426
3 2100.12 942952
3 2100.12 940073
3 2100.12 926434
3 2100.12 921069
3 2100.43 913770
3 2100.43 902745
3 2114.06 1027098
3 2114.06 1014684
3 2114.06 1013556
3 2114.06 1004369
3 2114.06 988117
3 2114.06 983831
3 2114.06 983530
3 2114.34 974517
3 2114.34 961818
3 2114.55 959638
3 2114.55 959337
3 2114.55 945698
3 2114.55 934365
1 2124.76 933585
3 2124.76 933284
3 2128.11 989289
3 2128.11 987503
3 2128.11 973864
3 2128.11 965361
3 2128.11 965249
3 2128.11 964121
3 2128.11 955108
3 2128.11 945921
3 2142.03 1009697
3 2142.03 966822
3 2142.03 961524
3 2142.03 947885
3 2142.03 946757
3 2142.03 942471
3 2142.03 940109
3 2142.03 938994
3 2142.03 937753
3 2142.35 936625
3 2156.1 1036223
3 2156.1 1010496
3 2156.1 1005297
3 2156.1 996682
3 2156.1 994546
3 2156.1 988350
3 2156.1 977240
3 2156.39 947127
3 2156.39 936501
3 2156.59 934713
3 2156.59 934365
1 2162.82 933284
3 2170.11 1042882
3 2170.11 1026630
3 2170.11 1012991
3 2170.11 1008705
3 2170.11 1007577
3 2170.11 969891
3 2170.42 968476
3 2170.42 965135
3 2170.42 961130
3 2170.42 951825
3 2170.42 946583
3 2170.68 937570
3 2170.68 933284
1 2176.36 931794
3 2176.36 930840
3 2176.36 930539
3 2176.59 928605
3 2176.76 926253
1 2179.07 924938
3 2179.07 920649
3 2179.25 916363
3 2179.58 914939
3 2184.14 1003793
3 2184.14 994488
3 2184.14 990801
3 2184.14 983446
3 2184.14 980156
3 2184.14 966517
3 2184.14 964381
3 2184.14 945148
3 2184.14 942687
3 2184.51 934072
3 2184.51 932648
3 2198.07 1003922
3 2198.07 966236
3 2198.07 964086
3 2198.07 953822
3 2198.07 944076
3 2198.4 937570
3 2198.4 934365
3 2212.09 1024414
3 2212.09 1022589
3 2212.09 1022278
3 2212.09 1008639
3 2212.09 996984
3 2212.09 987971
3 2212.09 979376
3 2212.4 977240
3 2212.4 971271
3 2212.61 970970
3 2212.61 934365
3 2220.57 927194
3 2226.04 1041831
3 2226.04 1014237
3 2226.04 997985
3 2226.04 988798
3 2226.04 984512
3 2226.04 983384
3 2226.04 967215
3 2226.04 951671
3 2226.04 949264
3 2226.04 947478
3 2226.04 945698
3 2226.04 944076
3 2226.04 936501
3 2226.4 934365
1 2230.4 933284
3 2240.01 978559
3 2240.01 978258
3 2240.01 953807
3 2240.01 945999
3 2240.01 936501
3 2240.28 934365
3 2254.12 1011664
3 2254.12 984057
3 2254.12 973978
3 2254.35 970529
3 2254.35 960958
3 2254.35 956672
3 2268.03 1002733
3 2268.03 1000364
3 2268.03 987950
3 2268.03 984482
3 2268.03 981141
3 2268.03 979005
3 2268.03 964604
3 2268.03 964303
3 2268.36 950664
3 2268.36 942980
3 2268.58 937570
3 2268.58 934365
1 2270.16 933585
3 2270.35 933284
3 2282.15 987504
3 2282.15 963737
3 2282.15 956289
3 2282.15 950891
3 2282.15 932470
3 2282.15 930334
3 2282.46 927605
3 2282.46 923319
3 2282.46 921040
3 2282.46 917035
3 2296.14 987746
3 2296.14 986618
3 2296.14 986317
3 2296.14 958723
3 2296.14 957983
3 2296.14 953978
3 2296.47 952089
3 2296.47 946669
3 2296.47 946368
3 2296.47 945368
3 2296.47 943582
3 2296.76 940292
3 2296.76 938797
3 2296.97 936625
3 2310.08 979448
3 2310.08 977079
3 2310.08 963440
3 2310.08 956997
3 2310.08 954825
3 2310.08 945638
3 2310.41 936625
3 2324.11 947591
3 2324.11 942636
3 2324.11 932019
3 2324.11 931946
3 2324.11 930660
3 2324.11 922045
3 2324.11 913032
3 2324.11 909467
3 2324.46 909267
3 2324.46 904389
3 2338.14 926630
3 2338.14 922625
3 2338.14 917513
3 2338.14 914384
3 2338.14 909429
3 2338.14 908184
3 2338.14 907224
3 2338.14 902050
3 2338.49 901749
3 2338.49 901606
3 2338.7 898237
3 2340.61 898135
3 2340.61 897834
3 2340.61 893105
3 2352.04 994595
3 2352.04 979013
3 2352.04 977227
3 2352.04 967267
3 2352.04 966148
3 2352.04 963382
3 2352.04 959921
3 2352.04 956613
3 2352.04 955592
3 2352.04 947100
3 2352.04 943242
3 2352.47 939659
3 2352.47 937523
3 2352.47 934759
3 2352.47 931173
3 2352.75 924111
3 2352.94 922687
3 2352.94 916248
3 2353.14 912292
3 2353.14 912056
3 2353.14 912038
3 2353.14 910632
3 2366.04 951605
3 2366.04 947497
3 2366.04 943506
3 2366.04 942378
3 2366.04 937179
3 2366.04 930707
3 2366.04 913401
3 2366.36 913127
3 2366.36 909122
3 2380.13 965837
3 2380.13 957222
3 2380.13 955031
3 2380.13 953932
3 2380.13 953627
3 2380.69 952508
1 2381.33 938286
3 2381.33 931454
3 2381.54 928589
3 2381.54 927461
3 2381.54 927160
3 2381.54 917973
3 2381.54 907157
3 2381.54 904961
3 2381.54 902022
3 2381.83 901721
3 2382.33 899835
3 2394.01 970729
3 2394.01 961716
3 2394.01 944410
3 2394.01 942471
3 2394.43 941533
3 2394.43 938994
3 2394.43 938797
3 2394.43 936926
3 2394.83 936625
3 2408.05 992646
3 2408.05 988360
3 2408.05 974721
3 2408.05 974420
3 2408.05 952410
3 2408.05 945999
3 2408.53 945698
3 2408.86 945240
3 2408.86 941030
3 2408.86 940911
3 2408.86 938797
3 2409.27 938054
3 2409.27 936926
3 2409.48 936625
1 2420.91 933988
3 2420.91 930698
3 2420.91 930253
3 2420.91 929093
3 2420.91 923338
3 2421.16 922689
3 2421.16 922140
3 2421.16 921265
3 2422.12 989395
3 2422.12 985855
3 2422.12 983685
3 2422.12 983384
3 2422.12 970970
3 2422.12 965212
3 2422.12 957676
3 2422.12 953390
3 2422.12 952262
3 2422.12 943280
3 2422.43 938994
3 2422.77 938797
3 2422.95 938054
3 2423.29 936926
3 2423.29 936625
3 2436.04 1029204
3 2436.04 991518
3 2436.04 977879
3 2436.04 973906
3 2436.04 970565
3 2436.04 966537
3 2436.04 962251
3 2436.34 961950
3 2436.34 949837
3 2436.34 949536
3 2436.55 945240
3 2436.55 936625
3 2450.11 1060999
3 2450.11 1044667
3 2450.11 1033651
3 2450.11 1001422
3 2450.11 996756
3 2450.11 988141
3 2450.11 986486
3 2450.11 981432
3 2450.11 976477
3 2450.11 975501
3 2450.45 971496
3 2450.45 949802
3 2450.45 949577
3 2450.45 948449
3 2450.69 945035
3 2450.69 943611
3 2464.16 947207
3 2464.16 936281
3 2464.16 934495
3 2464.16 934489
3 2464.16 932791
3 2464.16 928639
3 2464.46 927491
3 2464.46 923075
3 2464.46 922909
3 2464.7 922619
3 2464.7 922318
3 2464.7 921190
3 2471.91 919722
3 2472.1 918737
3 2472.1 917174
3 2473.77 917038
3 2473.96 910890
3 2478.16 946169
3 2478.16 941214
3 2478.16 935085
3 2478.16 933957
3 2478.16 932348
3 2478.16 931503
3 2478.16 929367
3 2478.16 928239
3 2478.48 923733
3 2478.48 921073
3 2478.48 920772
3 2478.48 919447
3 2478.48 916509
3 2478.72 915268
3 2478.72 914019
3 2478.72 908816
3 2492.06 961000
3 2492.06 960479
3 2492.06 955524
3 2492.06 951778
3 2492.06 951695
3 2492.06 949992
3 2492.06 940805
3 2492.31 938443
3 2492.31 937315
3 2492.31 936800
1 2492.97 922596
3 2492.97 920927
3 2492.97 915178
3 2492.97 914670
3 2493.21 912995
3 2493.4 911768
3 2493.58 911672
3 2493.58 909632
3 2493.78 907735
3 2506.14 1037589
3 2506.14 1033303
3 2506.14 1024688
3 2506.14 1019396
3 2506.14 1016902
3 2506.14 1014197
3 2506.14 1013612
3 2506.14 1009326
3 2506.14 1002279
3 2506.45 985947
3 2506.45 983920
3 2506.45 980253
3 2506.45 977267
3 2506.71 968652
3 2506.71 961815
3 2506.71 961087
3 2506.92 960351
3 2506.92 959301
3 2519.72 955390
3 2519.72 952244
3 2519.91 951116
3 2520.09 1016909
3 2520.09 1014773
3 2520.09 1011483
3 2520.09 1002868
3 2520.09 989229
3 2520.09 967535
3 2528.27 966196
3 2528.27 958287
3 2528.27 956358
3 2528.27 954222
3 2528.27 953565
3 2528.27 952798
3 2528.27 943611
3 2534.11 1017918
3 2534.11 1004693
3 2534.11 980232
3 2534.11 979931
3 2534.11 979579
3 2534.11 978451
3 2534.11 977027
3 2534.11 963388
3 2534.11 960878
3 2534.46 944349
3 2534.64 943280
3 2534.64 942039
3 2534.87 940385
3 2534.87 938797
3 2534.87 937753
3 2535.1 936625
1 2544.87 936448
3 2544.87 935677
3 2544.87 933325
3 2544.87 931273
3 2545.11 924330
3 2545.11 923202
3 2545.11 919197
3 2545.11 917411
3 2545.11 913506
3 2546.28 912456
3 2548.1 991359
3 2548.1 982346
3 2548.1 971518
3 2548.1 958755
3 2548.1 956919
3 2548.1 954550
3 2548.1 940911
3 2548.41 936625
3 2562.04 1023416
3 2562.04 1022288
3 2562.04 1006036
3 2562.04 992397
3 2562.04 983384
3 2562.31 966116
3 2562.31 964988
3 2562.31 958887
3 2562.52 950159
3 2562.52 946826
3 2562.7 945698
3 2562.89 941700
3 2562.89 939564
3 2562.89 934365
1 2574.68 924117
3 2574.86 922761
3 2574.86 920625
3 2574.86 918631
3 2574.86 917795
3 2575.09 917562
3 2575.09 916009
3 2576.02 1034932
3 2576.02 1033804
3 2576.02 1006210
3 2576.02 997023
3 2576.02 972526
3 2576.02 958887
3 2576.02 952907
3 2576.02 951483
3 2576.02 936501
3 2576.36 934365
3 2590.09 961549
3 2590.09 952934
3 2590.09 936375
3 2590.41 909247
3 2590.41 904048
3 2590.41 902745
3 2604.21 1024003
3 2604.21 996409
3 2604.21 958723
3 2604.21 952192
3 2604.21 942471
3 2606.28 940213
3 2606.28 938994
3 2606.58 938797
3 2606.58 937753
3 2606.87 936625
3 2618.16 1005297
3 2618.16 966292
3 2618.16 965164
3 2618.5 944904
3 2618.5 943118
3 2618.5 942980
3 2618.8 937570
3 2618.8 934365
1 2626.99 933861
3 2626.99 928122
3 2626.99 921438
3 2627.28 918932
3 2627.28 918631
3 2627.57 916009
3 2632.22 990312
3 2632.22 985730
3 2632.22 969478
3 2632.22 968350
3 2632.22 954711
3 2632.22 948577
3 2632.22 947909
3 2632.22 939564
3 2632.22 937570
3 2632.22 934365
3 2646.13 1051184
3 2646.13 1050056
3 2646.13 1037642
3 2646.13 1021390
3 2646.13 1007751
3 2646.13 983498
3 2646.13 974311
3 2646.4 971701
3 2646.4 965789
1 2646.4 962338
3 2646.6 953325
3 2646.6 951985
3 2646.6 947980
3 2646.6 947587
3 2646.6 943582
3 2646.6 940292
3 2646.6 938868
3 2646.6 937740
3 2646.9 936926
3 2647.07 936625
1 2651.7 936127
3 2651.7 933053
3 2651.7 932752
3 2651.7 929751
3 2652.07 927965
3 2652.24 923639
3 2652.24 923338
3 2652.43 922689
3 2652.62 921265
3 2660.09 1013265
3 2660.09 999626
3 2660.09 994958
3 2660.09 990672
3 2660.09 974420
3 2660.09 965485
3 2660.37 962006
3 2660.37 944823
3 2660.37 943399
3 2660.37 943280
3 2660.37 940911
3 2660.62 936625
1 2663.03 933756
3 2663.03 930100
3 2663.03 929751
3 2663.53 927965
3 2663.84 924624
3 2664 924594
3 2664 920625
3 2664.24 917258
3 2664.24 916009
3 2674.18 972875
3 2674.18 940646
3 2674.18 939360
3 2674.18 935074
3 2674.18 933860
3 2674.18 929971
3 2674.18 927955
3 2674.18 926681
3 2674.18 924078
3 2674.49 922950
3 2674.66 913506
3 2677.46 912456
3 2688.07 955800
3 2688.07 951764
3 2688.07 951471
3 2688.07 947185
3 2688.07 942539
3 2688.07 938005
3 2688.07 937998
3 2688.72 930159
3 2688.72 929169
3 2688.91 924979
3 2688.91 921144
3 2688.91 910368
3 2702.03 991682
3 2702.03 975350
3 2702.03 972319
3 2702.03 971562
3 2702.03 959313
3 2702.03 951582
3 2702.03 934767
3 2702.03 930242
3 2702.03 926138
3 2702.03 925973
3 2702.03 921972
3 2702.33 920186
3 2702.33 919810
3 2702.52 915174
3 2702.52 911708
3 2702.52 911179
3 2702.52 909558
3 2702.52 909257
3 2702.91 909051
3 2702.91 908916
3 2703.25 908129
3 2716.11 978113
3 2716.11 964474
3 2716.11 951109
3 2716.11 938669
3 2716.11 929692
3 2716.11 929482
3 2716.11 928564
3 2716.11 914646
3 2716.11 914345
3 2716.11 911258
3 2716.58 910241
3 2716.9 909122
3 2730.05 976852
3 2730.05 976551
3 2730.05 971946
3 2730.05 967660
3 2730.05 961950
3 2730.05 960987
3 2730.05 950645
3 2730.05 943996
3 2730.37 943944
3 2730.37 942816
3 2730.37 941030
3 2730.58 940911
3 2730.58 936625
3 2744.06 965013
3 2744.06 963227
3 2744.06 960023
3 2744.06 951408
3 2744.3 944114
3 2744.3 942873
3 2744.3 942039
3 2744.3 938868
3 2744.3 937740
3 2744.66 936926
3 2744.97 936625
3 2758.13 1030443
3 2758.13 1025045
3 2758.13 1020090
3 2758.13 1017954
3 2758.13 990502
3 2758.13 964532
3 2758.13 956470
3 2758.13 954972
3 2758.13 953548
3 2758.48 944585
3 2758.48 944361
3 2758.68 944142
3 2758.85 941071
3 2762.74 940519
3 2762.74 924187
3 2762.74 915788
3 2763.08 915174
3 2772.07 968129
3 2772.07 960150
3 2772.07 958008
3 2772.07 955864
3 2772.07 939532
3 2772.07 932844
3 2772.07 922201
3 2772.35 920415
3 2772.35 917335
3 2786.02 970906
3 2786.02 963136
3 2786.02 952986
3 2786.02 943973
3 2786.27 939968
3 2786.44 937570
3 2786.44 935126
3 2786.63 933684
3 2786.63 933284
3 2790.6 922730
3 2790.77 920506
3 2790.77 919082
Score = 898699
